timestamp,TP9,AF7,AF8,TP10,Right AUX
0.000,-28.809,-54.199,1.953,3.906,0.000
4.000,-27.832,-47.852,0.488,8.301,0.000
8.000,-28.809,-49.805,-3.906,27.344,0.000
12.000,-32.715,-52.246,-6.348,28.320,0.000
16.000,-16.602,-49.316,0.488,27.832,0.000
20.000,3.418,-46.387,-5.859,16.602,0.000
23.000,-0.488,-49.316,0.000,10.254,0.000
27.000,-17.090,-42.969,4.883,8.789,0.000
31.000,-34.668,-34.668,-6.348,4.395,0.000
35.000,-38.086,-34.180,-7.812,-7.324,0.000
39.000,-43.457,-45.410,-12.695,-5.859,0.000
43.000,-46.875,-49.316,-9.277,10.254,0.000
47.000,-40.527,-37.598,-3.906,14.160,0.000
51.000,-33.203,-38.574,-9.766,14.160,0.000
55.000,-10.742,-39.062,8.789,37.598,0.000
59.000,-4.883,-26.367,13.184,52.734,0.000
62.000,-32.715,-39.062,-17.578,27.832,0.000
66.000,-49.805,-50.781,-31.250,1.465,0.000
70.000,-51.758,-53.223,-39.551,-11.230,0.000
74.000,-49.805,-60.059,-41.016,-12.695,0.000
78.000,-44.434,-56.641,-32.715,-10.742,0.000
82.000,-48.828,-52.246,-32.227,-19.043,0.000
86.000,-53.223,-53.711,-40.527,-22.949,0.000
90.000,-38.574,-52.734,-40.527,-24.902,0.000
94.000,-34.668,-53.711,-35.156,-26.367,0.000
98.000,-39.551,-57.617,-37.109,-26.855,0.000
102.000,-44.922,-57.617,-41.992,-29.785,0.000
105.000,-53.711,-52.246,-37.109,-39.062,0.000
109.000,-50.781,-49.316,-38.086,-41.016,0.000
113.000,-37.109,-53.711,-40.527,-25.391,0.000
117.000,-40.527,-56.152,-41.504,-37.109,0.000
121.000,-64.453,-49.805,-45.898,-42.480,0.000
125.000,-64.453,-43.945,-48.340,-29.297,0.000
129.000,-61.035,-44.434,-45.410,-27.832,0.000
133.000,-68.848,-49.805,-43.457,-34.180,0.000
137.000,-66.895,-47.852,-47.363,-54.688,0.000
141.000,-64.453,-41.992,-43.457,-39.551,0.000
145.000,-62.012,-40.527,-36.621,-17.578,0.000
148.000,-58.105,-38.574,-37.109,-18.066,0.000
152.000,-53.711,-36.133,-34.668,-14.648,0.000
156.000,-54.199,-34.180,-38.086,-24.902,0.000
160.000,-53.223,-38.086,-42.969,-25.391,0.000
164.000,-52.734,-37.109,-42.480,-14.160,0.000
168.000,-52.734,-34.668,-36.621,-21.973,0.000
172.000,-46.875,-41.504,-35.156,-32.715,0.000
176.000,-38.086,-43.945,-38.574,-15.137,0.000
180.000,-28.320,-43.457,-35.645,-4.883,0.000
184.000,-27.832,-42.969,-35.156,-22.461,0.000
187.000,-24.414,-35.645,-36.621,-23.438,0.000
191.000,-31.250,-29.297,-36.133,-5.859,0.000
195.000,-44.922,-35.156,-38.086,-15.137,0.000
199.000,-44.922,-38.574,-43.945,-21.973,0.000
203.000,-36.133,-37.598,-44.434,-12.207,0.000
207.000,-29.785,-36.621,-42.480,-5.859,0.000
211.000,-23.926,-34.180,-45.410,-12.207,0.000
215.000,-23.926,-34.668,-49.316,-21.484,0.000
219.000,-23.438,-34.180,-46.875,-19.531,0.000
223.000,-20.996,-30.273,-41.992,-15.137,0.000
227.000,-24.414,-26.855,-38.086,-10.742,0.000
230.000,-18.555,-27.832,-35.645,-4.883,0.000
234.000,-16.602,-27.344,-32.715,3.418,0.000
238.000,-22.461,-28.320,-31.738,4.883,0.000
242.000,-26.367,-29.785,-30.762,-10.254,0.000
246.000,-22.949,-31.250,-31.250,-10.742,0.000
250.000,-27.344,-31.738,-33.203,-15.137,0.000
254.000,-34.180,-35.645,-35.645,-19.531,0.000
258.000,-36.133,-39.551,-37.109,-10.254,0.000
262.000,-43.457,-39.062,-28.809,-10.254,0.000
266.000,-49.805,-47.363,-25.391,-19.531,0.000
270.000,-28.809,-49.805,-29.297,-1.465,0.000
273.000,-17.578,-36.621,-29.297,0.488,0.000
277.000,-39.062,-23.438,-45.410,-29.785,0.000
281.000,-51.758,-25.391,-52.246,-37.598,0.000
285.000,-51.758,-31.738,-48.340,-44.434,0.000
289.000,-55.664,-25.879,-51.758,-53.711,0.000
293.000,-62.012,-19.043,-60.059,-61.035,0.000
297.000,-59.082,-17.090,-67.383,-68.848,0.000
301.000,-64.941,-10.742,-63.965,-72.266,0.000
305.000,-70.312,-5.859,-63.477,-72.266,0.000
309.000,-74.219,-1.465,-76.172,-70.801,0.000
312.000,-75.684,2.930,-83.984,-73.242,0.000
316.000,-75.195,2.930,-78.613,-61.035,0.000
320.000,-74.219,7.812,-75.684,-71.777,0.000
324.000,-67.871,16.602,-79.102,-82.031,0.000
328.000,-72.266,22.949,-75.195,-78.125,0.000
332.000,-62.988,24.902,-73.242,-72.266,0.000
336.000,-52.246,26.855,-77.637,-74.707,0.000
340.000,-55.176,26.367,-81.055,-85.449,0.000
344.000,-54.199,32.715,-78.125,-75.195,0.000
348.000,-46.387,37.598,-75.684,-64.453,0.000
352.000,-47.363,37.598,-73.730,-66.895,0.000
355.000,-62.012,38.086,-78.125,-60.547,0.000
359.000,-56.152,35.156,-81.543,-57.129,0.000
363.000,-38.574,36.621,-80.566,-62.012,0.000
367.000,-41.504,34.668,-85.938,-72.266,0.000
371.000,-44.434,34.180,-87.891,-79.590,0.000
375.000,-31.738,39.551,-86.426,-72.266,0.000
379.000,-32.715,38.086,-84.961,-54.688,0.000
383.000,-31.250,36.133,-82.520,-55.664,0.000
387.000,-26.855,32.715,-86.426,-74.707,0.000
391.000,-20.996,34.180,-85.938,-50.781,0.000
395.000,-13.672,33.203,-73.242,-32.227,0.000
398.000,-11.230,29.785,-67.871,-35.156,0.000
402.000,-13.184,26.855,-68.359,-37.109,0.000
406.000,-4.395,25.879,-65.918,-26.367,0.000
410.000,-5.371,23.926,-63.965,-15.137,0.000
414.000,-7.324,17.578,-60.547,-27.832,0.000
418.000,-1.953,15.625,-54.688,-33.203,0.000
422.000,5.371,19.043,-49.805,-27.344,0.000
426.000,2.441,16.113,-51.758,-24.902,0.000
430.000,-3.906,8.301,-51.758,-20.508,0.000
434.000,-2.441,6.836,-49.805,-25.879,0.000
437.000,-6.836,8.301,-53.223,-36.133,0.000
441.000,-7.812,3.418,-53.223,-30.762,0.000
445.000,-11.719,1.953,-50.781,-19.531,0.000
449.000,-30.762,0.488,-47.852,-26.855,0.000
453.000,-26.855,-0.488,-45.410,-31.738,0.000
457.000,-23.438,-2.930,-43.457,-25.879,0.000
461.000,-36.133,-8.301,-44.434,-17.578,0.000
465.000,-33.203,-10.254,-48.828,-13.184,0.000
469.000,-20.508,-6.348,-38.086,-20.508,0.000
473.000,-26.855,-6.348,-32.227,-20.996,0.000
477.000,-33.691,-10.254,-37.598,-20.508,0.000
480.000,-26.855,-8.789,-38.574,-23.438,0.000
484.000,-36.133,-8.301,-37.109,-26.367,0.000
488.000,-43.945,-12.207,-35.645,-18.555,0.000
492.000,-40.527,-13.672,-38.086,-2.930,0.000
496.000,-39.062,-13.672,-37.109,-7.812,0.000
500.000,-42.969,-16.113,-38.086,-22.461,0.000
504.000,-43.457,-13.672,-39.062,-20.996,0.000
508.000,-35.156,-10.254,-41.016,-10.742,0.000
512.000,-36.133,-11.230,-38.574,-20.020,0.000
516.000,-37.109,-4.395,-34.668,-22.949,0.000
520.000,-30.762,-5.859,-35.645,-8.789,0.000
523.000,-29.297,-8.301,-32.227,-7.324,0.000
527.000,-18.555,-7.812,-30.273,-3.906,0.000
531.000,-21.973,-11.230,-37.109,-5.859,0.000
535.000,-31.250,-16.113,-41.504,-27.832,0.000
539.000,-24.414,-12.207,-37.109,-36.133,0.000
543.000,-26.367,-10.254,-37.109,-18.066,0.000
547.000,-29.297,-14.160,-34.668,-7.324,0.000
551.000,-28.320,-12.207,-33.203,-12.207,0.000
555.000,-26.367,-12.207,-38.574,-20.996,0.000
559.000,-21.973,-14.160,-41.016,-18.066,0.000
562.000,-18.555,-13.184,-38.574,-8.789,0.000
566.000,-11.230,-15.137,-33.691,-12.695,0.000
570.000,-11.230,-16.602,-31.250,-21.484,0.000
574.000,-15.137,-13.184,-32.715,-14.160,0.000
578.000,-23.926,-16.602,-32.715,-11.719,0.000
582.000,-26.367,-20.508,-30.273,-17.578,0.000
586.000,-21.484,-22.949,-30.762,-17.090,0.000
590.000,-21.973,-20.996,-25.391,-3.906,0.000
594.000,-24.414,-20.508,-25.391,6.836,0.000
598.000,-31.250,-25.391,-28.809,-13.184,0.000
602.000,-34.668,-29.297,-31.250,-27.832,0.000
605.000,-30.273,-22.461,-27.344,-13.184,0.000
609.000,-40.527,-18.555,-26.367,-7.812,0.000
613.000,-40.039,-20.020,-30.273,-14.160,0.000
617.000,-29.297,-18.066,-27.832,-7.812,0.000
621.000,-30.762,-16.602,-32.227,-14.160,0.000
625.000,-30.762,-21.484,-33.203,-19.043,0.000
629.000,-26.367,-20.508,-30.273,0.488,0.000
633.000,-31.250,-16.602,-30.762,-1.465,0.000
637.000,-25.391,-20.508,-29.297,-9.277,0.000
641.000,-20.508,-22.461,-25.391,-3.418,0.000
645.000,-34.668,-20.508,-21.484,-0.977,0.000
648.000,-38.086,-18.066,-21.973,-11.719,0.000
652.000,-27.832,-16.602,-22.461,-13.184,0.000
656.000,-23.926,-12.695,-21.973,-9.277,0.000
660.000,-20.020,-11.719,-27.344,-6.348,0.000
664.000,-15.137,-13.672,-30.762,-2.930,0.000
668.000,-10.742,-15.137,-28.809,-4.395,0.000
672.000,-12.207,-18.555,-25.879,-11.230,0.000
676.000,-15.625,-19.531,-24.902,-10.254,0.000
680.000,2.441,-18.555,-24.902,-1.953,0.000
684.000,10.254,-18.066,-28.809,0.977,0.000
687.000,0.000,-18.555,-31.250,-0.977,0.000
691.000,-6.836,-22.461,-31.250,-6.348,0.000
695.000,-33.691,-21.484,-28.809,0.000,0.000
699.000,-49.805,-21.973,-30.273,-0.488,0.000
703.000,-41.992,-20.508,-29.297,-1.465,0.000
707.000,-29.297,-17.090,-28.320,-5.859,0.000
711.000,-31.250,-21.484,-32.227,-2.441,0.000
715.000,-37.109,-18.066,-33.203,5.371,0.000
719.000,-25.391,-13.672,-29.785,6.836,0.000
723.000,-20.996,-14.648,-26.367,1.465,0.000
727.000,-23.926,-15.137,-23.926,5.859,0.000
730.000,5.859,-11.719,-27.344,30.762,0.000
734.000,16.602,-9.766,-24.902,28.809,0.000
738.000,-13.184,-17.090,-20.020,-0.488,0.000
742.000,-20.020,-20.996,-23.438,-3.906,0.000
746.000,-13.184,-24.902,-20.508,6.836,0.000
750.000,-13.672,-33.691,-17.578,4.883,0.000
754.000,-5.371,-38.574,-9.277,10.742,0.000
758.000,-7.324,-44.922,-8.789,17.578,0.000
762.000,-18.066,-48.340,-8.789,14.160,0.000
766.000,-16.602,-55.664,0.488,5.371,0.000
770.000,-7.812,-62.012,5.371,8.301,0.000
773.000,21.973,-61.035,2.930,20.020,0.000
777.000,21.484,-61.035,1.465,21.484,0.000
781.000,-0.488,-61.523,5.371,15.625,0.000
785.000,-4.883,-65.918,7.324,12.207,0.000
789.000,-20.020,-69.336,13.672,24.414,0.000
793.000,-69.336,-71.289,15.137,40.527,0.000
797.000,-71.289,-71.777,13.184,35.645,0.000
801.000,-54.688,-75.195,11.719,25.391,0.000
805.000,-56.152,-78.125,9.766,36.133,0.000
809.000,-27.344,-73.242,12.695,42.480,0.000
812.000,-15.625,-66.895,14.160,28.809,0.000
816.000,-11.230,-65.918,12.207,27.832,0.000
820.000,-11.230,-65.918,9.766,37.109,0.000
824.000,-39.062,-70.312,11.230,26.855,0.000
828.000,-42.969,-74.219,19.043,26.367,0.000
832.000,-27.832,-68.848,17.578,40.527,0.000
836.000,-27.832,-68.848,10.742,46.875,0.000
840.000,-20.020,-70.312,10.742,43.945,0.000
844.000,-12.695,-64.941,16.113,35.156,0.000
848.000,-29.297,-64.941,13.672,27.344,0.000
852.000,-35.156,-65.918,11.719,18.066,0.000
855.000,-25.879,-68.848,14.160,18.555,0.000
859.000,-30.762,-70.801,10.742,19.043,0.000
863.000,-33.691,-71.777,8.789,28.320,0.000
867.000,-29.297,-69.824,11.230,18.555,0.000
871.000,-23.438,-69.336,11.230,-1.953,0.000
875.000,-26.367,-67.871,7.324,5.371,0.000
879.000,-20.508,-63.965,8.789,20.996,0.000
883.000,-19.531,-62.500,6.348,23.926,0.000
887.000,-26.855,-63.477,6.348,10.742,0.000
891.000,-24.902,-62.988,8.301,14.648,0.000
895.000,-16.602,-55.176,9.766,34.180,0.000
898.000,-20.508,-49.805,11.230,28.809,0.000
902.000,-21.484,-44.922,5.859,16.602,0.000
906.000,-7.812,-41.992,10.254,25.391,0.000
910.000,-8.301,-42.480,16.113,40.527,0.000
914.000,-14.160,-43.457,7.324,32.227,0.000
918.000,-15.137,-47.852,4.395,19.043,0.000
922.000,-13.672,-48.340,8.301,25.391,0.000
926.000,-19.043,-40.039,7.812,35.156,0.000
930.000,-18.555,-37.598,7.324,34.668,0.000
934.000,-11.230,-35.156,10.254,24.414,0.000
937.000,-4.883,-29.297,9.766,23.438,0.000
941.000,-13.672,-33.203,8.301,24.414,0.000
945.000,-20.508,-33.203,5.859,8.789,0.000
949.000,-21.484,-28.809,6.348,-7.812,0.000
953.000,-24.902,-30.762,4.883,-4.883,0.000
957.000,-15.625,-33.203,1.465,2.930,0.000
961.000,-12.207,-29.297,2.441,2.441,0.000
965.000,-11.230,-22.949,0.000,5.371,0.000
969.000,-8.789,-21.973,-2.930,2.930,0.000
973.000,-23.926,-25.391,0.000,-13.184,0.000
977.000,-38.086,-21.484,-0.488,-9.766,0.000
980.000,-27.344,-18.555,-2.930,9.277,0.000
984.000,-15.137,-21.484,-2.930,19.531,0.000
988.000,-20.020,-24.414,-2.441,11.719,0.000
992.000,-20.020,-31.250,-10.742,12.207,0.000
996.000,-15.137,-31.250,-14.648,7.324,0.000
1000.000,-28.809,-31.250,-12.207,-2.441,0.000
1004.000,-34.668,-29.785,-15.625,-11.230,0.000
1008.000,-20.996,-27.832,-20.508,-1.953,0.000
1012.000,-23.438,-29.785,-20.996,13.184,0.000
1016.000,-36.133,-30.762,-19.531,3.906,0.000
1020.000,-29.785,-30.762,-18.066,-5.371,0.000
1023.000,-19.043,-28.320,-19.531,4.395,0.000
1027.000,-15.625,-23.926,-23.438,8.301,0.000
1031.000,-20.020,-26.855,-24.414,0.977,0.000
1035.000,-28.320,-26.855,-26.367,-11.230,0.000
1039.000,-21.484,-23.926,-23.438,-14.648,0.000
1043.000,-14.160,-22.949,-18.066,-11.719,0.000
1047.000,-25.391,-21.484,-19.043,-22.949,0.000
1051.000,-31.250,-25.391,-14.648,-8.789,0.000
1055.000,-15.625,-29.785,-14.648,0.000,0.000
1059.000,-0.977,-25.391,-20.996,-5.371,0.000
1062.000,-20.996,-20.020,-20.508,6.348,0.000
1066.000,-26.855,-25.391,-18.066,12.207,0.000
1070.000,-19.531,-27.344,-15.137,-7.812,0.000
1074.000,-16.113,-24.414,-13.184,-14.160,0.000
1078.000,-2.930,-27.832,-16.602,-3.418,0.000
1082.000,-2.930,-27.832,-16.602,0.977,0.000
1086.000,-15.625,-29.785,-18.066,-10.742,0.000
1090.000,-18.066,-29.785,-21.973,-17.090,0.000
1094.000,-8.789,-21.973,-23.438,-7.324,0.000
1098.000,-7.324,-16.602,-25.879,-5.859,0.000
1102.000,-3.906,-16.602,-23.438,0.000,0.000
1105.000,-2.930,-14.648,-22.949,7.324,0.000
1109.000,-9.277,-14.648,-23.438,20.020,0.000
1113.000,-13.672,-19.043,-23.438,23.438,0.000
1117.000,-24.902,-22.949,-27.344,14.648,0.000
1121.000,-26.855,-19.043,-25.391,13.184,0.000
1125.000,-16.113,-17.578,-24.414,19.531,0.000
1129.000,-10.742,-16.113,-22.461,18.066,0.000
1133.000,-14.648,-12.207,-21.484,7.324,0.000
1137.000,-25.391,-12.695,-25.879,-1.465,0.000
1141.000,-23.926,-14.160,-30.762,-15.137,0.000
1144.000,-24.902,-14.160,-26.855,-21.973,0.000
1148.000,-31.738,-19.531,-20.508,-11.230,0.000
1152.000,-6.836,-25.391,-21.484,-5.371,0.000
1156.000,2.441,-14.648,-25.879,-9.277,0.000
1160.000,-23.438,-6.348,-36.133,-14.160,0.000
1164.000,-44.922,-8.301,-40.039,-11.230,0.000
1168.000,-45.898,-12.207,-41.992,-25.391,0.000
1172.000,-42.480,-15.137,-43.457,-36.621,0.000
1176.000,-44.922,-9.277,-49.805,-35.156,0.000
1180.000,-49.805,-2.441,-60.547,-49.316,0.000
1184.000,-51.270,-1.953,-61.035,-60.059,0.000
1187.000,-56.641,-2.930,-60.059,-64.453,0.000
1191.000,-61.035,-5.859,-63.965,-66.406,0.000
1195.000,-52.734,-3.418,-66.895,-60.547,0.000
1199.000,-45.898,3.906,-67.383,-64.941,0.000
1203.000,-49.805,8.789,-71.777,-83.496,0.000
1207.000,-57.129,14.160,-78.613,-87.891,0.000
1211.000,-65.918,22.949,-78.613,-74.707,0.000
1215.000,-80.078,22.949,-82.031,-77.637,0.000
1219.000,-75.684,23.926,-83.008,-84.961,0.000
1223.000,-62.988,27.832,-81.055,-83.496,0.000
1227.000,-62.988,28.320,-83.984,-78.125,0.000
1230.000,-63.965,30.762,-83.008,-80.078,0.000
1234.000,-67.871,32.227,-80.566,-95.215,0.000
1238.000,-56.641,39.551,-76.660,-84.473,0.000
1242.000,-43.457,45.410,-76.172,-70.312,0.000
1246.000,-45.410,45.410,-75.684,-78.125,0.000
1250.000,-49.316,51.758,-73.242,-79.590,0.000
1254.000,-54.688,49.316,-76.660,-78.125,0.000
1258.000,-53.711,40.039,-77.637,-83.008,0.000
1262.000,-51.758,35.645,-71.289,-76.172,0.000
1266.000,-53.711,32.227,-70.801,-78.613,0.000
1269.000,-43.945,32.227,-71.289,-81.055,0.000
1273.000,-30.762,31.738,-68.848,-70.801,0.000
1277.000,-26.855,25.391,-63.477,-58.105,0.000
1281.000,-41.016,18.555,-58.594,-50.781,0.000
1285.000,-48.340,16.113,-59.082,-55.664,0.000
1289.000,-42.969,16.113,-56.152,-62.500,0.000
1293.000,-48.340,15.625,-52.246,-52.734,0.000
1297.000,-60.059,15.137,-50.293,-53.223,0.000
1301.000,-50.293,9.277,-50.781,-57.129,0.000
1305.000,-46.875,7.812,-50.781,-46.875,0.000
1309.000,-55.176,5.859,-52.246,-44.434,0.000
1312.000,-58.594,3.418,-52.734,-45.898,0.000
1316.000,-58.105,4.395,-46.875,-50.293,0.000
1320.000,-54.199,1.465,-47.363,-51.758,0.000
1324.000,-50.781,-5.371,-52.734,-48.340,0.000
1328.000,-60.547,-9.277,-51.270,-45.898,0.000
1332.000,-62.988,-7.812,-47.852,-40.527,0.000
1336.000,-54.688,-6.836,-45.410,-36.621,0.000
1340.000,-61.035,-9.277,-46.875,-35.156,0.000
1344.000,-60.547,-10.742,-46.387,-22.949,0.000
1348.000,-60.059,-12.695,-47.852,-26.855,0.000
1352.000,-53.223,-17.090,-48.828,-48.828,0.000
1355.000,-48.340,-19.531,-46.387,-55.664,0.000
1359.000,-55.664,-21.484,-46.875,-48.828,0.000
1363.000,-61.035,-25.391,-44.922,-39.062,0.000
1367.000,-62.988,-25.391,-45.898,-34.668,0.000
1371.000,-65.918,-20.996,-45.410,-33.203,0.000
1375.000,-74.219,-20.508,-37.598,-20.020,0.000
1379.000,-68.359,-21.973,-37.598,-12.695,0.000
1383.000,-57.617,-18.555,-34.180,-17.090,0.000
1387.000,-52.734,-18.555,-34.668,-31.738,0.000
1391.000,-48.828,-19.043,-41.504,-34.180,0.000
1394.000,-51.270,-20.020,-39.062,-23.926,0.000
1398.000,-47.852,-16.113,-37.109,-25.391,0.000
1402.000,-30.762,-14.160,-37.598,-33.691,0.000
1406.000,-35.156,-20.508,-37.109,-31.738,0.000
1410.000,-49.316,-19.531,-34.180,-20.508,0.000
1414.000,-58.594,-18.066,-32.227,-12.207,0.000
1418.000,-50.293,-16.113,-32.227,-21.484,0.000
1422.000,-33.691,-11.230,-29.785,-27.832,0.000
1426.000,-41.504,-13.184,-31.250,-23.926,0.000
1430.000,-38.574,-11.719,-31.738,-19.043,0.000
1434.000,-31.250,-9.277,-32.227,-17.578,0.000
1437.000,-29.785,-11.230,-29.785,-19.531,0.000
1441.000,-29.297,-12.207,-27.832,-20.508,0.000
1445.000,-32.715,-8.789,-28.320,-19.531,0.000
1449.000,-27.344,-11.230,-25.879,-21.484,0.000
1453.000,-25.879,-14.648,-24.902,-29.297,0.000
1457.000,-30.762,-14.160,-25.391,-26.367,0.000
1461.000,-23.926,-14.648,-25.391,-21.484,0.000
1465.000,-29.785,-15.625,-25.879,-25.879,0.000
1469.000,-36.133,-16.113,-27.832,-32.227,0.000
1473.000,-26.367,-21.973,-30.762,-34.180,0.000
1477.000,-34.668,-25.879,-31.738,-22.461,0.000
1480.000,-44.922,-18.066,-29.785,-11.719,0.000
1484.000,-43.457,-15.625,-25.391,-29.297,0.000
1488.000,-34.668,-19.531,-25.879,-43.945,0.000
1492.000,-37.109,-17.090,-31.738,-30.273,0.000
1496.000,-53.711,-17.090,-36.621,-19.531,0.000
1500.000,-50.781,-19.043,-38.086,-25.879,0.000
1504.000,-41.504,-20.996,-33.691,-22.461,0.000
1508.000,-53.223,-22.461,-31.738,-12.695,0.000
1512.000,-54.199,-23.438,-28.809,-25.391,0.000
1516.000,-49.316,-26.367,-29.785,-39.551,0.000
1519.000,-37.598,-25.391,-34.180,-35.645,0.000
1523.000,-34.180,-23.926,-33.203,-29.785,0.000
1527.000,-45.898,-22.949,-34.180,-33.691,0.000
1531.000,-44.434,-22.949,-35.156,-34.668,0.000
1535.000,-35.156,-22.461,-30.273,-37.598,0.000
1539.000,-37.109,-20.508,-31.738,-43.945,0.000
1543.000,-32.715,-18.555,-31.738,-36.133,0.000
1547.000,-20.996,-19.531,-26.855,-22.461,0.000
1551.000,-29.785,-24.414,-25.879,-27.344,0.000
1555.000,-39.551,-22.461,-30.273,-31.250,0.000
1559.000,-34.180,-19.531,-28.809,-19.043,0.000
1562.000,-39.551,-17.578,-26.367,-9.277,0.000
1566.000,-50.293,-11.719,-28.809,-23.438,0.000
1570.000,-38.574,-13.184,-31.738,-32.227,0.000
1574.000,-36.133,-20.020,-32.227,-27.344,0.000
1578.000,-41.016,-20.996,-29.297,-21.484,0.000
1582.000,-42.969,-21.484,-26.855,-12.207,0.000
1586.000,-41.016,-19.043,-26.855,-7.324,0.000
1590.000,-31.738,-21.484,-32.715,5.859,0.000
1594.000,-18.555,-21.484,-27.832,27.344,0.000
1598.000,-24.902,-17.090,-22.461,-4.395,0.000
1602.000,-41.504,-21.484,-25.391,-27.832,0.000
1605.000,-21.973,-29.297,-20.020,-1.465,0.000
1609.000,-11.719,-36.621,-16.113,12.695,0.000
1613.000,-20.508,-37.598,-13.184,13.672,0.000
1617.000,-27.344,-43.945,-11.719,4.883,0.000
1621.000,-28.809,-53.223,-12.207,-4.883,0.000
1625.000,-15.137,-51.758,-4.883,6.836,0.000
1629.000,8.301,-47.852,-4.395,9.766,0.000
1633.000,4.883,-50.781,-6.348,2.930,0.000
1637.000,1.953,-56.641,1.465,7.812,0.000
1641.000,13.672,-59.570,2.930,20.020,0.000
1644.000,14.160,-63.965,1.465,29.785,0.000
1648.000,-1.953,-66.406,6.348,26.855,0.000
1652.000,-6.836,-65.918,10.254,28.320,0.000
1656.000,-12.207,-67.383,9.277,25.879,0.000
1660.000,-26.855,-68.359,9.277,30.762,0.000
1664.000,-41.016,-69.824,6.348,36.133,0.000
1668.000,-34.668,-67.383,9.277,38.086,0.000
1672.000,-33.203,-68.359,15.137,43.945,0.000
1676.000,-47.852,-69.336,14.160,33.203,0.000
1680.000,-37.109,-68.359,13.184,30.762,0.000
1684.000,-17.578,-69.336,16.113,44.922,0.000
1687.000,-21.973,-65.918,16.113,42.969,0.000
1691.000,-21.973,-68.359,14.648,30.273,0.000
1695.000,-19.531,-70.801,14.648,22.461,0.000
1699.000,-23.438,-70.312,12.695,11.719,0.000
1703.000,-17.090,-69.824,10.742,9.766,0.000
1707.000,-21.484,-68.848,11.719,20.996,0.000
1711.000,-38.086,-67.383,12.207,26.855,0.000
1715.000,-39.062,-60.547,10.742,17.578,0.000
1719.000,-31.250,-55.664,4.395,17.090,0.000
1723.000,-19.531,-53.711,5.859,23.438,0.000
1727.000,-17.578,-56.152,7.324,13.184,0.000
1730.000,-32.227,-58.594,10.254,5.371,0.000
1734.000,-25.879,-62.988,14.160,6.348,0.000
1738.000,-24.414,-63.477,11.230,3.906,0.000
1742.000,-33.691,-58.594,13.672,2.930,0.000
1746.000,-21.484,-57.617,14.648,4.395,0.000
1750.000,-26.367,-60.059,11.719,10.254,0.000
1754.000,-33.203,-59.570,9.277,4.395,0.000
1758.000,-28.320,-58.105,11.230,-2.930,0.000
1762.000,-41.016,-57.617,15.137,9.277,0.000
1766.000,-45.410,-60.059,15.625,4.883,0.000
1769.000,-31.738,-54.199,11.230,-12.207,0.000
1773.000,-21.973,-44.922,8.301,-3.906,0.000
1777.000,-29.785,-42.480,15.137,13.184,0.000
1781.000,-39.062,-41.992,15.137,17.090,0.000
1785.000,-43.457,-44.434,9.766,5.859,0.000
1789.000,-34.180,-47.363,9.277,1.953,0.000
1793.000,-37.598,-47.363,5.859,17.578,0.000
1797.000,-35.156,-39.062,5.859,22.949,0.000
1801.000,-26.855,-34.668,8.789,16.602,0.000
1805.000,-36.621,-35.645,5.371,4.395,0.000
1809.000,-40.527,-36.621,1.465,-2.930,0.000
1812.000,-38.574,-39.062,0.977,-0.977,0.000
1816.000,-42.480,-42.969,-4.883,-11.230,0.000
1820.000,-43.457,-41.504,-5.859,-17.578,0.000
1824.000,-43.457,-38.574,-4.395,-22.461,0.000
1828.000,-37.598,-36.133,-4.883,-29.785,0.000
1832.000,-40.527,-33.203,-2.930,-25.391,0.000
1836.000,-39.062,-35.645,-3.418,-19.531,0.000
1840.000,-32.715,-41.016,-4.395,-16.602,0.000
1844.000,-45.898,-37.109,-4.883,-11.230,0.000
1848.000,-39.062,-35.156,-2.441,-12.207,0.000
1852.000,-38.086,-38.574,-7.812,-21.484,0.000
1855.000,-39.062,-38.086,-12.695,-29.785,0.000
1859.000,-39.062,-38.574,-11.719,-27.832,0.000
1863.000,-48.340,-35.645,-13.184,-26.367,0.000
1867.000,-41.504,-32.715,-15.625,-22.461,0.000
1871.000,-48.340,-34.668,-18.066,-16.113,0.000
1875.000,-48.828,-36.133,-18.555,-7.324,0.000
1879.000,-51.758,-34.668,-16.602,-11.230,0.000
1883.000,-52.734,-31.738,-15.137,-28.809,0.000
1887.000,-40.527,-32.227,-17.578,-27.344,0.000
1891.000,-46.875,-35.645,-17.578,-19.531,0.000
1894.000,-39.551,-34.668,-17.090,-15.625,0.000
1898.000,-26.367,-26.367,-17.578,-11.719,0.000
1902.000,-31.738,-26.367,-22.461,-16.602,0.000
1906.000,-36.621,-27.344,-18.066,-12.207,0.000
1910.000,-28.809,-22.949,-8.789,-13.184,0.000
1914.000,-26.855,-22.949,-11.230,-17.578,0.000
1918.000,-26.855,-21.484,-17.578,-14.648,0.000
1922.000,-26.855,-22.949,-19.531,-5.859,0.000
1926.000,-10.254,-21.484,-20.996,-2.930,0.000
1930.000,-18.555,-15.625,-23.926,0.977,0.000
1934.000,-28.809,-11.719,-23.438,6.348,0.000
1937.000,-18.555,-11.719,-23.926,-8.789,0.000
1941.000,-16.113,-13.672,-25.391,-14.160,0.000
1945.000,-13.184,-18.066,-24.902,-5.859,0.000
1949.000,-12.207,-15.137,-28.809,-10.742,0.000
1953.000,-14.160,-15.137,-35.156,-14.648,0.000
1957.000,-9.766,-19.043,-33.691,-11.230,0.000
1961.000,-15.137,-19.043,-28.320,-6.348,0.000
1965.000,-33.691,-19.043,-27.832,-4.395,0.000
1969.000,-31.250,-17.090,-31.250,-19.043,0.000
1973.000,-36.133,-23.438,-38.086,-29.785,0.000
1977.000,-45.410,-24.414,-35.645,-23.438,0.000
1980.000,-38.574,-22.949,-27.344,-20.020,0.000
1984.000,-36.621,-27.832,-23.438,-21.973,0.000
1988.000,-46.875,-32.715,-20.020,-14.160,0.000
1992.000,-44.434,-38.574,-15.137,0.000,0.000
1996.000,-21.973,-38.086,-10.742,7.324,0.000
2000.000,-10.254,-19.043,-12.695,2.930,0.000
2004.000,-26.855,-8.301,-25.879,-18.555,0.000
2008.000,-44.922,-10.742,-31.250,-38.086,0.000
2012.000,-43.457,-5.859,-34.668,-41.016,0.000
2016.000,-38.574,-4.395,-41.504,-44.922,0.000
2019.000,-43.945,0.977,-47.852,-56.152,0.000
2023.000,-48.340,7.812,-57.129,-58.105,0.000
2027.000,-52.734,7.812,-60.547,-50.781,0.000
2031.000,-60.059,4.883,-59.570,-50.293,0.000
2035.000,-62.012,3.906,-61.523,-61.523,0.000
2039.000,-53.223,10.742,-65.918,-77.637,0.000
2043.000,-55.664,11.230,-69.336,-70.312,0.000
2047.000,-59.082,8.301,-69.824,-61.035,0.000
2051.000,-61.523,16.113,-70.312,-61.523,0.000
2055.000,-70.801,21.973,-72.754,-63.965,0.000
2059.000,-59.570,27.344,-74.707,-77.637,0.000
2062.000,-51.758,33.691,-72.754,-78.613,0.000
2066.000,-53.711,36.621,-70.312,-81.055,0.000
2070.000,-45.410,41.016,-72.266,-84.473,0.000
2074.000,-40.527,45.410,-69.336,-74.707,0.000
2078.000,-39.551,43.457,-71.289,-69.336,0.000
2082.000,-43.457,42.969,-74.707,-69.336,0.000
2086.000,-49.316,44.922,-74.707,-76.172,0.000
2090.000,-40.527,38.574,-83.008,-87.891,0.000
2094.000,-33.203,38.574,-80.078,-74.219,0.000
2098.000,-37.109,43.457,-75.684,-55.664,0.000
2102.000,-35.156,41.504,-77.637,-61.523,0.000
2105.000,-27.832,44.434,-75.684,-58.594,0.000
2109.000,-20.996,47.363,-71.289,-42.969,0.000
2113.000,-21.973,44.434,-69.336,-46.875,0.000
2117.000,-25.391,42.480,-69.336,-62.988,0.000
2121.000,-32.715,42.480,-67.871,-63.477,0.000
2125.000,-33.691,40.527,-58.105,-48.340,0.000
2129.000,-31.250,38.574,-54.199,-40.527,0.000
2133.000,-25.879,40.039,-59.570,-53.223,0.000
2137.000,-18.555,36.133,-58.105,-55.176,0.000
2141.000,-16.602,28.809,-56.152,-46.387,0.000
2144.000,-13.184,22.949,-58.105,-38.086,0.000
2148.000,-17.578,16.602,-57.617,-40.527,0.000
2152.000,-26.855,15.625,-55.664,-51.270,0.000
2156.000,-22.949,12.207,-56.641,-47.852,0.000
2160.000,-18.066,5.859,-59.082,-39.551,0.000
2164.000,-25.391,1.953,-60.059,-48.828,0.000
2168.000,-29.785,-4.883,-62.012,-57.129,0.000
2172.000,-25.879,-1.953,-51.270,-33.691,0.000
2176.000,-30.762,-4.883,-48.340,-25.391,0.000
2180.000,-37.598,-12.207,-52.734,-32.227,0.000
2184.000,-29.785,-9.277,-46.875,-24.414,0.000
2187.000,-18.555,-8.301,-42.969,-22.949,0.000
2191.000,-33.203,-10.254,-47.363,-20.996,0.000
2195.000,-37.598,-8.789,-44.922,-14.160,0.000
2199.000,-24.902,-7.812,-39.551,-18.066,0.000
2203.000,-33.691,-10.742,-41.992,-26.855,0.000
2207.000,-32.227,-9.766,-40.039,-9.277,0.000
2211.000,-20.020,-7.324,-37.598,1.465,0.000
2215.000,-18.555,-10.254,-40.527,-6.836,0.000
2219.000,-23.438,-9.277,-38.574,-17.578,0.000
2223.000,-25.879,-7.812,-35.156,-20.996,0.000
2227.000,-19.531,-13.184,-33.203,-11.719,0.000
2230.000,-19.043,-15.137,-33.691,-13.672,0.000
2234.000,-19.043,-12.695,-36.621,-19.043,0.000
2238.000,-16.602,-12.695,-29.785,-10.742,0.000
2242.000,-15.625,-18.066,-30.762,-7.324,0.000
2246.000,-20.508,-19.531,-35.156,-4.395,0.000
2250.000,-19.043,-14.160,-30.762,2.441,0.000
2254.000,-18.066,-14.160,-30.273,0.488,0.000
2258.000,-17.578,-14.648,-32.227,0.000,0.000
2262.000,-19.531,-11.230,-29.785,6.836,0.000
2266.000,-18.555,-9.277,-26.367,4.883,0.000
2269.000,0.000,-6.836,-23.438,8.301,0.000
2273.000,5.859,-7.812,-27.832,7.324,0.000
2277.000,-10.254,-11.719,-31.738,2.930,0.000
2281.000,-25.879,-14.160,-29.297,0.000,0.000
2285.000,-28.809,-11.230,-29.297,-5.859,0.000
2289.000,-21.484,-9.277,-24.414,0.488,0.000
2293.000,-15.625,-13.672,-21.973,-0.488,0.000
2297.000,-24.902,-13.672,-24.902,-3.418,0.000
2301.000,-27.832,-13.184,-26.367,-2.441,0.000
2305.000,-17.578,-18.066,-26.855,-11.230,0.000
2309.000,-16.113,-16.113,-26.367,-1.953,0.000
2312.000,-30.273,-16.602,-26.367,-0.488,0.000
2316.000,-28.809,-17.090,-23.438,-5.859,0.000
2320.000,-18.066,-16.602,-20.996,-9.766,0.000
2324.000,-24.414,-12.695,-20.996,-18.066,0.000
2328.000,-29.785,-9.766,-21.973,-19.043,0.000
2332.000,-30.273,-14.160,-25.391,-29.297,0.000
2336.000,-34.668,-15.625,-27.344,-32.715,0.000
2340.000,-33.203,-20.508,-30.762,-24.414,0.000
2344.000,-20.020,-17.090,-32.227,-22.949,0.000
2348.000,-14.160,-15.625,-32.715,-19.043,0.000
2351.000,-9.277,-15.625,-32.227,-22.461,0.000
2355.000,-1.953,-9.766,-29.297,-21.973,0.000
2359.000,-0.488,-11.230,-29.785,-4.395,0.000
2363.000,-11.719,-10.742,-32.227,-2.441,0.000
2367.000,-21.973,-7.324,-32.715,-16.113,0.000
2371.000,-19.531,-14.160,-33.203,-29.297,0.000
2375.000,-25.879,-21.484,-33.203,-26.855,0.000
2379.000,-26.367,-20.508,-35.156,-12.695,0.000
2383.000,-30.762,-14.648,-34.668,-14.160,0.000
2387.000,-31.738,-9.766,-28.809,-20.020,0.000
2391.000,-18.066,-16.113,-28.320,-20.508,0.000
2394.000,-17.090,-16.602,-25.879,-19.043,0.000
2398.000,-31.738,-19.043,-27.832,-22.461,0.000
2402.000,-31.738,-19.531,-31.738,-29.297,0.000
2406.000,-15.137,-18.555,-31.250,-28.320,0.000
2410.000,-20.996,-19.043,-31.250,-22.461,0.000
2414.000,-26.367,-13.672,-25.391,-25.391,0.000
2418.000,-14.648,-11.230,-28.809,-27.344,0.000
2422.000,-13.184,-9.277,-31.250,-22.949,0.000
2426.000,-19.043,-9.766,-24.414,-14.648,0.000
2430.000,-23.926,-17.090,-30.273,-5.859,0.000
2434.000,-24.902,-27.344,-37.109,-9.277,0.000
2437.000,-20.996,-25.391,-34.180,-18.555,0.000
2441.000,-15.625,-19.043,-26.367,-9.277,0.000
2445.000,-22.461,-21.484,-28.809,-10.742,0.000
2449.000,-23.438,-23.926,-34.668,-22.949,0.000
2453.000,-15.625,-20.508,-27.832,-14.160,0.000
2457.000,-24.414,-15.137,-21.484,-5.859,0.000
2461.000,-25.391,-15.137,-22.949,-9.766,0.000
2465.000,-18.555,-13.184,-20.996,-20.996,0.000
2469.000,-21.484,-11.230,-20.020,-12.695,0.000
2473.000,-25.879,-15.137,-21.973,-5.859,0.000
2476.000,-17.578,-14.160,-24.414,-9.277,0.000
2480.000,-21.973,-17.578,-27.344,-7.324,0.000
2484.000,-35.645,-18.555,-20.996,-13.672,0.000
2488.000,-42.480,-21.973,-21.484,-18.555,0.000
2492.000,-28.320,-24.414,-23.926,-10.742,0.000
2496.000,-36.133,-20.020,-22.949,-4.883,0.000
2500.000,-63.965,-23.438,-23.926,-18.555,0.000
2504.000,-55.176,-21.973,-22.949,-19.531,0.000
2508.000,-41.992,-21.973,-23.926,-6.836,0.000
2512.000,-26.855,-22.461,-26.367,5.371,0.000
2516.000,-1.953,-18.555,-22.949,-3.906,0.000
2519.000,-36.133,-30.762,-20.996,-37.598,0.000
2523.000,-44.922,-40.039,-21.484,-33.691,0.000
2527.000,-18.066,-35.645,-20.020,-10.742,0.000
2531.000,-27.832,-41.016,-14.160,-13.672,0.000
2535.000,-25.391,-44.922,-8.789,-6.836,0.000
2539.000,-5.371,-41.016,-6.348,-6.836,0.000
2543.000,-14.160,-43.457,-6.836,-9.766,0.000
2547.000,-20.020,-45.898,-7.324,-6.348,0.000
2551.000,-13.184,-47.363,-5.371,-2.441,0.000
2555.000,-19.043,-49.805,-1.953,1.953,0.000
2559.000,-21.973,-47.363,3.418,16.113,0.000
2562.000,-29.785,-49.805,3.418,19.531,0.000
2566.000,-35.645,-56.641,1.953,14.160,0.000
2570.000,-25.879,-57.129,0.977,19.531,0.000
2574.000,-18.066,-58.594,4.395,17.578,0.000
2578.000,-20.996,-58.594,9.766,19.531,0.000
2582.000,-24.902,-58.105,7.324,19.043,0.000
2586.000,-26.855,-59.082,6.348,15.625,0.000
2590.000,-18.555,-56.641,10.254,15.625,0.000
2594.000,-11.719,-59.082,11.719,27.344,0.000
2598.000,-6.836,-61.523,14.160,28.320,0.000
2601.000,-3.906,-61.035,13.672,19.531,0.000
2605.000,-9.277,-65.430,10.742,17.090,0.000
2609.000,-4.883,-65.918,13.672,21.973,0.000
2613.000,-4.395,-65.430,12.695,26.855,0.000
2617.000,-2.930,-67.871,12.695,29.785,0.000
2621.000,-4.395,-69.336,12.695,20.020,0.000
2625.000,-9.766,-73.730,6.348,8.789,0.000
2629.000,-7.324,-75.195,5.371,25.391,0.000
2633.000,-7.812,-75.684,7.812,30.762,0.000
2637.000,-6.836,-76.660,9.766,13.184,0.000
2641.000,-11.230,-70.312,12.207,25.391,0.000
2644.000,-22.461,-69.336,14.648,38.086,0.000
2648.000,-13.184,-74.707,14.160,30.273,0.000
2652.000,-3.418,-64.941,15.625,23.438,0.000
2656.000,-23.438,-64.941,14.160,18.555,0.000
2660.000,-20.020,-67.383,14.648,24.902,0.000
2664.000,-9.277,-63.477,19.531,25.391,0.000
2668.000,-12.695,-62.012,20.508,19.531,0.000
2672.000,-21.484,-59.570,23.438,29.297,0.000
2676.000,-18.066,-54.688,26.855,48.340,0.000
2680.000,-5.859,-54.199,30.273,44.434,0.000
2684.000,0.977,-51.270,28.320,32.227,0.000
2687.000,0.488,-44.922,23.438,32.227,0.000
2691.000,4.395,-46.387,19.043,31.738,0.000
2695.000,3.418,-49.805,18.555,34.668,0.000
2699.000,-4.883,-49.316,20.020,45.898,0.000
2703.000,1.953,-45.410,21.484,48.340,0.000
2707.000,0.488,-41.504,16.602,25.879,0.000
2711.000,-10.254,-44.434,11.230,13.672,0.000
2715.000,-7.324,-45.898,8.789,17.090,0.000
2719.000,-3.418,-45.410,6.836,12.695,0.000
2723.000,-7.324,-43.457,6.836,9.277,0.000
2726.000,-8.789,-40.527,5.371,12.207,0.000
2730.000,-6.836,-38.574,5.859,12.207,0.000
2734.000,-2.930,-36.133,4.883,2.930,0.000
2738.000,-2.930,-35.156,3.418,7.812,0.000
2742.000,-26.367,-44.434,0.977,16.113,0.000
2746.000,-34.180,-44.922,0.977,15.137,0.000
2750.000,-32.715,-41.504,3.418,12.207,0.000
2754.000,-30.273,-41.504,3.418,11.230,0.000
2758.000,-21.484,-41.992,3.906,7.324,0.000
2762.000,-15.625,-43.945,9.277,9.277,0.000
2766.000,-21.973,-43.945,7.812,4.395,0.000
2769.000,-41.016,-46.387,-5.371,-19.531,0.000
2773.000,-33.691,-46.387,-7.812,-18.555,0.000
2777.000,-12.207,-41.504,-4.395,-0.488,0.000
2781.000,-20.996,-38.574,-6.836,8.789,0.000
2785.000,-27.344,-40.527,-5.859,7.324,0.000
2789.000,-20.508,-39.062,-2.930,8.789,0.000
2793.000,-21.484,-35.645,-8.789,12.207,0.000
2797.000,-25.391,-34.180,-9.766,17.578,0.000
2801.000,-25.391,-32.227,-5.859,19.043,0.000
2805.000,-24.902,-32.715,-11.230,-0.977,0.000
2809.000,-20.020,-34.668,-16.113,-6.348,0.000
2812.000,-21.973,-35.645,-12.695,-3.418,0.000
2816.000,-36.621,-34.668,-14.648,-16.113,0.000
2820.000,-29.785,-33.691,-14.160,-18.555,0.000
2824.000,-24.902,-36.133,-11.230,-13.184,0.000
2828.000,-33.691,-35.156,-16.113,-11.719,0.000
2832.000,-28.809,-30.273,-15.625,-6.348,0.000
2836.000,-8.789,-30.273,-13.672,-18.066,0.000
2840.000,-11.230,-31.738,-16.113,-13.184,0.000
2844.000,-27.344,-26.367,-13.184,11.230,0.000
2848.000,-35.645,-28.320,-14.160,6.348,0.000
2851.000,-41.016,-32.715,-13.184,-11.230,0.000
2855.000,-41.016,-29.785,-12.207,-10.254,0.000
2859.000,-32.715,-28.809,-10.742,3.418,0.000
2863.000,-28.320,-33.691,-11.719,0.488,0.000
2867.000,-35.645,-34.180,-16.113,-2.441,0.000
2871.000,-36.621,-34.180,-19.531,2.930,0.000
2875.000,-30.273,-36.133,-21.973,14.648,0.000
2879.000,-26.855,-37.109,-21.484,11.230,0.000
2883.000,-28.320,-30.273,-22.949,-5.859,0.000
2887.000,-24.414,-26.855,-21.484,-9.766,0.000
2891.000,-19.043,-31.738,-22.949,1.465,0.000
2894.000,-22.949,-33.203,-28.809,-3.906,0.000
2898.000,-25.391,-30.762,-30.273,-16.113,0.000
2902.000,-15.625,-26.855,-27.832,-12.207,0.000
2906.000,-18.066,-27.344,-27.832,-7.324,0.000
2910.000,-20.996,-23.926,-25.879,-15.137,0.000
2914.000,-25.391,-21.484,-23.438,-22.949,0.000
2918.000,-29.297,-26.367,-24.902,-25.879,0.000
2922.000,-17.578,-26.855,-27.344,-22.949,0.000
2926.000,-17.578,-29.297,-25.391,-20.020,0.000
2930.000,-28.809,-25.879,-28.809,-28.320,0.000
2934.000,-31.250,-19.531,-30.762,-26.367,0.000
2937.000,-30.273,-23.438,-27.344,-22.461,0.000
2941.000,-29.785,-21.484,-25.391,-18.555,0.000
2945.000,-25.391,-20.508,-23.438,-16.602,0.000
2949.000,-30.762,-21.484,-21.484,-20.508,0.000
2953.000,-36.133,-21.484,-22.461,-23.438,0.000
2957.000,-33.203,-22.949,-24.902,-24.414,0.000
2961.000,-34.180,-23.438,-23.438,-14.648,0.000
2965.000,-34.180,-24.414,-26.855,-12.695,0.000
2969.000,-27.344,-25.879,-31.738,-20.508,0.000
2973.000,-21.484,-26.855,-28.809,-33.203,0.000
2976.000,-29.297,-27.832,-27.832,-24.902,0.000
2980.000,-27.344,-28.320,-29.785,-12.207,0.000
2984.000,-19.531,-22.949,-28.809,-27.832,0.000
2988.000,-17.090,-22.461,-28.809,-28.320,0.000
2992.000,-13.184,-25.879,-31.250,-13.184,0.000
2996.000,-26.367,-24.902,-23.438,-11.230,0.000
3000.000,-33.203,-30.273,-20.508,-23.438,0.000
3004.000,-7.812,-34.668,-19.043,-15.137,0.000
3008.000,9.766,-27.832,-14.648,8.789,0.000
3012.000,-9.766,-17.578,-21.973,0.000,0.000
3016.000,-41.504,-15.625,-35.156,-36.133,0.000
3019.000,-45.898,-14.160,-36.621,-58.105,0.000
3023.000,-27.832,-4.395,-34.180,-41.016,0.000
3027.000,-26.855,-1.953,-44.922,-40.527,0.000
3031.000,-37.598,4.883,-48.340,-58.105,0.000
3035.000,-45.898,13.672,-44.922,-68.359,0.000
3039.000,-51.270,9.277,-50.781,-72.266,0.000
3043.000,-53.223,11.719,-57.129,-74.219,0.000
3047.000,-71.777,16.113,-64.453,-88.867,0.000
3051.000,-80.078,19.043,-67.871,-94.238,0.000
3055.000,-74.707,26.855,-63.965,-86.426,0.000
3059.000,-79.102,31.250,-70.801,-87.402,0.000
3062.000,-84.473,26.855,-76.172,-99.121,0.000
3066.000,-78.613,31.738,-72.754,-89.844,0.000
3070.000,-70.312,40.039,-71.289,-82.031,0.000
3074.000,-71.777,45.410,-69.336,-100.098,0.000
3078.000,-63.965,51.270,-68.359,-98.633,0.000
3082.000,-62.012,48.828,-69.824,-99.121,0.000
3086.000,-59.082,48.340,-71.777,-99.609,0.000
3090.000,-51.270,52.246,-71.777,-82.031,0.000
3094.000,-54.688,49.805,-73.242,-77.637,0.000
3098.000,-49.316,49.805,-77.148,-81.543,0.000
3101.000,-53.223,50.293,-77.637,-91.309,0.000
3105.000,-40.527,51.758,-74.707,-78.125,0.000
3109.000,-22.949,53.711,-72.754,-55.176,0.000
3113.000,-27.832,53.711,-68.848,-55.176,0.000
3117.000,-30.762,49.805,-69.336,-69.336,0.000
3121.000,-32.715,35.645,-75.195,-79.590,0.000
3125.000,-31.250,31.738,-74.707,-66.406,0.000
3129.000,-23.926,37.598,-71.777,-57.617,0.000
3133.000,-19.531,38.086,-70.312,-56.641,0.000
3137.000,-24.902,30.762,-68.359,-47.363,0.000
3141.000,-24.902,23.926,-69.336,-41.504,0.000
3144.000,-13.672,20.996,-64.941,-37.109,0.000
3148.000,-8.789,15.625,-62.012,-31.738,0.000
3152.000,-11.230,16.113,-61.523,-28.809,0.000
3156.000,-18.066,18.555,-59.570,-32.715,0.000
3160.000,-20.020,19.531,-55.664,-28.809,0.000
3164.000,-20.996,18.066,-49.316,-25.879,0.000
3168.000,-16.602,12.207,-48.828,-33.691,0.000
3172.000,-15.625,7.324,-46.875,-30.762,0.000
3176.000,-18.555,5.859,-44.434,-23.438,0.000
3180.000,-27.344,5.859,-45.898,-17.578,0.000
3184.000,-28.320,0.488,-43.945,-18.555,0.000
3187.000,-25.391,3.418,-38.574,-15.625,0.000
3191.000,-28.809,2.930,-36.133,-5.371,0.000
3195.000,-28.809,-4.883,-33.203,-4.395,0.000
3199.000,-27.832,-6.836,-36.133,-12.207,0.000
3203.000,-19.531,-6.836,-41.504,-17.578,0.000
3207.000,-16.113,-2.441,-37.598,-13.672,0.000
3211.000,-18.066,-4.395,-39.062,-16.602,0.000
3215.000,-20.508,-13.672,-44.922,-18.555,0.000
3219.000,-28.320,-11.230,-43.457,-7.812,0.000
3223.000,-28.809,-9.766,-40.039,-7.324,0.000
3226.000,-25.879,-13.672,-37.598,-4.883,0.000
3230.000,-19.531,-15.137,-35.156,1.953,0.000
3234.000,-23.926,-15.137,-33.691,1.953,0.000
3238.000,-22.949,-19.531,-34.668,-2.441,0.000
3242.000,-18.066,-19.043,-33.203,1.953,0.000
3246.000,-11.719,-16.113,-34.180,-0.488,0.000
3250.000,-3.418,-12.695,-33.203,-10.742,0.000
3254.000,-0.488,-3.906,-32.715,-15.137,0.000
3258.000,-3.906,-6.836,-35.645,-10.742,0.000
3262.000,-14.648,-14.648,-36.621,-6.348,0.000
3266.000,-20.508,-16.602,-38.574,-5.371,0.000
3269.000,-9.277,-17.578,-38.086,-6.836,0.000
3273.000,-15.137,-18.066,-35.156,1.953,0.000
3277.000,-29.297,-16.602,-32.715,5.859,0.000
3281.000,-22.461,-15.137,-29.297,0.000,0.000
3285.000,-23.926,-15.137,-27.832,-9.277,0.000
3289.000,-32.227,-19.531,-29.785,-19.531,0.000
3293.000,-30.273,-21.973,-28.320,-20.508,0.000
3297.000,-25.391,-20.020,-23.438,-19.531,0.000
3301.000,-20.996,-14.160,-22.461,-22.461,0.000
3305.000,-15.625,-13.184,-20.996,-19.531,0.000
3309.000,-13.672,-16.113,-25.391,-15.625,0.000
3312.000,-13.672,-20.508,-28.809,-17.090,0.000
3316.000,-5.859,-20.996,-24.902,-23.926,0.000
3320.000,-13.184,-18.555,-25.391,-30.762,0.000
3324.000,-24.414,-14.160,-24.902,-8.301,0.000
3328.000,-25.879,-15.137,-22.461,8.789,0.000
3332.000,-18.555,-18.555,-20.996,-7.324,0.000
3336.000,-17.578,-15.625,-23.438,-26.367,0.000
3340.000,-30.762,-18.066,-27.344,-24.414,0.000
3344.000,-35.645,-20.508,-24.902,-14.648,0.000
3348.000,-37.109,-20.020,-22.461,-10.742,0.000
3351.000,-31.250,-24.902,-27.344,-10.742,0.000
3355.000,-24.414,-25.879,-28.320,-13.184,0.000
3359.000,-24.902,-27.832,-23.926,-21.973,0.000
3363.000,-20.020,-25.391,-26.367,-21.973,0.000
3367.000,-18.555,-18.066,-23.438,-16.113,0.000
3371.000,-14.160,-16.602,-18.066,-9.277,0.000
3375.000,-16.602,-19.043,-19.043,-5.859,0.000
3379.000,-16.602,-22.461,-20.020,-0.488,0.000
3383.000,-15.137,-24.902,-20.508,-4.395,0.000
3387.000,-21.484,-23.438,-20.508,-15.625,0.000
3391.000,-24.902,-21.973,-20.508,-11.230,0.000
3394.000,-22.949,-19.531,-19.531,-4.395,0.000
3398.000,-11.230,-20.508,-20.020,-17.090,0.000
3402.000,-6.836,-15.137,-20.996,-28.809,0.000
3406.000,-0.977,-17.090,-28.809,-26.855,0.000
3410.000,-5.371,-22.949,-31.250,-27.344,0.000
3414.000,-19.043,-24.902,-29.785,-31.738,0.000
3418.000,-8.301,-24.414,-25.391,-30.762,0.000
3422.000,-5.371,-29.297,-18.066,-14.648,0.000
3426.000,-27.832,-29.785,-26.367,-21.973,0.000
3430.000,-26.855,-23.926,-32.227,-31.250,0.000
3433.000,-24.414,-20.508,-21.484,-19.043,0.000
3437.000,-44.434,-18.555,-21.484,-19.043,0.000
3441.000,-50.293,-23.438,-30.273,-23.438,0.000
3445.000,-31.250,-22.461,-29.785,-0.488,0.000
3449.000,-29.785,-18.555,-23.926,9.766,0.000
3453.000,-47.852,-23.438,-25.391,-12.695,0.000
3457.000,-51.758,-32.715,-25.391,-15.137,0.000
3461.000,-34.668,-33.691,-16.113,3.418,0.000
3465.000,-27.832,-33.203,-10.254,8.789,0.000
3469.000,-23.438,-41.016,-7.324,-0.488,0.000
3473.000,-19.531,-49.805,-7.324,1.953,0.000
3476.000,-20.020,-54.688,-2.930,12.695,0.000
3480.000,-18.066,-56.641,2.441,5.859,0.000
3484.000,-9.766,-58.594,6.348,13.184,0.000
3488.000,4.395,-60.059,14.648,27.344,0.000
3492.000,-7.324,-63.965,17.578,25.879,0.000
3496.000,-4.883,-64.453,13.672,27.832,0.000
3500.000,11.230,-60.547,11.719,25.391,0.000
3504.000,-9.766,-58.594,13.184,29.297,0.000
3508.000,7.324,-63.477,14.160,13.184,0.000
3512.000,3.418,-66.406,17.090,10.742,0.000
3516.000,-17.090,-62.988,25.391,30.273,0.000
3519.000,-25.879,-64.453,24.902,21.973,0.000
3523.000,-34.180,-69.824,25.879,26.855,0.000
3527.000,-32.227,-70.312,27.832,28.809,0.000
3531.000,-30.762,-66.406,26.367,18.555,0.000
3535.000,-25.879,-69.336,21.484,13.672,0.000
3539.000,-19.531,-72.266,20.508,10.742,0.000
3543.000,-16.113,-69.336,24.902,14.160,0.000
3547.000,-25.879,-68.359,22.461,6.836,0.000
3551.000,-26.855,-69.336,18.555,1.953,0.000
3555.000,-25.879,-67.383,19.043,7.324,0.000
3558.000,-17.090,-62.500,25.879,24.414,0.000
3562.000,-20.508,-63.965,27.832,24.414,0.000
3566.000,-29.785,-65.430,29.785,15.137,0.000
3570.000,-27.344,-63.965,33.691,24.902,0.000
3574.000,-28.320,-64.941,29.297,27.344,0.000
3578.000,-15.625,-63.477,26.367,28.320,0.000
3582.000,-6.348,-60.547,28.320,30.273,0.000
3586.000,-20.020,-58.594,24.902,25.879,0.000
3590.000,-26.367,-59.082,22.949,20.996,0.000
3594.000,-19.531,-60.547,23.438,31.738,0.000
3598.000,1.953,-62.012,19.043,28.809,0.000
3601.000,4.395,-55.664,17.090,20.020,0.000
3605.000,-3.418,-55.664,13.672,17.090,0.000
3609.000,0.000,-57.129,12.207,37.598,0.000
3613.000,-3.418,-53.223,15.137,50.293,0.000
3617.000,-6.836,-52.734,13.672,23.438,0.000
3621.000,-5.859,-49.805,11.719,19.043,0.000
3625.000,3.906,-53.711,8.789,21.484,0.000
3629.000,2.930,-55.664,8.789,16.602,0.000
3633.000,-7.324,-49.805,11.230,9.766,0.000
3637.000,-16.113,-48.828,12.207,9.766,0.000
3641.000,-12.207,-45.410,11.719,23.438,0.000
3644.000,-6.836,-41.504,6.836,24.414,0.000
3648.000,-9.766,-43.945,7.812,24.414,0.000
3652.000,-19.531,-41.016,5.371,5.371,0.000
3656.000,-16.113,-40.039,-0.977,-8.789,0.000
3660.000,-4.883,-41.504,0.000,6.348,0.000
3664.000,-12.695,-37.598,0.000,9.277,0.000
3668.000,-18.555,-36.621,-3.906,17.090,0.000
3672.000,-14.160,-36.133,-2.930,11.719,0.000
3676.000,-15.625,-34.180,-0.488,9.766,0.000
3680.000,-20.020,-36.133,-2.930,9.277,0.000
3683.000,-28.809,-38.574,-2.930,4.883,0.000
3687.000,-31.250,-35.645,-7.324,7.812,0.000
3691.000,-18.555,-34.180,-7.812,2.930,0.000
3695.000,-14.160,-32.227,-5.371,-0.977,0.000
3699.000,-22.461,-36.621,-12.695,-4.883,0.000
3703.000,-22.461,-39.551,-17.090,-9.277,0.000
3707.000,-22.461,-38.086,-21.973,-16.602,0.000
3711.000,-15.625,-30.273,-19.531,-1.465,0.000
3715.000,-5.859,-22.949,-11.719,6.836,0.000
3719.000,-9.766,-28.809,-18.066,-11.230,0.000
3723.000,-15.625,-33.691,-20.508,-8.301,0.000
3726.000,-13.184,-29.297,-14.160,4.395,0.000
3730.000,-11.230,-25.879,-12.207,0.977,0.000
3734.000,-15.625,-29.785,-11.719,-3.418,0.000
3738.000,-18.066,-32.227,-18.066,-13.672,0.000
3742.000,-32.227,-32.715,-19.531,-12.695,0.000
3746.000,-52.734,-35.156,-15.137,-1.465,0.000
3750.000,-53.223,-32.715,-17.090,-7.324,0.000
3754.000,-37.109,-31.250,-23.926,-17.090,0.000
3758.000,-39.062,-31.250,-26.855,-7.812,0.000
3762.000,-51.270,-29.785,-34.668,-1.953,0.000
3766.000,-40.039,-33.691,-32.715,-18.555,0.000
3769.000,-31.738,-34.668,-22.949,-32.227,0.000
3773.000,-30.762,-32.715,-20.996,-9.766,0.000
3777.000,-24.902,-37.109,-25.391,4.395,0.000
3781.000,-20.020,-33.691,-24.414,-5.859,0.000
3785.000,-18.066,-27.344,-19.043,-10.254,0.000
3789.000,-17.578,-32.227,-22.949,-8.301,0.000
3793.000,-15.625,-35.156,-26.367,-8.301,0.000
3797.000,-19.043,-30.273,-22.949,-8.301,0.000
3801.000,-12.695,-24.902,-20.020,-6.348,0.000
3805.000,-1.953,-25.879,-22.461,-15.625,0.000
3808.000,-9.766,-28.809,-30.273,-31.250,0.000
3812.000,-15.137,-28.809,-32.715,-23.438,0.000
3816.000,-12.695,-27.832,-26.855,-4.395,0.000
3820.000,-23.926,-24.414,-21.484,1.953,0.000
3824.000,-36.133,-23.926,-23.926,-14.160,0.000
3828.000,-31.250,-25.391,-25.391,-19.043,0.000
3832.000,-25.391,-22.461,-21.484,-8.789,0.000
3836.000,-27.832,-21.973,-24.902,-6.348,0.000
3840.000,-24.414,-17.578,-23.926,-1.953,0.000
3844.000,-24.902,-13.672,-18.555,6.348,0.000
3848.000,-18.555,-17.578,-19.043,0.000,0.000
3851.000,-9.277,-16.602,-22.949,-13.184,0.000
3855.000,-25.879,-17.578,-23.926,-17.578,0.000
3859.000,-29.297,-19.531,-22.461,-15.625,0.000
3863.000,-9.277,-14.160,-18.066,-5.859,0.000
3867.000,-10.742,-10.742,-14.160,-0.977,0.000
3871.000,-14.160,-15.625,-15.625,0.000,0.000
3875.000,-7.324,-17.578,-15.137,-2.441,0.000
3879.000,-9.277,-13.184,-19.531,-9.277,0.000
3883.000,-15.137,-15.625,-24.902,-3.418,0.000
3887.000,-3.906,-10.254,-20.996,-7.324,0.000
3891.000,-3.906,-10.254,-22.949,-10.254,0.000
3894.000,-12.695,-14.648,-22.949,-5.371,0.000
3898.000,-14.160,-12.695,-22.461,-5.371,0.000
3902.000,-2.441,-13.184,-25.391,-2.441,0.000
3906.000,-2.930,-18.555,-27.832,-2.930,0.000
3910.000,-20.996,-21.973,-23.926,7.812,0.000
3914.000,-24.902,-28.320,-17.578,0.000,0.000
3918.000,-13.672,-35.156,-18.555,-7.812,0.000
3922.000,2.441,-27.344,-18.066,16.602,0.000
3926.000,-18.555,-12.207,-28.809,9.277,0.000
3930.000,-41.504,-11.230,-35.156,-17.090,0.000
3933.000,-26.855,-8.789,-37.598,-27.344,0.000
3937.000,-31.250,-5.859,-47.363,-40.039,0.000
3941.000,-31.738,-1.953,-52.246,-52.246,0.000
3945.000,-33.691,3.906,-50.781,-54.688,0.000
3949.000,-53.711,5.859,-52.246,-58.594,0.000
3953.000,-68.359,7.812,-57.617,-72.266,0.000
3957.000,-62.500,16.602,-61.523,-74.219,0.000
3961.000,-59.082,22.949,-61.523,-66.895,0.000
3965.000,-60.059,22.461,-65.918,-76.660,0.000
3969.000,-52.734,26.855,-70.312,-84.961,0.000
3973.000,-61.523,32.715,-68.848,-86.914,0.000
3976.000,-76.660,30.273,-69.336,-91.309,0.000
3980.000,-67.871,30.762,-71.777,-90.332,0.000
3984.000,-59.570,36.621,-75.195,-91.309,0.000
3988.000,-60.059,36.621,-80.566,-98.633,0.000
3992.000,-62.012,36.621,-78.125,-86.426,0.000
3996.000,-61.523,42.480,-79.590,-84.473,0.000
4000.000,-56.152,41.992,-82.520,-88.379,0.000
4004.000,-47.363,40.039,-80.566,-85.938,0.000
4008.000,-35.645,41.016,-80.566,-86.426,0.000
4012.000,-34.668,39.062,-80.566,-73.242,0.000
4016.000,-46.875,39.062,-81.055,-74.219,0.000
4019.000,-38.574,39.551,-79.590,-85.449,0.000
4023.000,-27.832,37.598,-79.102,-76.660,0.000
4027.000,-45.410,32.715,-79.590,-71.289,0.000
4031.000,-42.480,31.738,-74.707,-76.172,0.000
4035.000,-37.109,28.809,-76.172,-76.660,0.000
4039.000,-38.086,22.949,-74.707,-64.453,0.000
4043.000,-40.039,19.531,-68.359,-55.176,0.000
4047.000,-36.133,20.508,-62.988,-40.527,0.000
4051.000,-29.785,11.230,-58.594,-46.875,0.000
4055.000,-20.020,11.230,-58.105,-53.711,0.000
4058.000,-19.043,17.090,-59.082,-35.645,0.000
4062.000,-20.508,14.648,-56.152,-26.855,0.000
4066.000,-24.902,13.184,-52.734,-33.203,0.000
4070.000,-20.020,9.766,-47.852,-36.133,0.000
4074.000,-17.578,7.812,-41.504,-26.855,0.000
4078.000,-32.227,2.441,-40.527,-21.484,0.000
4082.000,-23.926,-3.418,-37.109,-22.461,0.000
4086.000,-20.020,-4.883,-35.156,-29.297,0.000
4090.000,-27.832,-6.836,-42.480,-27.344,0.000
4094.000,-28.809,-7.812,-45.410,-25.879,0.000
4098.000,-26.367,-6.836,-40.039,-28.809,0.000
4101.000,-21.973,-3.418,-36.621,-34.180,0.000
4105.000,-18.066,-5.859,-35.645,-28.809,0.000
4109.000,-21.973,-8.789,-37.598,-25.391,0.000
4113.000,-33.203,-8.789,-39.551,-28.809,0.000
4117.000,-25.391,-12.695,-38.086,-30.762,0.000
4121.000,-20.020,-19.043,-35.156,-35.156,0.000
4125.000,-34.668,-18.555,-35.156,-21.973,0.000
4129.000,-34.180,-15.625,-35.156,-15.625,0.000
4133.000,-32.227,-15.137,-36.621,-19.043,0.000
4137.000,-43.457,-15.625,-39.062,-22.461,0.000
4141.000,-39.062,-14.160,-36.621,-18.066,0.000
4144.000,-32.227,-16.602,-34.668,-18.555,0.000
4148.000,-32.227,-17.090,-29.785,-25.391,0.000
4152.000,-22.461,-10.742,-26.855,-25.391,0.000
4156.000,-15.625,-7.324,-32.227,-19.531,0.000
4160.000,-21.484,-10.254,-34.668,-17.090,0.000
4164.000,-25.879,-7.324,-31.250,-18.555,0.000
4168.000,-29.785,-9.766,-29.297,-17.578,0.000
4172.000,-26.855,-13.672,-31.738,-29.785,0.000
4176.000,-20.996,-10.742,-33.691,-22.461,0.000
4180.000,-33.691,-11.719,-34.180,-13.184,0.000
4183.000,-41.504,-13.184,-33.203,-20.996,0.000
4187.000,-41.992,-17.578,-33.691,-20.020,0.000
4191.000,-32.715,-18.066,-33.203,-10.742,0.000
4195.000,-22.949,-18.555,-32.715,-10.254,0.000
4199.000,-11.719,-17.090,-31.738,-15.137,0.000
4203.000,-16.113,-16.602,-31.738,-14.160,0.000
4207.000,-30.762,-15.137,-29.297,-11.230,0.000
4211.000,-38.574,-17.578,-24.902,-14.160,0.000
4215.000,-41.016,-19.531,-22.461,-19.531,0.000
4219.000,-39.062,-15.137,-20.508,-14.160,0.000
4223.000,-32.715,-12.695,-25.879,-4.883,0.000
4226.000,-28.809,-12.207,-27.344,-1.465,0.000
4230.000,-23.926,-9.766,-21.973,4.395,0.000
4234.000,-19.043,-12.695,-23.926,-6.348,0.000
4238.000,-24.414,-17.090,-27.832,-15.137,0.000
4242.000,-25.879,-20.996,-31.738,-11.230,0.000
4246.000,-27.832,-21.484,-34.180,-10.742,0.000
4250.000,-36.133,-19.043,-32.715,-11.230,0.000
4254.000,-31.738,-15.625,-31.738,-13.184,0.000
4258.000,-27.832,-21.484,-31.250,-13.672,0.000
4262.000,-24.414,-26.855,-33.203,-20.996,0.000
4266.000,-19.531,-21.973,-32.227,-24.414,0.000
4269.000,-13.184,-22.461,-31.250,-21.973,0.000
4273.000,-20.020,-27.344,-34.668,-28.809,0.000
4277.000,-23.926,-24.414,-33.691,-20.020,0.000
4281.000,-14.648,-21.973,-29.785,-13.672,0.000
4285.000,-4.883,-21.484,-27.344,-13.672,0.000
4289.000,-17.578,-18.555,-23.926,-6.348,0.000
4293.000,-32.227,-18.066,-27.344,-0.977,0.000
4297.000,-24.414,-24.414,-33.691,-2.930,0.000
4301.000,-22.461,-26.855,-29.785,-1.465,0.000
4305.000,-21.484,-30.273,-27.832,-4.395,0.000
4308.000,-10.254,-29.297,-27.344,-1.465,0.000
4312.000,-6.836,-22.949,-22.949,4.395,0.000
4316.000,1.465,-17.090,-23.438,-0.488,0.000
4320.000,12.695,-19.043,-31.250,0.977,0.000
4324.000,13.672,-20.508,-34.668,10.742,0.000
4328.000,-6.348,-17.578,-26.367,11.230,0.000
4332.000,-34.668,-21.484,-25.391,-9.277,0.000
4336.000,-15.625,-21.973,-24.414,-4.395,0.000
4340.000,7.812,-23.438,-18.555,16.602,0.000
4344.000,-9.277,-32.715,-18.555,12.207,0.000
4348.000,-13.184,-40.039,-12.695,6.348,0.000
4351.000,-15.625,-45.898,-4.883,11.230,0.000
4355.000,-14.648,-45.898,-0.977,25.391,0.000
4359.000,-13.184,-43.457,0.000,29.785,0.000
4363.000,-22.461,-51.758,-0.488,11.719,0.000
4367.000,-18.555,-56.152,1.953,10.254,0.000
4371.000,-6.348,-53.711,2.441,22.949,0.000
4375.000,-4.395,-48.828,2.930,29.785,0.000
4379.000,-14.648,-50.293,7.324,30.273,0.000
4383.000,-13.672,-59.570,4.395,20.996,0.000
4387.000,-12.207,-64.941,5.859,20.508,0.000
4391.000,-28.320,-66.406,7.324,21.973,0.000
4394.000,-25.391,-66.406,4.883,17.578,0.000
4398.000,-13.672,-65.918,10.742,29.785,0.000
4402.000,-4.395,-65.918,15.625,36.133,0.000
4406.000,-1.953,-69.336,9.277,30.273,0.000
4410.000,-5.371,-73.242,10.254,47.363,0.000
4414.000,-4.395,-75.195,18.066,42.480,0.000
4418.000,-7.812,-73.730,17.578,23.926,0.000
4422.000,-8.789,-70.801,18.555,30.762,0.000
4426.000,-3.418,-71.777,16.113,41.992,0.000
4430.000,-2.441,-74.707,16.602,42.969,0.000
4433.000,10.254,-69.824,20.508,47.363,0.000
4437.000,12.695,-64.453,18.066,46.875,0.000
4441.000,8.789,-64.453,21.484,52.734,0.000
4445.000,10.254,-64.941,24.902,60.059,0.000
4449.000,9.277,-57.129,21.484,62.500,0.000
4453.000,4.395,-53.223,18.555,49.805,0.000
4457.000,3.418,-53.711,20.508,48.340,0.000
4461.000,4.883,-51.758,23.438,61.523,0.000
4465.000,-0.488,-56.641,22.461,54.688,0.000
4469.000,0.977,-57.129,21.484,44.434,0.000
4473.000,8.789,-51.270,20.508,46.875,0.000
4476.000,5.371,-46.875,17.578,46.387,0.000
4480.000,-9.277,-49.316,16.602,34.180,0.000
4484.000,-5.371,-49.316,17.578,23.926,0.000
4488.000,2.930,-42.969,15.625,27.344,0.000
4492.000,-6.836,-42.480,15.137,34.668,0.000
4496.000,-13.184,-42.969,12.207,31.738,0.000
4500.000,-15.137,-41.016,10.742,24.414,0.000
4504.000,-19.531,-43.457,8.789,19.531,0.000
4508.000,-8.789,-41.504,8.789,16.113,0.000
4512.000,-5.859,-37.598,8.789,16.113,0.000
4516.000,-7.324,-40.527,6.836,12.695,0.000
4519.000,-11.719,-42.969,0.977,-3.906,0.000
4523.000,-37.109,-42.969,-3.418,-11.230,0.000
4527.000,-29.297,-49.316,0.488,-13.672,0.000
4531.000,0.488,-46.875,1.953,-18.555,0.000
4535.000,-6.836,-36.133,0.488,-18.555,0.000
4539.000,-6.836,-40.039,-1.465,-17.578,0.000
4543.000,-11.719,-45.898,-5.371,-10.742,0.000
4547.000,-38.574,-45.410,-7.812,-8.789,0.000
4551.000,-49.805,-45.898,-8.301,-13.672,0.000
4555.000,-41.016,-42.480,-10.254,-8.301,0.000
4558.000,-24.414,-37.598,-11.230,-3.906,0.000
4562.000,-21.973,-39.062,-7.812,-7.812,0.000
4566.000,-32.715,-41.016,-5.371,-5.859,0.000
4570.000,-21.973,-40.039,-7.324,-4.883,0.000
4574.000,-20.508,-36.621,-4.883,2.441,0.000
4578.000,-25.879,-32.227,-11.719,3.906,0.000
4582.000,-20.020,-32.715,-11.230,13.184,0.000
4586.000,-17.090,-38.574,0.488,25.879,0.000
4590.000,-14.648,-29.785,0.977,15.625,0.000
4594.000,-10.742,-26.855,-0.488,26.367,0.000
4598.000,-10.254,-28.320,-0.488,33.691,0.000
4601.000,-19.531,-21.973,-2.930,8.301,0.000
4605.000,-27.344,-26.367,-9.277,-6.836,0.000
4609.000,-29.785,-32.715,-13.672,-3.418,0.000
4613.000,-23.438,-32.715,-12.695,5.859,0.000
4617.000,-18.555,-29.297,-7.812,8.789,0.000
4621.000,-20.508,-28.320,-15.625,-8.789,0.000
4625.000,-27.344,-30.762,-14.160,-13.672,0.000
4629.000,-43.945,-29.785,-10.742,-9.277,0.000
4633.000,-47.852,-27.344,-16.602,-12.695,0.000
4637.000,-33.691,-30.273,-21.973,-25.879,0.000
4640.000,-22.949,-32.715,-25.879,-23.926,0.000
4644.000,-20.508,-27.344,-25.391,-4.883,0.000
4648.000,-25.391,-27.344,-29.785,-3.418,0.000
4652.000,-39.062,-28.320,-32.227,-15.625,0.000
4656.000,-30.273,-24.414,-34.668,-16.113,0.000
4660.000,-21.973,-28.809,-35.156,-10.742,0.000
4664.000,-26.855,-29.785,-32.227,-8.301,0.000
4668.000,-25.391,-27.344,-31.738,-16.602,0.000
4672.000,-26.855,-26.855,-30.762,-20.508,0.000
4676.000,-24.902,-25.391,-29.785,8.789,0.000
4680.000,-26.367,-27.344,-26.855,19.531,0.000
4683.000,-37.598,-31.250,-20.996,-4.883,0.000
4687.000,-44.922,-33.691,-22.461,-13.672,0.000
4691.000,-43.945,-31.250,-22.461,-9.766,0.000
4695.000,-45.410,-30.762,-23.438,-15.137,0.000
4699.000,-45.410,-34.668,-27.344,-18.066,0.000
4703.000,-43.945,-37.109,-27.832,-20.020,0.000
4707.000,-39.551,-35.645,-23.926,-12.207,0.000
4711.000,-36.621,-28.809,-19.531,-7.324,0.000
4715.000,-50.781,-28.320,-19.043,-16.113,0.000
4719.000,-51.758,-27.832,-13.184,-3.906,0.000
4723.000,-40.039,-29.785,-13.672,1.953,0.000
4726.000,-29.297,-34.668,-14.160,-0.488,0.000
4730.000,-32.715,-32.715,-12.207,0.977,0.000
4734.000,-36.621,-31.738,-15.625,-8.789,0.000
4738.000,-31.738,-33.203,-18.066,-8.301,0.000
4742.000,-27.344,-29.297,-16.113,7.812,0.000
4746.000,-29.785,-26.367,-17.090,14.160,0.000
4750.000,-29.297,-24.902,-18.066,2.441,0.000
4754.000,-27.832,-25.391,-18.555,-1.953,0.000
4758.000,-25.879,-22.949,-16.602,5.371,0.000
4762.000,-23.438,-22.461,-16.602,2.441,0.000
4765.000,-35.156,-31.250,-22.949,-8.301,0.000
4769.000,-41.016,-34.180,-26.367,-17.090,0.000
4773.000,-39.551,-30.762,-22.949,-26.367,0.000
4777.000,-43.457,-34.668,-30.273,-31.738,0.000
4781.000,-38.086,-37.109,-34.668,-39.062,0.000
4785.000,-37.109,-37.598,-27.344,-38.574,0.000
4789.000,-41.504,-39.062,-24.902,-42.969,0.000
4793.000,-41.016,-41.504,-27.832,-46.387,0.000
4797.000,-39.062,-42.480,-25.391,-21.484,0.000
4801.000,-27.832,-35.645,-23.438,-11.230,0.000
4805.000,-32.227,-25.391,-39.062,-29.785,0.000
4808.000,-38.086,-20.996,-46.387,-42.480,0.000
4812.000,-42.969,-13.672,-46.875,-50.293,0.000
4816.000,-62.012,-10.254,-50.781,-55.176,0.000
4820.000,-59.082,-3.418,-50.781,-63.477,0.000
4824.000,-55.664,4.395,-54.199,-58.105,0.000
4828.000,-64.941,6.348,-59.082,-60.547,0.000
4832.000,-66.895,6.348,-66.895,-77.148,0.000
4836.000,-72.266,9.277,-68.848,-93.750,0.000
4840.000,-65.430,18.066,-64.941,-95.215,0.000
4844.000,-58.105,20.020,-62.988,-89.355,0.000
4848.000,-60.059,20.020,-65.918,-85.449,0.000
4851.000,-57.129,23.438,-68.359,-93.262,0.000
4855.000,-63.477,30.762,-69.336,-105.469,0.000
4859.000,-52.734,38.574,-71.777,-96.191,0.000
4863.000,-44.922,40.039,-73.242,-82.031,0.000
4867.000,-46.875,41.016,-72.754,-84.961,0.000
4871.000,-35.156,42.969,-72.266,-81.543,0.000
4875.000,-40.527,39.551,-72.754,-81.055,0.000
4879.000,-40.527,44.434,-71.289,-87.402,0.000
4883.000,-37.598,44.434,-69.336,-82.031,0.000
4887.000,-46.875,40.527,-73.730,-83.496,0.000
4890.000,-46.875,40.039,-75.684,-78.613,0.000
4894.000,-40.527,41.992,-70.312,-68.359,0.000
4898.000,-33.691,45.898,-68.359,-74.219,0.000
4902.000,-31.250,41.016,-72.266,-76.660,0.000
4906.000,-22.461,41.016,-74.219,-70.801,0.000
4910.000,-26.855,44.922,-74.219,-66.406,0.000
4914.000,-44.434,43.457,-70.801,-62.500,0.000
4918.000,-37.109,42.480,-69.824,-66.406,0.000
4922.000,-35.645,40.527,-70.801,-76.172,0.000
4926.000,-47.852,34.668,-71.289,-67.871,0.000
4930.000,-37.109,32.715,-70.312,-60.547,0.000
4933.000,-29.297,28.809,-69.336,-74.707,0.000
4937.000,-29.297,28.809,-70.312,-72.754,0.000
4941.000,-35.156,29.297,-67.383,-60.547,0.000
4945.000,-39.062,21.973,-67.871,-50.781,0.000
4949.000,-39.551,10.254,-68.848,-46.387,0.000
4953.000,-37.598,6.836,-64.941,-55.664,0.000
4957.000,-25.391,6.836,-62.012,-47.363,0.000
4961.000,-20.020,5.371,-57.129,-30.273,0.000
4965.000,-26.367,-3.418,-58.594,-37.598,0.000
4969.000,-20.508,-8.789,-60.547,-55.664,0.000
4973.000,-19.043,-4.395,-57.129,-44.922,0.000
4976.000,-25.879,-6.836,-52.734,-28.320,0.000
4980.000,-26.855,-6.348,-53.223,-34.180,0.000
4984.000,-24.414,1.953,-52.246,-31.738,0.000
4988.000,-14.160,1.465,-48.340,-21.973,0.000
4992.000,-13.672,-3.906,-49.316,-24.902,0.000
4996.000,-14.648,0.000,-51.758,-26.367,0.000
5000.000,-21.484,2.930,-53.223,-26.855,0.000
5004.000,-12.695,3.418,-48.828,-27.344,0.000
5008.000,-8.301,1.465,-50.781,-27.344,0.000
5012.000,-15.137,-3.418,-51.758,-23.926,0.000
5015.000,-10.742,-0.488,-47.852,-23.926,0.000
5019.000,-14.648,0.977,-44.922,-29.785,0.000
5023.000,-15.625,0.977,-42.969,-23.438,0.000
5027.000,-12.695,4.883,-42.969,-19.531,0.000
5031.000,-12.695,9.277,-46.387,-18.066,0.000
5035.000,-5.371,6.348,-43.945,-12.695,0.000
5039.000,-11.230,-0.977,-38.574,-20.508,0.000
5043.000,-17.578,-3.906,-40.039,-19.043,0.000
5047.000,-2.930,0.488,-40.039,-12.695,0.000
5051.000,-2.930,2.930,-37.109,-9.277,0.000
5055.000,-13.184,0.000,-32.227,-9.766,0.000
5058.000,-6.836,0.000,-26.855,-4.395,0.000
5062.000,1.465,-3.906,-25.879,3.418,0.000
5066.000,-0.488,-9.766,-27.832,2.441,0.000
5070.000,-7.812,-11.230,-28.320,-8.301,0.000
5074.000,-12.207,-15.137,-29.297,-2.441,0.000
5078.000,-9.277,-16.602,-23.438,7.324,0.000
5082.000,-10.254,-17.090,-21.484,-10.254,0.000
5086.000,-10.254,-12.695,-27.344,-24.414,0.000
5090.000,-10.742,-15.137,-31.250,-31.738,0.000
5094.000,-21.484,-18.555,-31.250,-15.625,0.000
5098.000,-26.855,-18.066,-31.250,-12.695,0.000
5101.000,-20.020,-20.020,-29.297,-27.832,0.000
5105.000,-15.625,-20.508,-27.832,-28.809,0.000
5109.000,-32.227,-28.320,-34.180,-26.367,0.000
5113.000,-48.340,-32.227,-32.715,-22.461,0.000
5117.000,-41.992,-31.250,-29.297,-29.297,0.000
5121.000,-34.668,-30.273,-29.297,-40.039,0.000
5125.000,-37.109,-30.762,-29.785,-35.645,0.000
5129.000,-38.574,-27.832,-30.762,-33.203,0.000
5133.000,-44.922,-28.320,-32.715,-45.410,0.000
5137.000,-32.227,-22.949,-32.715,-36.133,0.000
5140.000,-20.508,-15.625,-30.273,-19.043,0.000
5144.000,-21.484,-18.555,-30.762,-21.973,0.000
5148.000,-28.809,-21.973,-31.738,-20.996,0.000
5152.000,-35.156,-22.461,-33.691,-28.809,0.000
5156.000,-33.203,-26.367,-33.203,-32.227,0.000
5160.000,-33.203,-26.367,-26.367,-28.809,0.000
5164.000,-36.621,-26.367,-24.414,-32.227,0.000
5168.000,-36.621,-28.320,-25.391,-30.273,0.000
5172.000,-35.156,-27.832,-22.461,-32.715,0.000
5176.000,-30.273,-25.391,-22.949,-27.832,0.000
5180.000,-23.926,-19.043,-24.902,-22.461,0.000
5183.000,-20.020,-15.625,-24.414,-18.555,0.000
5187.000,-18.066,-18.066,-23.438,-14.160,0.000
5191.000,-15.137,-22.949,-25.391,-20.996,0.000
5195.000,-22.461,-24.414,-25.879,-18.555,0.000
5199.000,-29.785,-25.391,-25.391,-25.879,0.000
5203.000,-20.508,-25.391,-25.391,-36.621,0.000
5207.000,-17.578,-22.461,-25.391,-20.020,0.000
5211.000,-17.090,-20.020,-23.438,-4.395,0.000
5215.000,-16.602,-18.555,-25.879,-7.812,0.000
5219.000,-19.531,-18.555,-31.250,-13.184,0.000
5223.000,-19.043,-20.508,-28.809,-11.719,0.000
5226.000,-21.484,-21.973,-28.320,-5.371,0.000
5230.000,-21.484,-23.926,-30.762,1.465,0.000
5234.000,-24.414,-22.949,-30.273,0.488,0.000
5238.000,-28.320,-24.414,-29.297,-5.371,0.000
5242.000,-26.367,-27.344,-27.344,0.488,0.000
5246.000,-33.691,-27.832,-25.391,-1.465,0.000
5250.000,-31.250,-23.438,-27.344,-2.441,0.000
5254.000,-17.578,-20.020,-27.344,-6.348,0.000
5258.000,-8.789,-22.461,-29.785,-6.348,0.000
5262.000,-15.137,-22.461,-32.227,7.324,0.000
5265.000,-25.879,-22.461,-30.273,2.441,0.000
5269.000,-24.902,-24.902,-27.344,-7.324,0.000
5273.000,-25.391,-20.996,-22.461,0.977,0.000
5277.000,-23.926,-21.973,-22.949,-1.953,0.000
5281.000,-24.902,-24.414,-25.879,-9.277,0.000
5285.000,-26.367,-19.043,-23.926,-4.395,0.000
5289.000,-30.273,-21.484,-26.367,-5.859,0.000
5293.000,-36.133,-22.461,-30.762,-2.441,0.000
5297.000,-29.297,-20.020,-27.832,-1.465,0.000
5301.000,-24.414,-19.043,-25.391,-6.836,0.000
5305.000,-22.949,-14.160,-20.508,-6.348,0.000
5308.000,-12.695,-14.648,-23.926,8.301,0.000
5312.000,1.953,-9.766,-25.879,26.367,0.000
5316.000,-9.277,-12.207,-24.414,16.113,0.000
5320.000,-36.133,-24.902,-24.902,-13.672,0.000
5324.000,-34.180,-32.227,-22.461,-17.578,0.000
5328.000,-25.879,-33.203,-19.043,0.000,0.000
5332.000,-31.738,-36.133,-14.648,0.977,0.000
5336.000,-24.414,-40.039,-11.719,3.418,0.000
5340.000,-25.879,-47.363,-6.836,13.184,0.000
5344.000,-36.133,-55.176,-1.953,6.348,0.000
5348.000,-26.855,-52.734,-1.465,9.277,0.000
5351.000,-21.973,-53.223,-0.977,4.395,0.000
5355.000,-18.555,-55.664,0.000,8.301,0.000
5359.000,-9.277,-56.641,3.906,18.555,0.000
5363.000,-16.602,-63.477,6.836,7.812,0.000
5367.000,-28.809,-70.801,1.465,4.395,0.000
5371.000,-29.297,-75.195,-3.418,17.090,0.000
5375.000,-19.043,-73.242,2.441,18.555,0.000
5379.000,-17.578,-69.824,4.395,23.438,0.000
5383.000,-19.531,-71.777,3.906,18.555,0.000
5387.000,-11.719,-74.219,7.812,20.508,0.000
5390.000,-20.020,-79.102,11.230,25.879,0.000
5394.000,-26.855,-81.543,15.625,33.691,0.000
5398.000,-26.855,-77.637,19.531,34.668,0.000
5402.000,-17.090,-74.219,20.996,30.762,0.000
5406.000,-21.973,-75.684,18.066,26.855,0.000
5410.000,-28.809,-76.660,22.461,23.438,0.000
5414.000,-36.621,-81.055,31.738,25.391,0.000
5418.000,-39.551,-82.520,24.414,12.207,0.000
5422.000,-32.227,-83.984,19.531,3.906,0.000
5426.000,-34.180,-90.820,21.973,4.395,0.000
5430.000,-29.297,-90.820,16.602,1.465,0.000
5433.000,-23.438,-84.473,16.602,6.348,0.000
5437.000,-38.086,-82.031,24.902,20.996,0.000
5441.000,-57.129,-79.102,23.438,32.715,0.000
5445.000,-57.129,-78.125,21.973,16.602,0.000
5449.000,-43.945,-78.613,22.949,6.348,0.000
5453.000,-39.551,-78.125,17.578,14.648,0.000
5457.000,-34.668,-75.195,17.578,22.949,0.000
5461.000,-25.391,-72.754,14.648,27.832,0.000
5465.000,-28.320,-69.336,14.648,25.879,0.000
5469.000,-30.762,-64.453,15.137,18.555,0.000
5473.000,-24.414,-62.500,14.160,17.578,0.000
5476.000,-20.996,-63.477,11.230,19.043,0.000
5480.000,-19.043,-62.988,7.324,16.113,0.000
5484.000,-9.766,-57.129,9.277,20.508,0.000
5488.000,-14.160,-59.570,3.418,7.812,0.000
5492.000,-26.367,-62.500,3.906,3.906,0.000
5496.000,-27.832,-59.082,9.277,13.672,0.000
5500.000,-19.531,-61.523,10.742,18.066,0.000
5504.000,-12.695,-58.105,7.324,12.207,0.000
5508.000,-20.508,-49.316,4.883,12.207,0.000
5512.000,-21.484,-50.293,5.859,11.719,0.000
5515.000,-15.625,-52.246,3.906,8.789,0.000
5519.000,-10.254,-42.969,2.441,3.418,0.000
5523.000,-4.395,-38.086,3.906,8.301,0.000
5527.000,-14.160,-42.969,3.906,6.348,0.000
5531.000,-9.766,-42.969,1.465,10.254,0.000
5535.000,6.836,-35.645,0.000,14.160,0.000
5539.000,-4.395,-30.762,-4.883,2.441,0.000
5543.000,-25.879,-37.109,-9.766,4.883,0.000
5547.000,-22.949,-41.504,-6.836,12.207,0.000
5551.000,-20.020,-38.086,-2.441,3.418,0.000
5555.000,-22.949,-37.109,-5.371,-5.371,0.000
5558.000,-22.949,-38.574,-9.766,6.348,0.000
5562.000,-14.648,-35.645,-5.371,17.578,0.000
5566.000,-18.555,-31.738,-4.883,12.695,0.000
5570.000,-20.996,-33.691,-11.719,-1.953,0.000
5574.000,-20.996,-33.203,-6.836,16.113,0.000
5578.000,-22.461,-34.180,-8.789,10.254,0.000
5582.000,-15.137,-34.180,-16.113,-4.883,0.000
5586.000,-8.789,-32.227,-11.719,3.906,0.000
5590.000,-6.836,-29.297,-12.207,-0.488,0.000
5594.000,-0.977,-24.414,-16.113,-3.418,0.000
5598.000,-16.113,-29.297,-17.090,0.000,0.000
5601.000,-31.250,-38.086,-20.996,-5.371,0.000
5605.000,-38.086,-36.621,-20.508,-7.812,0.000
5609.000,-36.621,-32.715,-19.043,0.000,0.000
5613.000,-41.016,-34.668,-21.973,-6.836,0.000
5617.000,-44.922,-33.691,-21.973,-13.672,0.000
5621.000,-39.551,-28.809,-23.438,-9.277,0.000
5625.000,-40.527,-27.344,-22.949,-2.441,0.000
5629.000,-39.551,-28.320,-20.996,-1.953,0.000
5633.000,-32.227,-26.855,-22.949,0.000,0.000
5637.000,-18.555,-27.344,-20.508,-4.883,0.000
5640.000,-13.184,-24.414,-15.625,-3.906,0.000
5644.000,-14.648,-22.461,-14.648,6.348,0.000
5648.000,-14.160,-19.531,-14.648,7.812,0.000
5652.000,-13.184,-20.508,-17.578,-2.930,0.000
5656.000,-22.461,-25.391,-22.461,-13.672,0.000
5660.000,-25.391,-26.367,-25.391,-10.254,0.000
5664.000,-23.438,-23.438,-29.785,-6.348,0.000
5668.000,-25.879,-21.973,-31.250,-20.996,0.000
5672.000,-16.602,-25.879,-30.762,-30.273,0.000
5676.000,-13.184,-26.367,-31.250,-21.484,0.000
5680.000,-21.973,-26.367,-32.715,-23.926,0.000
5683.000,-29.297,-27.832,-32.715,-28.320,0.000
5687.000,-33.203,-29.785,-38.086,-26.855,0.000
5691.000,-25.391,-24.414,-41.016,-26.367,0.000
5695.000,-26.855,-18.555,-36.621,-31.738,0.000
5699.000,-28.809,-20.020,-33.203,-37.598,0.000
5703.000,-20.996,-22.949,-35.156,-38.574,0.000
5707.000,-21.484,-26.367,-38.086,-27.832,0.000
5711.000,-43.457,-30.762,-37.109,-10.742,0.000
5715.000,-45.410,-25.879,-36.621,-21.973,0.000
5719.000,-36.621,-20.996,-37.109,-30.273,0.000
5722.000,-39.062,-24.902,-33.203,-12.207,0.000
5726.000,-34.180,-35.645,-30.273,-9.277,0.000
5730.000,-23.926,-34.668,-36.621,-12.695,0.000
5734.000,-20.996,-20.996,-39.551,-8.789,0.000
5738.000,-43.457,-14.160,-46.875,-29.297,0.000
5742.000,-54.688,-19.531,-51.758,-39.551,0.000
5746.000,-57.617,-26.367,-47.852,-36.621,0.000
5750.000,-44.922,-21.973,-45.898,-32.715,0.000
5754.000,-30.762,-19.531,-49.805,-40.527,0.000
5758.000,-36.621,-21.973,-50.293,-33.203,0.000
5762.000,-35.156,-28.809,-43.945,-23.438,0.000
5765.000,-39.551,-32.227,-42.969,-31.738,0.000
5769.000,-42.969,-28.320,-44.922,-22.461,0.000
5773.000,-36.621,-31.250,-46.875,-11.719,0.000
5777.000,-34.180,-30.273,-42.969,-21.484,0.000
5781.000,-30.273,-27.344,-35.156,-33.203,0.000
5785.000,-20.508,-24.902,-32.227,-28.809,0.000
5789.000,-9.277,-24.414,-25.879,-14.648,0.000
5793.000,-17.578,-29.785,-25.879,-9.277,0.000
5797.000,-27.832,-32.715,-28.320,-8.301,0.000
5801.000,-28.320,-31.250,-26.855,-8.301,0.000
5805.000,-27.344,-30.273,-24.902,-9.766,0.000
5808.000,-27.344,-32.227,-15.625,2.441,0.000
5812.000,-28.809,-27.344,-10.254,-9.277,0.000
5816.000,-21.973,-20.508,-13.184,-17.090,0.000
5820.000,-18.555,-22.949,-18.066,-20.508,0.000
5824.000,-29.297,-26.367,-22.461,-25.879,0.000
5828.000,-40.039,-27.344,-26.855,-7.324,0.000
5832.000,-33.203,-26.855,-21.973,4.883,0.000
5836.000,-20.996,-26.855,-15.137,6.348,0.000
5840.000,-30.273,-18.555,-24.902,-0.977,0.000
5844.000,-30.762,-10.742,-26.367,3.906,0.000
5847.000,-23.438,-9.277,-28.809,-2.441,0.000
5851.000,-22.461,-12.207,-38.086,-15.137,0.000
5855.000,-18.066,-14.160,-37.109,-4.395,0.000
5859.000,-18.555,-14.160,-30.762,0.977,0.000
5863.000,-19.531,-16.113,-30.273,-4.395,0.000
5867.000,-7.324,-17.090,-30.762,-13.672,0.000
5871.000,-8.789,-17.578,-29.297,-20.996,0.000
5875.000,-17.578,-19.531,-33.203,-20.508,0.000
5879.000,-12.207,-18.066,-35.156,-22.461,0.000
5883.000,-18.066,-17.578,-29.785,-30.762,0.000
5887.000,-35.645,-21.973,-25.391,-26.367,0.000
5890.000,-31.738,-28.320,-24.902,0.488,0.000
5894.000,-15.625,-28.809,-20.996,12.695,0.000
5898.000,-11.719,-14.160,-21.973,-1.953,0.000
5902.000,-21.973,-4.395,-34.668,-26.855,0.000
5906.000,-41.992,-1.953,-39.062,-35.156,0.000
5910.000,-52.246,-3.418,-40.527,-41.016,0.000
5914.000,-42.480,0.488,-43.945,-41.504,0.000
5918.000,-30.762,6.348,-45.410,-37.598,0.000
5922.000,-34.668,7.324,-48.340,-46.387,0.000
5926.000,-37.598,6.836,-55.664,-54.199,0.000
5930.000,-30.762,15.137,-62.988,-47.852,0.000
5933.000,-31.738,17.578,-68.848,-61.035,0.000
5937.000,-37.109,20.996,-72.266,-76.172,0.000
5941.000,-30.273,25.879,-71.777,-64.941,0.000
5945.000,-18.555,29.297,-69.824,-49.805,0.000
5949.000,-28.320,35.645,-70.801,-59.570,0.000
5953.000,-38.574,38.086,-77.637,-74.219,0.000
5957.000,-27.344,41.992,-80.078,-62.500,0.000
5961.000,-22.461,40.039,-78.613,-52.246,0.000
5965.000,-24.414,41.992,-75.195,-45.410,0.000
5969.000,-29.785,47.363,-75.195,-60.547,0.000
5972.000,-31.738,45.410,-78.125,-71.777,0.000
5976.000,-29.785,41.016,-80.566,-52.734,0.000
5980.000,-31.738,44.434,-83.008,-51.270,0.000
5984.000,-22.461,45.898,-81.543,-67.383,0.000
5988.000,-20.020,41.504,-77.148,-66.406,0.000
5992.000,-33.691,39.551,-81.543,-58.594,0.000
5996.000,-35.645,39.062,-85.449,-55.664,0.000
6000.000,-36.621,38.574,-77.637,-63.965,0.000
6004.000,-31.738,42.480,-69.824,-67.871,0.000
6008.000,-20.020,49.316,-68.848,-54.688,0.000
6012.000,-23.926,42.480,-72.754,-49.316,0.000
6015.000,-31.250,35.156,-73.242,-51.758,0.000
6019.000,-22.949,36.133,-70.312,-45.898,0.000
6023.000,-8.789,31.738,-70.801,-36.133,0.000
6027.000,-14.160,23.438,-67.383,-31.250,0.000
6031.000,-14.160,16.602,-67.871,-34.180,0.000
6035.000,-9.277,14.648,-63.477,-34.668,0.000
6039.000,-20.996,12.207,-55.664,-24.414,0.000
6043.000,-24.414,10.742,-51.758,-10.742,0.000
6047.000,-13.184,10.742,-49.316,-8.789,0.000
6051.000,-12.207,8.789,-49.316,-21.484,0.000
6055.000,-16.113,7.324,-47.852,-27.344,0.000
6058.000,-14.160,6.836,-44.922,-21.484,0.000
6062.000,-18.555,4.395,-45.410,-26.367,0.000
6066.000,-22.949,2.930,-41.016,-22.949,0.000
6070.000,-11.719,5.859,-38.574,-10.742,0.000
6074.000,-1.465,4.883,-42.969,-6.348,0.000
6078.000,-10.742,3.906,-40.527,-0.977,0.000
6082.000,-24.902,4.395,-34.180,-1.465,0.000
6086.000,-24.902,0.000,-32.227,-10.742,0.000
6090.000,-29.785,-8.301,-36.621,-9.766,0.000
6094.000,-32.227,-5.859,-38.574,0.977,0.000
6097.000,-21.484,-3.418,-36.133,0.488,0.000
6101.000,-23.438,-4.883,-34.180,-7.812,0.000
6105.000,-24.414,-7.324,-37.109,-14.160,0.000
6109.000,-17.578,-6.348,-35.645,-7.324,0.000
6113.000,-16.602,-0.977,-27.344,-1.465,0.000
6117.000,-11.719,0.000,-26.367,-3.418,0.000
6121.000,-8.301,-2.930,-26.855,-6.836,0.000
6125.000,-11.230,-6.348,-28.809,-7.324,0.000
6129.000,-22.461,-14.160,-33.203,-10.742,0.000
6133.000,-35.156,-17.578,-36.621,-27.832,0.000
6137.000,-35.645,-20.996,-38.574,-33.691,0.000
6140.000,-30.273,-25.879,-38.086,-21.973,0.000
6144.000,-34.668,-19.531,-36.621,-14.648,0.000
6148.000,-40.039,-17.578,-33.203,-17.578,0.000
6152.000,-30.273,-16.602,-26.855,-24.902,0.000
6156.000,-24.414,-17.090,-25.879,-28.809,0.000
6160.000,-30.762,-21.973,-34.668,-24.414,0.000
6164.000,-24.902,-22.949,-39.062,-29.297,0.000
6168.000,-26.855,-20.996,-40.039,-33.691,0.000
6172.000,-33.203,-19.043,-38.574,-22.949,0.000
6176.000,-38.086,-20.020,-36.133,-17.578,0.000
6180.000,-53.223,-18.555,-28.809,-21.484,0.000
6183.000,-47.852,-19.043,-21.973,-23.438,0.000
6187.000,-39.062,-22.949,-22.461,-30.762,0.000
6191.000,-42.969,-24.902,-30.273,-30.273,0.000
6195.000,-40.039,-20.996,-32.715,-26.855,0.000
6199.000,-31.738,-21.484,-29.297,-37.109,0.000
6203.000,-24.902,-21.484,-30.762,-33.203,0.000
6207.000,-32.227,-15.137,-30.762,-24.414,0.000
6211.000,-27.832,-14.648,-30.273,-22.461,0.000
6215.000,-18.066,-14.160,-33.203,-31.738,0.000
6219.000,-27.832,-11.719,-32.715,-37.109,0.000
6222.000,-32.227,-13.672,-29.297,-29.297,0.000
6226.000,-28.320,-15.625,-32.715,-26.855,0.000
6230.000,-25.391,-14.160,-34.668,-30.762,0.000
6234.000,-29.297,-19.043,-39.062,-35.156,0.000
6238.000,-30.273,-22.949,-42.969,-35.156,0.000
6242.000,-32.227,-21.973,-41.016,-27.832,0.000
6246.000,-24.902,-19.531,-36.133,-14.648,0.000
6250.000,-21.973,-18.555,-33.691,-17.090,0.000
6254.000,-29.297,-25.879,-36.621,-32.227,0.000
6258.000,-34.668,-32.715,-36.621,-36.133,0.000
6262.000,-25.391,-26.855,-30.273,-22.461,0.000
6265.000,-9.766,-24.902,-27.832,-14.648,0.000
6269.000,-22.949,-25.879,-29.785,-25.391,0.000
6273.000,-27.344,-21.973,-28.320,-21.973,0.000
6277.000,-32.715,-21.484,-27.344,-14.648,0.000
6281.000,-54.199,-24.414,-32.715,-20.020,0.000
6285.000,-55.664,-22.949,-35.645,-19.531,0.000
6289.000,-45.898,-25.391,-32.715,-20.020,0.000
6293.000,-40.527,-25.879,-30.762,-25.879,0.000
6297.000,-38.086,-21.973,-27.832,-15.137,0.000
6301.000,-33.691,-25.879,-25.391,-16.602,0.000
6305.000,-31.250,-27.832,-25.879,-31.250,0.000
6308.000,-29.785,-22.949,-24.414,-12.207,0.000
6312.000,-25.391,-20.508,-21.973,-8.301,0.000
6316.000,-28.320,-27.832,-24.902,-27.344,0.000
6320.000,-15.137,-23.926,-24.902,-13.672,0.000
6324.000,2.930,-17.578,-20.508,-3.418,0.000
6328.000,-30.273,-27.832,-21.973,-26.367,0.000
6332.000,-41.992,-31.738,-19.043,-34.180,0.000
6336.000,-23.438,-31.738,-15.137,-27.832,0.000
6340.000,-14.648,-37.109,-12.695,-12.695,0.000
6344.000,-25.391,-44.922,-13.184,-5.371,0.000
6347.000,-25.391,-51.270,-15.137,-16.113,0.000
6351.000,-18.066,-51.270,-11.230,-10.254,0.000
6355.000,-22.461,-51.758,-4.395,9.766,0.000
6359.000,-26.367,-61.035,0.977,14.160,0.000
6363.000,-34.180,-70.312,1.953,16.113,0.000
6367.000,-45.410,-70.312,4.395,16.113,0.000
6371.000,-42.480,-73.730,5.371,14.648,0.000
6375.000,-25.391,-74.219,6.836,23.926,0.000
6379.000,-15.625,-70.312,10.254,30.762,0.000
6383.000,-22.949,-81.543,10.742,23.438,0.000
6387.000,-26.367,-84.473,14.648,20.508,0.000
6390.000,-28.320,-80.078,18.555,33.203,0.000
6394.000,-33.691,-80.566,17.090,39.062,0.000
6398.000,-26.855,-78.125,16.113,37.598,0.000
6402.000,-27.832,-80.078,14.160,35.645,0.000
6406.000,-29.297,-77.148,9.277,27.344,0.000
6410.000,-23.926,-73.730,11.719,21.484,0.000
6414.000,-28.320,-76.660,16.113,11.719,0.000
6418.000,-29.297,-77.637,14.160,2.930,0.000
6422.000,-33.203,-79.102,11.230,6.348,0.000
6426.000,-28.320,-77.148,13.672,6.836,0.000
6430.000,-33.203,-80.566,11.230,9.277,0.000
6433.000,-31.250,-80.078,7.812,9.766,0.000
6437.000,-18.066,-72.266,9.277,-0.977,0.000
6441.000,-21.484,-70.312,9.766,-1.953,0.000
6445.000,-24.414,-68.359,11.230,11.719,0.000
6449.000,-34.668,-66.406,8.789,12.695,0.000
6453.000,-42.480,-70.801,6.348,16.602,0.000
6457.000,-33.203,-75.195,15.137,24.414,0.000
6461.000,-36.133,-76.172,15.137,27.832,0.000
6465.000,-37.598,-72.266,9.766,27.832,0.000
6469.000,-32.227,-66.406,5.859,8.301,0.000
6472.000,-28.809,-64.941,7.324,12.695,0.000
6476.000,-12.207,-64.453,17.578,28.320,0.000
6480.000,-14.160,-63.477,13.184,20.996,0.000
6484.000,-18.066,-60.059,4.395,19.043,0.000
6488.000,-9.277,-51.758,8.301,25.879,0.000
6492.000,-4.883,-48.340,5.371,26.367,0.000
6496.000,-8.789,-52.246,6.348,25.391,0.000
6500.000,-16.113,-48.828,4.883,17.090,0.000
6504.000,-17.090,-40.527,-1.465,17.578,0.000
6508.000,-10.742,-41.016,1.465,18.066,0.000
6512.000,-18.555,-40.527,0.977,6.836,0.000
6515.000,-20.508,-36.133,1.953,10.254,0.000
6519.000,-6.836,-33.691,0.488,14.648,0.000
6523.000,-1.465,-36.621,-2.441,12.207,0.000
6527.000,-6.836,-41.504,-5.859,10.254,0.000
6531.000,-17.578,-41.504,-10.742,0.000,0.000
6535.000,-19.043,-40.039,-5.859,-3.418,0.000
6539.000,-21.973,-47.363,-7.812,-13.672,0.000
6543.000,-30.762,-46.387,-12.695,-5.859,0.000
6547.000,-18.066,-42.969,-5.859,6.348,0.000
6551.000,-13.184,-44.922,-10.742,-9.766,0.000
6555.000,-13.672,-47.363,-13.184,-10.254,0.000
6558.000,-19.043,-49.316,-9.766,-3.906,0.000
6562.000,-17.578,-42.480,-13.184,-8.789,0.000
6566.000,-6.836,-40.039,-15.137,-5.371,0.000
6570.000,-8.301,-46.875,-18.066,-14.648,0.000
6574.000,-14.648,-44.434,-21.484,-12.695,0.000
6578.000,-14.160,-43.945,-20.508,0.000,0.000
6582.000,-12.695,-43.945,-16.602,-5.859,0.000
6586.000,-17.090,-40.527,-17.090,-16.113,0.000
6590.000,-20.020,-45.898,-23.926,-20.508,0.000
6594.000,-23.926,-49.316,-22.949,-14.648,0.000
6597.000,-29.785,-43.945,-18.555,-18.066,0.000
6601.000,-27.344,-35.156,-21.484,-19.043,0.000
6605.000,-20.996,-33.203,-27.344,-15.137,0.000
6609.000,-13.672,-31.738,-27.344,-14.160,0.000
6613.000,-21.973,-31.250,-25.879,-20.996,0.000
6617.000,-27.344,-35.156,-23.926,-24.902,0.000
6621.000,-20.996,-25.879,-20.020,-16.113,0.000
6625.000,-19.531,-20.020,-23.926,-14.160,0.000
6629.000,-25.391,-28.320,-23.926,-13.672,0.000
6633.000,-21.973,-28.809,-16.602,-12.207,0.000
6637.000,-17.090,-23.438,-14.648,-10.254,0.000
6640.000,-10.254,-21.973,-14.648,-10.742,0.000
6644.000,-11.230,-25.391,-15.625,-5.859,0.000
6648.000,-20.996,-21.973,-14.160,-4.883,0.000
6652.000,-17.578,-21.973,-17.090,-17.090,0.000
6656.000,-19.043,-28.809,-24.414,-15.625,0.000
6660.000,-23.438,-28.320,-25.879,-1.953,0.000
6664.000,-30.273,-26.855,-26.855,-12.695,0.000
6668.000,-35.645,-28.809,-28.809,-17.578,0.000
6672.000,-33.203,-28.809,-26.855,-18.066,0.000
6676.000,-36.133,-29.297,-21.973,-29.785,0.000
6680.000,-36.621,-31.250,-21.973,-22.461,0.000
6683.000,-33.691,-34.180,-23.438,-20.020,0.000
6687.000,-36.621,-33.691,-23.926,-28.320,0.000
6691.000,-34.668,-33.691,-25.391,-26.855,0.000
6695.000,-37.598,-35.645,-19.531,-28.320,0.000
6699.000,-44.434,-37.598,-12.207,-27.832,0.000
6703.000,-27.832,-41.504,-14.160,-21.973,0.000
6707.000,-6.836,-32.715,-13.672,-6.348,0.000
6711.000,-8.789,-13.672,-22.949,-7.324,0.000
6715.000,-41.016,-13.184,-37.109,-41.504,0.000
6719.000,-56.641,-14.648,-42.480,-55.664,0.000
6722.000,-51.758,-6.348,-48.340,-58.105,0.000
6726.000,-65.918,-9.277,-54.688,-66.406,0.000
6730.000,-63.965,-2.930,-57.129,-71.777,0.000
6734.000,-55.176,6.348,-62.012,-80.078,0.000
6738.000,-64.453,3.418,-70.312,-89.844,0.000
6742.000,-64.941,1.465,-73.242,-89.355,0.000
6746.000,-65.918,3.418,-74.707,-82.031,0.000
6750.000,-77.148,6.836,-78.125,-96.191,0.000
6754.000,-75.195,14.648,-73.730,-101.074,0.000
6758.000,-69.336,24.414,-69.336,-88.379,0.000
6762.000,-78.613,27.832,-75.684,-98.145,0.000
6765.000,-84.961,27.832,-81.055,-105.957,0.000
6769.000,-65.430,36.133,-80.078,-94.727,0.000
6773.000,-54.688,38.086,-81.055,-89.355,0.000
6777.000,-62.012,37.109,-87.402,-94.727,0.000
6781.000,-71.289,40.527,-87.891,-102.539,0.000
6785.000,-60.547,45.410,-83.496,-101.074,0.000
6789.000,-52.246,43.945,-83.008,-97.168,0.000
6793.000,-60.547,38.086,-80.566,-99.121,0.000
6797.000,-57.617,40.039,-73.242,-89.355,0.000
6801.000,-48.340,46.387,-70.312,-77.637,0.000
6805.000,-56.641,49.805,-72.754,-77.148,0.000
6808.000,-49.316,43.945,-76.172,-69.336,0.000
6812.000,-39.551,41.992,-78.613,-56.641,0.000
6816.000,-42.969,41.016,-77.148,-60.059,0.000
6820.000,-45.410,38.574,-71.289,-66.895,0.000
6824.000,-37.109,40.039,-65.430,-60.059,0.000
6828.000,-34.180,37.109,-66.895,-52.734,0.000
6832.000,-44.922,31.250,-66.895,-54.199,0.000
6836.000,-43.945,24.902,-63.477,-56.641,0.000
6840.000,-30.762,22.461,-61.035,-50.293,0.000
6844.000,-32.227,23.438,-56.152,-39.551,0.000
6847.000,-47.852,20.020,-58.105,-40.527,0.000
6851.000,-38.574,16.113,-62.500,-51.758,0.000
6855.000,-24.414,12.207,-61.035,-48.340,0.000
6859.000,-32.227,9.766,-59.570,-38.574,0.000
6863.000,-26.855,8.301,-55.664,-37.109,0.000
6867.000,-24.902,7.324,-47.852,-36.621,0.000
6871.000,-27.344,5.371,-45.898,-37.598,0.000
6875.000,-29.297,2.441,-50.293,-33.691,0.000
6879.000,-39.551,-3.418,-55.176,-27.832,0.000
6883.000,-44.434,-2.930,-55.664,-28.320,0.000
6887.000,-44.922,-0.488,-51.270,-39.062,0.000
6890.000,-41.504,-3.418,-49.316,-39.062,0.000
6894.000,-33.203,-3.906,-49.805,-33.691,0.000
6898.000,-31.738,1.953,-49.316,-32.227,0.000
6902.000,-26.367,-3.906,-47.363,-39.062,0.000
6906.000,-19.531,-7.812,-43.457,-39.551,0.000
6910.000,-21.973,-8.301,-39.062,-29.785,0.000
6914.000,-29.785,-9.766,-41.504,-32.227,0.000
6918.000,-26.367,-10.742,-41.504,-34.180,0.000
6922.000,-22.461,-9.277,-39.551,-28.809,0.000
6926.000,-31.250,-12.695,-42.480,-20.996,0.000
6929.000,-34.668,-10.254,-40.527,-20.508,0.000
6933.000,-24.902,-7.324,-39.062,-26.855,0.000
6937.000,-23.438,-13.184,-42.969,-36.621,0.000
6941.000,-24.902,-12.695,-44.434,-37.598,0.000
6945.000,-29.785,-12.695,-43.457,-36.621,0.000
6949.000,-33.203,-20.996,-36.621,-36.133,0.000
6953.000,-24.414,-21.973,-37.109,-49.805,0.000
6957.000,-31.250,-20.020,-40.039,-50.293,0.000
6961.000,-32.715,-25.391,-36.133,-38.574,0.000
6965.000,-33.203,-26.855,-32.227,-37.109,0.000
6969.000,-30.273,-18.066,-28.320,-39.062,0.000
6972.000,-23.926,-14.160,-24.414,-34.180,0.000
6976.000,-42.969,-15.625,-21.484,-28.320,0.000
6980.000,-50.781,-20.020,-23.926,-37.598,0.000
6984.000,-32.715,-20.996,-26.367,-42.480,0.000
6988.000,-41.016,-23.926,-27.832,-45.898,0.000
6992.000,-40.039,-24.414,-31.738,-44.434,0.000
6996.000,-38.086,-24.902,-32.715,-37.109,0.000
7000.000,-48.340,-26.855,-29.297,-41.504,0.000
7004.000,-38.086,-25.879,-32.227,-40.039,0.000
7008.000,-30.273,-26.367,-36.621,-31.738,0.000
7012.000,-39.551,-25.879,-34.668,-25.879,0.000
7015.000,-40.527,-21.973,-32.715,-20.508,0.000
7019.000,-27.832,-22.461,-30.762,-33.203,0.000
7023.000,-31.250,-22.949,-31.738,-31.250,0.000
7027.000,-40.527,-23.926,-33.691,-27.832,0.000
7031.000,-32.715,-23.438,-32.227,-28.809,0.000
7035.000,-28.320,-22.461,-39.551,-26.855,0.000
7039.000,-24.414,-22.949,-38.086,-29.297,0.000
7043.000,-21.484,-20.508,-28.320,-23.438,0.000
7047.000,-22.949,-18.066,-28.320,-18.066,0.000
7051.000,-23.438,-18.555,-30.273,-24.902,0.000
7054.000,-9.766,-22.461,-29.785,-25.879,0.000
7058.000,-10.742,-19.043,-27.832,-13.184,0.000
7062.000,-14.160,-15.625,-28.320,-5.371,0.000
7066.000,-16.602,-22.461,-27.832,-17.578,0.000
7070.000,-28.809,-26.855,-30.273,-26.855,0.000
7074.000,-27.832,-26.855,-34.668,-20.020,0.000
7078.000,-25.391,-25.391,-34.180,-18.066,0.000
7082.000,-23.438,-14.648,-34.180,-19.043,0.000
7086.000,-20.996,-11.230,-32.715,-18.066,0.000
7090.000,-21.973,-16.113,-32.227,-17.090,0.000
7094.000,-24.902,-20.020,-31.738,-14.160,0.000
7097.000,-24.414,-20.020,-27.344,-14.160,0.000
7101.000,-21.973,-19.531,-21.484,-15.137,0.000
7105.000,-21.973,-16.113,-18.555,-7.812,0.000
7109.000,-19.531,-20.020,-22.949,-10.254,0.000
7113.000,-20.996,-26.855,-21.973,-18.066,0.000
7117.000,-26.367,-23.438,-18.066,-23.438,0.000
7121.000,-19.043,-18.066,-20.996,-21.973,0.000
7125.000,-14.160,-19.531,-21.973,-17.578,0.000
7129.000,-20.020,-19.043,-21.484,-9.766,0.000
7133.000,-20.508,-15.137,-22.461,-18.066,0.000
7137.000,-17.578,-16.113,-23.926,-19.531,0.000
7140.000,-12.207,-17.578,-23.926,-12.695,0.000
7144.000,-16.113,-16.113,-21.484,-24.902,0.000
7148.000,-29.785,-18.555,-24.902,-28.809,0.000
7152.000,-29.297,-20.996,-22.949,-21.484,0.000
7156.000,-25.391,-21.484,-20.996,-17.578,0.000
7160.000,-20.508,-21.484,-23.926,-15.625,0.000
7164.000,-24.414,-24.414,-25.391,-16.602,0.000
7168.000,-39.551,-29.297,-26.855,-22.461,0.000
7172.000,-35.645,-26.367,-24.414,-20.508,0.000
7176.000,-33.203,-23.926,-23.926,-5.371,0.000
7179.000,-30.762,-23.926,-25.391,-7.324,0.000
7183.000,-26.367,-22.461,-25.879,-14.160,0.000
7187.000,-27.832,-21.973,-26.855,-3.418,0.000
7191.000,-23.438,-20.020,-21.484,10.254,0.000
7195.000,-19.531,-21.484,-23.438,4.395,0.000
7199.000,-27.344,-22.949,-34.668,-12.695,0.000
7203.000,-19.043,-27.344,-39.551,-14.160,0.000
7207.000,4.883,-27.344,-32.715,15.625,0.000
7211.000,1.465,-27.344,-25.879,26.367,0.000
7215.000,-18.555,-31.738,-22.461,0.977,0.000
7219.000,-26.855,-36.621,-16.113,-16.602,0.000
7222.000,-15.137,-39.062,-12.207,-10.742,0.000
7226.000,-8.301,-40.039,-6.836,9.277,0.000
7230.000,-13.184,-39.551,0.000,5.859,0.000
7234.000,-19.043,-42.969,-5.371,-4.883,0.000
7238.000,-16.113,-49.316,-6.348,8.301,0.000
7242.000,-5.371,-52.246,-6.348,16.602,0.000
7246.000,1.465,-52.734,-9.766,12.695,0.000
7250.000,1.953,-55.664,-4.883,1.953,0.000
7254.000,7.324,-57.617,-2.441,5.859,0.000
7258.000,7.324,-61.523,0.000,27.344,0.000
7262.000,-20.508,-63.477,3.418,35.156,0.000
7265.000,-30.273,-64.941,4.883,28.809,0.000
7269.000,-23.438,-65.430,12.207,27.344,0.000
7273.000,-36.133,-66.895,14.648,22.949,0.000
7277.000,-42.480,-68.359,10.254,22.949,0.000
7281.000,-25.879,-69.336,10.254,26.855,0.000
7285.000,-28.809,-77.637,12.207,20.508,0.000
7289.000,-32.715,-74.219,11.230,19.531,0.000
7293.000,-17.578,-70.801,11.230,26.367,0.000
7297.000,-22.949,-73.730,12.207,15.625,0.000
7301.000,-24.414,-70.801,10.254,-5.371,0.000
7304.000,-12.695,-74.707,8.301,-21.973,0.000
7308.000,-18.066,-78.125,10.254,-13.672,0.000
7312.000,-25.391,-73.730,12.207,2.930,0.000
7316.000,-27.832,-68.848,15.137,-5.859,0.000
7320.000,-17.090,-70.312,10.254,-8.301,0.000
7324.000,-4.883,-70.312,13.184,1.465,0.000
7328.000,-24.902,-69.336,16.113,11.230,0.000
7332.000,-54.199,-72.266,13.184,13.672,0.000
7336.000,-67.871,-73.730,15.625,6.836,0.000
7340.000,-62.500,-72.266,15.137,12.207,0.000
7344.000,-49.805,-64.453,19.531,31.250,0.000
7347.000,-47.363,-62.012,20.996,39.551,0.000
7351.000,-36.621,-61.523,17.090,21.484,0.000
7355.000,-23.438,-56.152,18.555,12.695,0.000
7359.000,-17.090,-51.270,17.090,21.484,0.000
7363.000,-17.578,-54.199,15.137,25.391,0.000
7367.000,-12.207,-56.152,16.602,30.273,0.000
7371.000,-1.953,-51.270,17.090,30.273,0.000
7375.000,-10.742,-51.758,13.184,21.973,0.000
7379.000,-8.301,-55.664,7.812,26.855,0.000
7383.000,-3.906,-57.617,11.230,22.461,0.000
7387.000,-6.348,-59.082,10.742,14.160,0.000
7390.000,-3.418,-57.129,4.395,23.438,0.000
7394.000,-13.184,-60.059,0.488,14.648,0.000
7398.000,-12.207,-60.059,-1.953,8.789,0.000
7402.000,0.000,-52.734,-2.441,14.160,0.000
