timestamp,TP9,AF7,AF8,TP10,Right AUX
0.000,-17.578,16.113,-52.246,-38.086,0.000
4.000,-26.855,10.254,-55.176,-48.340,0.000
8.000,-30.762,6.348,-53.223,-49.805,0.000
12.000,-27.832,3.418,-59.082,-47.363,0.000
16.000,-22.461,1.953,-62.988,-55.664,0.000
20.000,-16.602,2.930,-59.082,-49.805,0.000
23.000,-15.625,6.348,-55.664,-44.922,0.000
27.000,-13.672,0.000,-50.781,-53.711,0.000
31.000,-4.395,-5.859,-45.898,-46.875,0.000
35.000,-7.324,-7.324,-47.852,-40.039,0.000
39.000,-26.855,-7.812,-50.293,-41.992,0.000
43.000,-27.344,-0.977,-47.363,-38.574,0.000
47.000,-28.809,-0.977,-42.480,-30.273,0.000
51.000,-29.297,-4.883,-42.480,-31.250,0.000
55.000,-14.160,-6.836,-41.504,-27.832,0.000
59.000,-27.832,-11.230,-36.133,-30.762,0.000
62.000,-50.781,-13.672,-34.180,-30.762,0.000
66.000,-58.105,-16.113,-37.109,-13.672,0.000
70.000,-52.246,-18.555,-34.668,-20.508,0.000
74.000,-50.293,-18.066,-35.156,-33.691,0.000
78.000,-51.758,-15.137,-36.621,-38.574,0.000
82.000,-43.945,-15.137,-39.062,-41.016,0.000
86.000,-34.668,-17.090,-42.480,-38.574,0.000
90.000,-38.574,-15.625,-40.039,-33.691,0.000
94.000,-46.387,-12.207,-36.133,-33.691,0.000
98.000,-38.574,-15.625,-34.668,-33.203,0.000
102.000,-26.367,-19.531,-35.645,-34.668,0.000
105.000,-26.855,-14.160,-36.621,-35.156,0.000
109.000,-18.555,-16.113,-39.062,-44.434,0.000
113.000,-12.695,-17.578,-39.062,-40.527,0.000
117.000,-22.461,-11.719,-32.227,-28.809,0.000
121.000,-29.785,-12.207,-29.297,-30.762,0.000
125.000,-41.992,-14.648,-33.691,-34.668,0.000
129.000,-30.762,-10.254,-35.156,-35.645,0.000
133.000,-21.973,-11.230,-35.645,-33.691,0.000
137.000,-13.672,-10.742,-35.645,-22.461,0.000
141.000,0.977,-8.301,-31.738,-31.250,0.000
145.000,-14.160,-11.230,-31.738,-35.156,0.000
148.000,-27.344,-11.230,-34.668,-23.926,0.000
152.000,-30.273,-11.719,-36.621,-30.273,0.000
156.000,-40.527,-13.184,-36.621,-18.066,0.000
160.000,-45.898,-14.160,-33.203,-8.789,0.000
164.000,-33.691,-15.137,-34.668,0.488,0.000
168.000,-26.855,-16.602,-36.621,13.184,0.000
172.000,-30.273,-17.090,-35.645,15.137,0.000
176.000,-27.344,-20.996,-33.203,8.789,0.000
180.000,-22.949,-21.973,-29.297,-0.488,0.000
184.000,-18.066,-20.996,-29.297,3.418,0.000
187.000,-20.020,-25.391,-34.668,5.371,0.000
191.000,-28.809,-29.785,-38.086,-6.836,0.000
195.000,-22.949,-31.250,-37.598,-17.090,0.000
199.000,-30.273,-31.738,-42.969,-9.277,0.000
203.000,-41.504,-30.273,-42.480,-13.184,0.000
207.000,-29.297,-31.738,-39.062,-20.020,0.000
211.000,-23.438,-36.621,-41.504,-17.578,0.000
215.000,-31.738,-35.645,-39.062,-6.348,0.000
219.000,-28.809,-31.250,-36.621,-4.395,0.000
223.000,-35.645,-33.203,-34.180,-10.742,0.000
227.000,-67.383,-34.668,-25.391,-13.184,0.000
230.000,-63.965,-34.180,-29.785,-30.762,0.000
234.000,-51.270,-39.062,-32.227,-21.973,0.000
238.000,-49.316,-40.039,-29.785,-2.441,0.000
242.000,-56.641,-40.039,-34.180,-6.836,0.000
246.000,-58.594,-40.039,-36.621,-15.625,0.000
250.000,-32.227,-39.551,-37.598,-5.371,0.000
254.000,-17.090,-39.062,-34.668,4.395,0.000
258.000,-33.203,-35.645,-35.156,-14.648,0.000
262.000,-47.363,-38.086,-37.109,-15.625,0.000
266.000,-38.574,-41.992,-38.574,5.371,0.000
270.000,-30.273,-42.480,-38.574,12.695,0.000
273.000,-28.320,-40.039,-35.156,6.348,0.000
277.000,-20.508,-34.180,-29.785,-6.348,0.000
281.000,-12.207,-32.715,-30.273,-0.977,0.000
285.000,-2.441,-27.344,-28.809,18.555,0.000
289.000,-6.836,-26.367,-25.879,15.625,0.000
293.000,3.418,-22.949,-23.438,8.301,0.000
297.000,13.184,-20.020,-23.438,3.418,0.000
301.000,14.160,-17.578,-25.879,-7.324,0.000
305.000,30.762,-10.742,-30.273,-12.207,0.000
309.000,-4.395,-7.324,-24.902,-7.812,0.000
312.000,-10.742,-7.812,-23.438,-9.766,0.000
316.000,6.348,-10.254,-32.227,-8.789,0.000
320.000,-12.207,-12.207,-34.180,-7.812,0.000
324.000,-41.016,-18.066,-31.250,-10.254,0.000
328.000,-106.445,-21.484,-27.832,-2.441,0.000
332.000,-102.051,-17.090,-25.391,-8.789,0.000
336.000,-71.777,-15.137,-27.832,-15.137,0.000
340.000,-67.383,-18.066,-30.762,-16.113,0.000
344.000,-53.223,-17.578,-31.738,-21.484,0.000
348.000,-41.504,-20.996,-36.133,-18.066,0.000
352.000,-34.180,-20.020,-34.180,-13.672,0.000
355.000,-38.086,-18.555,-37.109,-21.973,0.000
359.000,-23.926,-19.531,-46.875,-5.859,0.000
363.000,0.488,-16.602,-39.062,17.578,0.000
367.000,-21.973,-22.461,-29.297,-2.930,0.000
371.000,-48.828,-28.320,-24.902,-24.902,0.000
375.000,-40.039,-35.156,-22.461,-18.555,0.000
379.000,-23.438,-48.340,-30.273,-6.348,0.000
383.000,-29.297,-54.688,-26.855,-2.441,0.000
387.000,-35.156,-58.105,-16.113,-7.324,0.000
391.000,-29.297,-62.500,-9.277,0.488,0.000
395.000,-28.320,-66.406,-3.906,2.930,0.000
398.000,-27.832,-69.336,-1.953,4.883,0.000
402.000,-30.762,-73.242,-2.441,18.555,0.000
406.000,-19.043,-72.754,1.953,24.414,0.000
410.000,-7.324,-69.824,7.812,22.949,0.000
414.000,-7.812,-79.102,2.441,20.508,0.000
418.000,-5.371,-83.984,5.371,15.625,0.000
422.000,-2.930,-79.590,12.695,24.902,0.000
426.000,-13.184,-78.613,12.207,30.273,0.000
430.000,-37.598,-77.637,10.742,29.297,0.000
434.000,-33.691,-78.125,13.672,40.039,0.000
437.000,-24.902,-74.707,13.184,32.227,0.000
441.000,-26.855,-73.242,7.324,35.645,0.000
445.000,-28.320,-80.078,9.766,34.180,0.000
449.000,-12.207,-78.613,10.742,43.945,0.000
453.000,-11.719,-79.102,12.695,50.293,0.000
457.000,-22.461,-80.566,16.602,30.762,0.000
461.000,-9.766,-77.637,9.766,31.738,0.000
465.000,-14.648,-80.078,6.348,31.738,0.000
469.000,-24.902,-80.078,11.719,23.926,0.000
473.000,-17.090,-77.148,14.160,34.668,0.000
477.000,-6.836,-72.754,13.672,38.086,0.000
480.000,-1.465,-66.895,12.695,24.902,0.000
484.000,-6.348,-66.406,16.113,12.695,0.000
488.000,-19.043,-68.359,15.625,18.066,0.000
492.000,-16.113,-64.941,11.719,18.555,0.000
496.000,3.906,-59.082,9.277,18.066,0.000
500.000,-2.441,-63.477,2.930,20.020,0.000
504.000,-27.832,-66.406,2.441,18.066,0.000
508.000,-21.484,-65.430,5.859,14.648,0.000
512.000,-27.832,-66.895,-0.977,9.277,0.000
516.000,-44.434,-67.871,1.465,9.277,0.000
520.000,-44.434,-61.523,6.348,16.602,0.000
523.000,-38.574,-62.012,2.930,13.184,0.000
527.000,-24.414,-63.965,0.977,-0.488,0.000
531.000,2.441,-64.453,4.395,0.000,0.000
535.000,20.996,-64.941,3.418,7.812,0.000
539.000,-42.480,-64.941,3.906,10.254,0.000
543.000,-92.285,-64.453,7.324,13.184,0.000
547.000,-71.289,-61.523,5.859,16.113,0.000
551.000,-67.871,-63.965,-3.418,13.184,0.000
555.000,-70.801,-65.918,-7.812,8.789,0.000
559.000,-57.617,-63.477,-7.324,-4.395,0.000
562.000,-44.434,-59.082,-6.348,-17.090,0.000
566.000,-45.898,-60.059,-5.371,-24.902,0.000
570.000,-52.246,-62.988,-5.859,-35.156,0.000
574.000,-41.016,-61.523,-7.324,-25.391,0.000
578.000,-40.039,-52.734,-4.883,-14.160,0.000
582.000,-48.828,-48.828,-6.348,-13.184,0.000
586.000,-37.598,-54.688,-17.090,-5.371,0.000
590.000,-29.785,-51.270,-20.020,-15.625,0.000
594.000,-17.090,-48.828,-17.578,-16.602,0.000
598.000,13.184,-52.734,-21.484,-15.625,0.000
602.000,18.555,-49.805,-27.832,-20.996,0.000
605.000,27.344,-44.922,-25.391,-29.785,0.000
609.000,-4.395,-41.504,-22.461,-24.902,0.000
613.000,-100.586,-45.898,-18.066,-12.695,0.000
617.000,-111.328,-43.945,-15.137,-2.441,0.000
621.000,-77.148,-40.039,-16.602,1.953,0.000
625.000,-64.941,-37.598,-12.207,-2.930,0.000
629.000,-59.082,-37.109,-12.695,-11.719,0.000
633.000,-48.340,-38.086,-18.066,-12.207,0.000
637.000,-42.480,-32.227,-15.137,-5.859,0.000
641.000,-43.457,-29.297,-10.254,-6.836,0.000
645.000,-40.527,-30.273,-17.090,4.883,0.000
648.000,-28.320,-28.320,-17.578,13.672,0.000
652.000,-29.297,-27.832,-16.113,-1.953,0.000
656.000,-36.133,-28.320,-19.043,-10.254,0.000
660.000,-37.598,-26.367,-16.113,-21.973,0.000
664.000,-42.480,-29.297,-20.020,-41.016,0.000
668.000,-40.039,-29.297,-23.438,-43.457,0.000
672.000,-31.738,-27.344,-25.391,-41.504,0.000
676.000,-23.438,-27.832,-31.738,-46.387,0.000
680.000,-7.324,-25.879,-31.250,-42.969,0.000
684.000,4.395,-27.344,-33.203,-39.551,0.000
687.000,4.883,-22.949,-33.691,-34.180,0.000
691.000,-0.977,-15.625,-33.203,-22.949,0.000
695.000,-55.176,-21.973,-33.691,-25.879,0.000
699.000,-84.473,-26.855,-28.320,-31.738,0.000
703.000,-66.895,-29.785,-31.250,-26.367,0.000
707.000,-57.129,-31.738,-35.156,-29.785,0.000
711.000,-63.965,-33.691,-30.762,-40.039,0.000
715.000,-67.871,-36.133,-26.367,-39.551,0.000
719.000,-60.059,-33.203,-31.738,-29.785,0.000
723.000,-55.664,-30.762,-34.180,-36.621,0.000
727.000,-50.293,-32.715,-30.762,-43.945,0.000
730.000,-55.664,-36.133,-35.645,-41.016,0.000
734.000,-51.270,-32.227,-33.691,-26.855,0.000
738.000,-49.805,-30.273,-32.715,-16.113,0.000
742.000,-65.918,-40.039,-43.457,-34.180,0.000
746.000,-56.152,-42.480,-43.945,-32.227,0.000
750.000,-47.852,-37.598,-34.668,-24.902,0.000
754.000,-60.547,-38.086,-33.691,-40.527,0.000
758.000,-58.594,-40.039,-33.691,-42.480,0.000
762.000,-41.992,-41.504,-28.320,-35.645,0.000
766.000,-26.367,-38.086,-26.855,-23.926,0.000
770.000,-16.113,-34.180,-26.855,-16.113,0.000
773.000,-18.555,-34.180,-25.879,-22.949,0.000
777.000,-21.973,-39.551,-23.926,-35.645,0.000
781.000,-26.367,-38.574,-23.926,-27.344,0.000
785.000,-46.387,-33.203,-22.949,-13.184,0.000
789.000,-41.992,-30.762,-22.461,-11.230,0.000
793.000,-31.250,-28.320,-25.391,-23.926,0.000
797.000,-38.086,-33.691,-30.273,-23.926,0.000
801.000,-57.129,-37.598,-24.902,-4.883,0.000
805.000,-54.688,-30.273,-19.531,1.465,0.000
809.000,-46.387,-25.879,-26.367,-16.602,0.000
812.000,-53.223,-30.273,-27.344,-29.785,0.000
816.000,-37.598,-35.156,-25.879,-20.996,0.000
820.000,-6.348,-40.039,-26.855,-8.789,0.000
824.000,-6.836,-25.391,-32.227,-18.066,0.000
828.000,-25.879,-9.766,-43.945,-36.621,0.000
832.000,-46.387,-19.043,-46.875,-48.340,0.000
836.000,-59.082,-24.902,-48.340,-50.293,0.000
840.000,-54.688,-14.648,-52.734,-48.828,0.000
844.000,-56.641,-0.488,-60.059,-67.871,0.000
848.000,-66.406,2.930,-62.012,-73.242,0.000
852.000,-65.430,1.465,-58.594,-78.125,0.000
855.000,-90.820,0.977,-55.664,-107.422,0.000
859.000,-90.820,5.859,-66.406,-118.164,0.000
863.000,-64.453,14.648,-72.266,-112.305,0.000
867.000,-70.312,15.625,-74.219,-119.141,0.000
871.000,-74.707,19.531,-78.125,-116.211,0.000
875.000,-94.727,19.531,-80.078,-123.047,0.000
879.000,-104.980,18.555,-81.055,-131.348,0.000
883.000,-99.609,23.438,-81.543,-130.859,0.000
887.000,-93.750,20.996,-92.285,-140.625,0.000
891.000,-67.871,24.414,-95.215,-136.719,0.000
894.000,-42.480,30.273,-89.844,-138.184,0.000
898.000,-38.086,26.367,-91.797,-149.902,0.000
902.000,-95.703,26.855,-89.844,-134.766,0.000
906.000,-146.484,30.273,-85.449,-105.957,0.000
910.000,-127.441,34.180,-82.520,-95.215,0.000
914.000,-104.980,34.180,-74.707,-98.633,0.000
918.000,-100.586,29.785,-75.195,-111.328,0.000
922.000,-90.332,25.879,-87.402,-106.934,0.000
926.000,-79.590,21.973,-82.520,-99.609,0.000
930.000,-72.266,20.020,-73.730,-110.840,0.000
934.000,-58.594,22.461,-75.195,-103.027,0.000
937.000,-52.246,20.996,-72.266,-81.055,0.000
941.000,-52.246,17.090,-65.918,-72.266,0.000
945.000,-47.363,13.672,-62.988,-78.613,0.000
949.000,-33.691,8.789,-65.918,-69.824,0.000
953.000,-23.438,10.254,-64.453,-61.523,0.000
957.000,-19.043,7.324,-60.547,-69.336,0.000
961.000,-17.578,3.906,-54.199,-58.105,0.000
965.000,-27.832,9.277,-54.688,-55.176,0.000
969.000,-43.945,5.859,-51.758,-58.594,0.000
973.000,-35.156,9.277,-48.828,-47.363,0.000
977.000,-23.438,2.441,-51.758,-53.223,0.000
980.000,-10.254,-2.930,-49.316,-55.176,0.000
984.000,1.465,5.859,-50.293,-43.945,0.000
988.000,-21.484,5.371,-51.270,-36.621,0.000
992.000,-45.898,3.906,-44.922,-31.738,0.000
996.000,-35.645,0.977,-47.363,-37.109,0.000
1000.000,-26.367,-1.465,-49.316,-34.180,0.000
1004.000,-27.344,-0.977,-41.992,-22.949,0.000
1008.000,-33.203,0.977,-47.363,-29.297,0.000
1012.000,-31.738,-2.441,-51.270,-37.109,0.000
1016.000,-22.949,-3.906,-43.945,-32.227,0.000
1019.000,-31.738,-1.465,-44.434,-25.391,0.000
1023.000,-41.992,-9.766,-47.852,-33.203,0.000
1027.000,-38.086,-12.695,-42.969,-35.156,0.000
1031.000,-33.203,-13.184,-40.527,-31.250,0.000
1035.000,-30.762,-20.020,-41.504,-24.902,0.000
1039.000,-16.113,-19.531,-39.062,-20.020,0.000
1043.000,-20.020,-20.020,-42.969,-22.949,0.000
1047.000,-22.949,-23.438,-41.992,-24.414,0.000
1051.000,-22.461,-24.414,-38.086,-24.902,0.000
1055.000,-29.297,-23.438,-41.016,-36.133,0.000
1059.000,-29.785,-22.949,-43.457,-42.480,0.000
1062.000,-21.973,-21.973,-43.945,-42.969,0.000
1066.000,-24.414,-23.926,-44.434,-40.039,0.000
1070.000,-33.691,-24.902,-33.203,-38.574,0.000
1074.000,-33.691,-22.461,-31.738,-40.039,0.000
1078.000,-33.691,-24.414,-39.551,-52.246,0.000
1082.000,-33.691,-28.809,-41.504,-53.223,0.000
1086.000,-40.039,-28.809,-41.504,-42.969,0.000
1090.000,-33.691,-25.879,-36.621,-47.363,0.000
1094.000,-34.668,-25.391,-36.133,-61.035,0.000
1098.000,-46.387,-26.367,-40.527,-65.430,0.000
1102.000,-41.992,-28.320,-40.039,-55.664,0.000
1105.000,-21.484,-32.715,-37.109,-23.926,0.000
1109.000,1.953,-27.344,-34.668,12.695,0.000
1113.000,-9.277,-14.160,-30.762,9.277,0.000
1117.000,-46.387,-11.719,-36.133,-24.414,0.000
1121.000,-53.223,-12.207,-42.480,-30.273,0.000
1125.000,-24.902,-8.301,-42.480,-7.812,0.000
1129.000,-9.277,-9.766,-41.992,8.789,0.000
1133.000,3.418,-8.789,-41.016,12.695,0.000
1137.000,17.090,-2.930,-48.340,15.625,0.000
1141.000,16.602,-1.465,-46.875,29.297,0.000
1144.000,22.949,-0.488,-41.504,35.156,0.000
1148.000,34.180,0.977,-41.504,29.297,0.000
1152.000,55.664,3.418,-36.133,44.922,0.000
1156.000,52.734,5.371,-29.297,49.316,0.000
1160.000,36.133,3.418,-29.297,27.832,0.000
1164.000,28.809,-1.465,-30.762,16.602,0.000
1168.000,40.527,-1.953,-35.156,27.344,0.000
1172.000,47.363,-3.418,-39.062,27.344,0.000
1176.000,23.438,-5.371,-36.621,11.719,0.000
1180.000,10.254,-4.395,-35.156,10.254,0.000
1184.000,11.230,-7.812,-36.133,24.414,0.000
1187.000,-5.371,-9.277,-33.691,29.297,0.000
1191.000,-20.996,-6.348,-35.645,10.742,0.000
1195.000,-21.484,-4.395,-38.086,8.789,0.000
1199.000,-26.367,-4.395,-34.668,16.113,0.000
1203.000,-16.113,-8.789,-40.527,6.836,0.000
1207.000,-10.742,-19.043,-42.969,-2.441,0.000
1211.000,-12.207,-18.066,-38.086,-3.418,0.000
1215.000,-9.277,-18.555,-35.645,7.324,0.000
1219.000,-13.184,-22.949,-31.738,4.395,0.000
1223.000,-6.836,-20.020,-32.227,-1.465,0.000
1227.000,1.953,-20.508,-34.668,-6.348,0.000
1230.000,-0.977,-19.043,-31.738,-5.859,0.000
1234.000,-7.324,-23.926,-37.109,2.441,0.000
1238.000,-3.906,-27.344,-36.133,-4.395,0.000
1242.000,-2.441,-24.414,-30.273,-22.461,0.000
1246.000,-7.324,-22.949,-36.621,-29.785,0.000
1250.000,-1.953,-17.090,-39.062,-34.668,0.000
1254.000,5.859,-15.137,-34.180,-49.805,0.000
1258.000,-2.441,-20.996,-35.645,-54.199,0.000
1262.000,-11.230,-23.438,-41.992,-37.109,0.000
1266.000,-30.273,-22.461,-39.062,-34.668,0.000
1269.000,-32.227,-23.438,-36.621,-44.434,0.000
1273.000,-9.277,-20.508,-40.039,-18.066,0.000
1277.000,-3.906,-16.602,-27.832,9.766,0.000
1281.000,-45.410,-37.109,-20.508,-24.414,0.000
1285.000,-68.359,-43.457,-22.461,-41.504,0.000
1289.000,-56.641,-38.574,-19.531,-31.738,0.000
1293.000,-77.637,-49.805,-12.207,-49.805,0.000
1297.000,-105.957,-58.594,-8.301,-58.594,0.000
1301.000,-108.887,-64.453,-8.301,-53.711,0.000
1305.000,-104.492,-62.500,-8.301,-50.293,0.000
1309.000,-107.910,-67.871,-3.418,-59.570,0.000
1312.000,-117.188,-83.496,1.953,-73.730,0.000
1316.000,-107.422,-87.402,6.348,-62.988,0.000
1320.000,-98.145,-83.008,4.883,-47.852,0.000
1324.000,-104.004,-86.426,0.977,-55.176,0.000
1328.000,-92.285,-93.262,1.953,-49.316,0.000
1332.000,-81.055,-95.703,2.930,-31.250,0.000
1336.000,-87.891,-97.168,0.977,-24.902,0.000
1340.000,-88.379,-94.238,0.488,-12.207,0.000
1344.000,-76.660,-98.633,2.930,-13.672,0.000
1348.000,-73.730,-101.562,-3.418,-19.043,0.000
1352.000,-76.660,-99.609,-2.930,-15.137,0.000
1355.000,-78.125,-97.656,5.371,-13.672,0.000
1359.000,-67.871,-98.145,9.277,-5.371,0.000
1363.000,-51.270,-98.633,10.254,2.441,0.000
1367.000,-31.738,-91.797,12.207,13.184,0.000
1371.000,-14.160,-86.426,16.113,6.836,0.000
1375.000,-19.531,-90.332,12.207,-6.836,0.000
1379.000,-75.195,-94.238,4.395,1.953,0.000
1383.000,-88.379,-95.215,12.207,17.090,0.000
1387.000,-62.500,-90.820,17.090,18.555,0.000
1391.000,-51.270,-90.332,15.625,14.648,0.000
1394.000,-40.039,-86.914,19.043,22.949,0.000
1398.000,-30.273,-78.125,22.949,35.645,0.000
1402.000,-29.297,-74.219,18.555,35.156,0.000
1406.000,-22.949,-77.637,17.090,42.480,0.000
1410.000,-11.230,-77.148,20.996,39.062,0.000
1414.000,-8.301,-70.312,22.461,26.367,0.000
1418.000,-7.812,-68.359,21.484,30.273,0.000
1422.000,-5.371,-63.965,20.020,39.551,0.000
1426.000,-9.277,-67.871,13.672,21.973,0.000
1430.000,-13.672,-71.777,10.254,16.113,0.000
1434.000,-0.977,-65.918,9.277,22.461,0.000
1437.000,3.906,-60.059,10.254,25.879,0.000
1441.000,15.137,-54.688,11.719,35.156,0.000
1445.000,32.227,-51.758,8.789,14.160,0.000
1449.000,34.668,-48.340,6.836,4.395,0.000
1453.000,12.695,-50.293,-0.488,12.695,0.000
1457.000,-14.160,-53.711,-4.883,18.555,0.000
1461.000,-13.672,-55.176,-4.395,9.766,0.000
1465.000,-13.672,-53.711,-3.906,4.883,0.000
1469.000,-50.781,-49.805,-3.418,21.484,0.000
1473.000,-70.801,-44.922,-0.977,23.926,0.000
1477.000,-49.316,-42.969,4.395,22.949,0.000
1480.000,-32.715,-40.039,1.953,15.137,0.000
1484.000,-20.996,-37.109,-2.930,17.090,0.000
1488.000,-21.484,-41.992,-10.254,22.949,0.000
1492.000,-12.695,-42.969,-11.719,13.184,0.000
1496.000,-8.789,-42.969,-7.812,2.930,0.000
1500.000,-33.203,-42.480,-15.137,9.766,0.000
1504.000,-34.668,-41.016,-17.090,20.508,0.000
1508.000,-30.273,-40.527,-11.230,16.113,0.000
1512.000,-22.461,-38.574,-14.648,12.695,0.000
1516.000,-24.902,-44.434,-17.578,3.418,0.000
1519.000,-30.273,-43.457,-16.113,0.977,0.000
1523.000,-21.973,-40.527,-20.508,0.000,0.000
1527.000,-14.160,-42.480,-18.555,-2.930,0.000
1531.000,-0.977,-39.551,-12.207,3.418,0.000
1535.000,-8.789,-39.062,-16.602,2.441,0.000
1539.000,-8.301,-38.086,-19.043,4.395,0.000
1543.000,5.371,-38.086,-15.137,0.977,0.000
1547.000,-3.906,-40.527,-18.555,-4.883,0.000
1551.000,-13.184,-41.504,-21.973,-3.906,0.000
1555.000,-27.344,-43.945,-20.020,-6.836,0.000
1559.000,-38.086,-37.109,-19.531,-15.137,0.000
1562.000,-29.297,-32.715,-21.973,-20.020,0.000
1566.000,-20.508,-37.598,-22.461,-15.625,0.000
1570.000,-18.555,-39.062,-20.020,-10.254,0.000
1574.000,-38.574,-30.762,-20.996,-6.348,0.000
1578.000,-49.805,-32.715,-23.438,0.000,0.000
1582.000,-39.062,-40.039,-15.625,5.859,0.000
1586.000,-34.668,-39.551,-13.184,-4.395,0.000
1590.000,-24.902,-36.621,-18.066,-15.137,0.000
1594.000,-4.395,-32.715,-19.531,-18.555,0.000
1598.000,-8.301,-35.156,-17.578,-19.043,0.000
1602.000,-20.020,-32.227,-18.066,-10.742,0.000
1605.000,-19.043,-29.785,-22.461,-17.090,0.000
1609.000,-9.277,-32.715,-28.320,-20.020,0.000
1613.000,-20.996,-34.668,-29.785,-18.555,0.000
1617.000,-22.949,-34.668,-27.832,-16.602,0.000
1621.000,-16.113,-33.203,-23.438,3.418,0.000
1625.000,-30.273,-35.156,-25.391,9.277,0.000
1629.000,-30.273,-39.551,-31.250,-1.465,0.000
1633.000,-21.973,-41.504,-31.250,-13.672,0.000
1637.000,-34.180,-39.062,-32.715,-14.648,0.000
1641.000,-45.898,-34.180,-33.203,-13.184,0.000
1644.000,-47.852,-34.180,-25.391,-16.602,0.000
1648.000,-44.434,-36.621,-21.973,-16.113,0.000
1652.000,-46.387,-39.062,-28.320,-22.461,0.000
1656.000,-49.316,-42.969,-34.668,-26.855,0.000
1660.000,-41.504,-41.504,-34.180,-31.738,0.000
1664.000,-30.762,-39.551,-33.203,-25.391,0.000
1668.000,-29.785,-37.109,-31.250,-19.531,0.000
1672.000,-34.668,-33.203,-26.367,-25.391,0.000
1676.000,-37.109,-43.457,-24.414,-30.762,0.000
1680.000,-19.531,-49.316,-27.344,-15.625,0.000
1684.000,-5.371,-39.062,-29.785,-11.719,0.000
1687.000,-7.812,-29.297,-36.621,-35.645,0.000
1691.000,-15.137,-26.855,-44.922,-48.340,0.000
1695.000,-26.367,-26.855,-45.410,-53.223,0.000
1699.000,-41.992,-24.902,-44.922,-50.781,0.000
1703.000,-51.758,-18.555,-50.293,-42.969,0.000
1707.000,-54.688,-4.883,-55.176,-40.527,0.000
1711.000,-62.012,8.789,-54.688,-32.715,0.000
1715.000,-68.359,10.742,-61.035,-43.457,0.000
1719.000,-64.453,10.742,-60.547,-51.270,0.000
1723.000,-58.594,21.484,-60.059,-54.199,0.000
1726.000,-55.664,21.973,-66.895,-62.988,0.000
1730.000,-46.875,20.020,-70.801,-69.336,0.000
1734.000,-45.898,26.367,-70.312,-70.312,0.000
1738.000,-65.430,30.762,-71.777,-69.336,0.000
1742.000,-63.965,36.133,-71.777,-72.266,0.000
1746.000,-68.359,38.086,-73.730,-75.684,0.000
1750.000,-66.406,36.621,-77.148,-77.637,0.000
1754.000,-62.012,36.621,-77.637,-79.102,0.000
1758.000,-68.359,40.527,-79.590,-88.867,0.000
1762.000,-70.801,48.828,-80.566,-97.656,0.000
1766.000,-64.941,48.340,-81.055,-92.285,0.000
1769.000,-54.688,46.875,-82.520,-86.426,0.000
1773.000,-60.059,44.434,-84.473,-82.520,0.000
1777.000,-63.965,41.992,-81.543,-80.566,0.000
1781.000,-58.105,42.969,-82.031,-77.148,0.000
1785.000,-63.477,43.945,-80.566,-79.590,0.000
1789.000,-68.848,45.410,-75.684,-74.219,0.000
1793.000,-65.918,39.551,-77.148,-77.148,0.000
1797.000,-62.012,36.621,-81.543,-78.125,0.000
1801.000,-59.082,34.180,-84.961,-84.473,0.000
1805.000,-64.453,26.367,-88.379,-96.191,0.000
1809.000,-63.477,20.020,-87.402,-94.727,0.000
1812.000,-53.223,19.531,-79.590,-83.496,0.000
1816.000,-31.738,19.531,-74.707,-68.359,0.000
1820.000,-24.902,12.695,-74.219,-70.801,0.000
1824.000,-40.039,4.395,-73.242,-79.102,0.000
1828.000,-51.270,1.465,-75.195,-70.312,0.000
1832.000,-42.969,0.000,-68.359,-62.988,0.000
1836.000,-34.668,-2.441,-58.594,-58.594,0.000
1840.000,-28.809,-5.371,-58.594,-51.270,0.000
1844.000,-25.391,-10.254,-61.035,-55.664,0.000
1848.000,-41.992,-12.207,-60.059,-41.992,0.000
1851.000,-45.410,-9.766,-57.129,-33.203,0.000
1855.000,-39.062,-9.277,-53.223,-37.109,0.000
1859.000,-33.691,-14.160,-51.758,-36.133,0.000
1863.000,-29.785,-14.160,-51.270,-28.320,0.000
1867.000,-37.109,-12.695,-46.387,-28.809,0.000
1871.000,-44.434,-16.113,-39.551,-30.273,0.000
1875.000,-49.805,-18.555,-41.992,-32.227,0.000
1879.000,-60.059,-21.973,-46.875,-30.762,0.000
1883.000,-75.195,-23.926,-41.992,-22.461,0.000
1887.000,-72.754,-20.996,-37.598,-21.484,0.000
1891.000,-68.848,-18.066,-35.156,-22.949,0.000
1894.000,-62.500,-15.137,-33.691,-19.043,0.000
1898.000,-36.621,-13.184,-28.809,-8.789,0.000
1902.000,-30.273,-13.184,-24.902,2.441,0.000
1906.000,-38.574,-16.602,-31.250,2.930,0.000
1910.000,-31.250,-19.043,-31.250,-10.742,0.000
1914.000,-20.996,-16.113,-33.203,-12.207,0.000
1918.000,-23.438,-12.207,-36.621,-5.371,0.000
1922.000,-26.367,-8.301,-40.039,-10.254,0.000
1926.000,-17.578,-12.207,-40.527,-15.137,0.000
1930.000,-11.230,-16.113,-39.062,-22.461,0.000
1934.000,-10.742,-9.277,-36.621,-32.227,0.000
1937.000,-11.719,-7.324,-29.297,-22.461,0.000
1941.000,-26.855,-11.230,-28.320,-12.207,0.000
1945.000,-25.391,-11.719,-28.809,-17.090,0.000
1949.000,-18.066,-13.184,-30.762,-18.555,0.000
1953.000,-15.137,-18.555,-30.273,-20.508,0.000
1957.000,-23.438,-23.926,-29.785,-32.715,0.000
1961.000,-47.852,-20.996,-32.227,-33.691,0.000
1965.000,-67.871,-22.949,-35.156,-36.133,0.000
1969.000,-74.219,-31.250,-39.062,-41.016,0.000
1973.000,-69.336,-30.273,-41.016,-41.992,0.000
1976.000,-68.359,-26.855,-45.898,-34.180,0.000
1980.000,-64.453,-29.297,-43.945,-37.109,0.000
1984.000,-69.336,-29.785,-41.016,-33.691,0.000
1988.000,-69.824,-29.297,-39.551,-31.250,0.000
1992.000,-55.176,-29.785,-40.527,-36.133,0.000
1996.000,-43.457,-24.902,-37.598,-20.020,0.000
2000.000,-37.109,-24.902,-38.086,-17.090,0.000
2004.000,-33.691,-29.785,-44.922,-24.902,0.000
2008.000,-35.645,-29.785,-41.992,-20.996,0.000
2012.000,-29.785,-29.785,-37.598,-17.578,0.000
2016.000,-30.762,-29.297,-35.645,-19.043,0.000
2019.000,-25.879,-27.832,-31.738,-14.648,0.000
2023.000,-8.301,-28.320,-33.203,-11.719,0.000
2027.000,-10.254,-28.320,-34.180,-15.137,0.000
2031.000,-5.371,-24.414,-28.320,-7.324,0.000
2035.000,5.859,-18.066,-25.879,0.488,0.000
2039.000,9.766,-16.602,-27.832,2.441,0.000
2043.000,-11.719,-20.996,-26.367,6.348,0.000
2047.000,-42.969,-22.949,-20.996,2.441,0.000
2051.000,-30.762,-22.949,-20.996,2.930,0.000
2055.000,0.488,-24.902,-21.973,0.488,0.000
2059.000,3.906,-23.926,-22.461,-11.719,0.000
2062.000,-32.715,-21.973,-22.949,-12.207,0.000
2066.000,-63.477,-24.902,-19.531,0.977,0.000
2070.000,-63.965,-30.762,-26.855,-0.977,0.000
2074.000,-47.363,-28.320,-27.832,-7.812,0.000
2078.000,-40.527,-19.531,-21.973,-1.465,0.000
2082.000,-32.715,-16.113,-24.414,4.883,0.000
2086.000,-26.367,-20.508,-25.879,-1.953,0.000
2090.000,-32.227,-24.902,-33.203,-17.090,0.000
2094.000,-28.320,-24.902,-38.086,-17.578,0.000
2098.000,-22.949,-20.508,-36.133,-21.973,0.000
2101.000,-30.273,-20.996,-36.621,-33.203,0.000
2105.000,-37.109,-20.996,-37.598,-38.574,0.000
2109.000,-26.855,-15.137,-37.598,-38.574,0.000
2113.000,-20.020,-12.207,-35.645,-39.062,0.000
2117.000,-27.344,-12.695,-35.645,-36.133,0.000
2121.000,-26.855,-19.043,-40.527,-30.762,0.000
2125.000,-27.344,-19.531,-39.551,-26.367,0.000
2129.000,-40.527,-19.531,-39.551,-31.250,0.000
2133.000,-22.949,-21.973,-46.387,-39.062,0.000
2137.000,13.672,-19.043,-46.875,-26.367,0.000
2141.000,13.672,-20.996,-38.086,-17.090,0.000
2144.000,-14.648,-27.344,-31.250,-39.551,0.000
2148.000,-33.203,-39.062,-29.785,-39.062,0.000
2152.000,-46.875,-46.875,-24.902,-22.461,0.000
2156.000,-62.500,-52.734,-22.461,-14.160,0.000
2160.000,-76.172,-57.129,-18.555,-7.324,0.000
2164.000,-59.570,-59.082,-17.578,-4.395,0.000
2168.000,-44.922,-65.430,-18.066,8.301,0.000
2172.000,-39.551,-65.430,-12.695,14.648,0.000
2176.000,-40.527,-60.547,-8.301,17.090,0.000
2180.000,-56.641,-66.406,-6.348,17.578,0.000
2184.000,-61.035,-74.707,-3.906,7.812,0.000
2187.000,-49.805,-72.754,-0.977,12.695,0.000
2191.000,-33.203,-71.777,-1.953,17.578,0.000
2195.000,-29.297,-77.148,1.953,13.672,0.000
2199.000,-22.949,-79.590,8.789,25.391,0.000
2203.000,-24.902,-78.125,9.766,26.367,0.000
2207.000,-36.133,-79.102,14.160,12.695,0.000
2211.000,-21.973,-75.195,19.531,19.043,0.000
2215.000,-1.953,-74.707,18.555,35.156,0.000
2219.000,6.348,-81.055,15.625,32.227,0.000
2223.000,24.414,-81.543,19.043,22.949,0.000
2226.000,45.410,-76.660,18.555,16.113,0.000
2230.000,-7.812,-80.566,20.020,22.949,0.000
2234.000,-49.805,-82.520,21.484,34.180,0.000
2238.000,9.277,-77.148,15.137,34.668,0.000
2242.000,45.410,-73.730,14.160,23.438,0.000
2246.000,45.410,-65.918,23.438,26.855,0.000
2250.000,-9.277,-67.871,24.414,51.270,0.000
2254.000,-70.312,-75.684,25.879,66.406,0.000
2258.000,-86.914,-73.242,28.320,59.570,0.000
2262.000,-67.383,-66.406,25.879,65.918,0.000
2266.000,-46.387,-67.871,20.020,75.195,0.000
2269.000,-34.180,-69.824,18.066,71.289,0.000
2273.000,-30.273,-65.430,17.578,55.176,0.000
2277.000,-27.832,-63.477,10.254,40.039,0.000
2281.000,-18.066,-63.477,9.766,42.969,0.000
2285.000,-23.438,-64.941,7.812,22.461,0.000
2289.000,-22.461,-67.871,0.488,0.488,0.000
2293.000,-1.465,-61.523,6.348,7.324,0.000
2297.000,-3.906,-57.617,10.742,10.742,0.000
2301.000,-13.184,-62.988,7.812,5.371,0.000
2305.000,-9.277,-60.059,5.859,2.441,0.000
2309.000,-10.742,-60.059,-1.465,-7.812,0.000
2312.000,-11.719,-61.035,-6.348,-11.719,0.000
2316.000,-13.672,-62.012,-2.930,-1.465,0.000
2320.000,-13.672,-59.082,-5.859,3.418,0.000
2324.000,-10.254,-53.711,-4.883,6.836,0.000
2328.000,-9.277,-51.758,2.441,12.695,0.000
2332.000,-11.230,-50.781,-2.930,17.090,0.000
2336.000,-13.184,-53.223,-5.371,9.766,0.000
2340.000,-5.859,-55.176,-1.465,12.695,0.000
2344.000,-0.488,-53.223,-8.301,13.672,0.000
2348.000,-13.672,-55.664,-10.254,-0.488,0.000
2351.000,-17.578,-60.059,-6.836,4.883,0.000
2355.000,-18.555,-51.758,-5.859,21.973,0.000
2359.000,-28.320,-47.363,-4.395,19.043,0.000
2363.000,-24.902,-51.270,-3.906,3.906,0.000
2367.000,-22.461,-49.316,-7.812,-4.395,0.000
2371.000,-17.578,-47.852,-9.277,-3.418,0.000
2375.000,-14.648,-46.875,-5.859,3.906,0.000
2379.000,-42.969,-43.457,-3.418,5.371,0.000
2383.000,-58.105,-42.969,-9.766,0.488,0.000
2387.000,-42.480,-46.875,-8.789,10.254,0.000
2391.000,-33.691,-45.898,-6.348,4.395,0.000
2394.000,-39.062,-45.898,-12.207,-14.160,0.000
2398.000,-32.227,-42.969,-12.695,-14.160,0.000
2402.000,-25.391,-43.457,-12.207,-14.648,0.000
2406.000,-26.367,-46.387,-19.043,-28.320,0.000
2410.000,-35.156,-48.340,-20.508,-23.438,0.000
2414.000,-47.852,-48.340,-20.508,-15.137,0.000
2418.000,-48.340,-49.316,-24.414,-12.695,0.000
2422.000,-41.992,-49.805,-26.855,-14.160,0.000
2426.000,-56.641,-54.199,-31.738,-28.809,0.000
2430.000,-51.270,-53.223,-30.273,-25.879,0.000
2434.000,-36.133,-45.410,-25.391,-20.508,0.000
2437.000,-48.828,-49.316,-29.297,-27.344,0.000
2441.000,-50.293,-50.293,-32.227,-30.762,0.000
2445.000,-37.109,-42.969,-30.762,-36.621,0.000
2449.000,-44.434,-40.527,-34.668,-37.598,0.000
2453.000,-47.363,-40.527,-39.551,-41.504,0.000
2457.000,-18.066,-38.574,-38.086,-45.898,0.000
2461.000,-0.977,-34.668,-38.086,-48.828,0.000
2465.000,25.391,-32.227,-35.645,-46.387,0.000
2469.000,27.832,-39.551,-30.273,-32.227,0.000
2473.000,-66.895,-46.387,-24.902,-25.879,0.000
2476.000,-102.539,-44.922,-20.996,-22.949,0.000
2480.000,-85.938,-40.039,-19.043,-22.949,0.000
2484.000,-82.031,-36.133,-27.832,-26.855,0.000
2488.000,-66.895,-34.180,-28.809,-23.438,0.000
2492.000,-58.105,-31.250,-27.344,-22.461,0.000
2496.000,-49.316,-30.762,-33.203,-25.879,0.000
2500.000,-40.039,-30.762,-33.203,-20.508,0.000
2504.000,-39.062,-31.738,-33.203,-21.973,0.000
2508.000,-37.598,-30.273,-29.785,-19.531,0.000
2512.000,-31.250,-29.297,-24.902,-22.949,0.000
2516.000,-32.227,-32.715,-26.855,-20.508,0.000
2519.000,-32.715,-30.273,-28.320,-12.207,0.000
2523.000,-24.414,-27.832,-27.832,-18.555,0.000
2527.000,-21.973,-28.809,-28.320,-22.461,0.000
2531.000,-19.043,-26.855,-28.809,-19.043,0.000
2535.000,-18.555,-25.879,-29.785,-22.949,0.000
2539.000,-3.906,-26.855,-33.691,-23.438,0.000
2543.000,23.438,-23.926,-26.367,-22.461,0.000
2547.000,40.039,-22.461,-18.066,-14.648,0.000
2551.000,3.906,-23.926,-20.996,-9.766,0.000
2555.000,-32.227,-29.297,-21.973,-10.742,0.000
2558.000,-23.438,-36.133,-23.438,-15.625,0.000
2562.000,-17.090,-39.062,-26.855,-23.926,0.000
2566.000,-37.109,-35.156,-25.391,-8.301,0.000
2570.000,-58.594,-31.738,-25.879,6.836,0.000
2574.000,-52.734,-32.715,-21.973,6.348,0.000
2578.000,-43.945,-26.367,-19.531,9.766,0.000
2582.000,-36.621,-25.879,-21.484,18.066,0.000
2586.000,-25.391,-24.414,-25.391,11.719,0.000
2590.000,-22.461,-20.508,-30.273,4.395,0.000
2594.000,-22.949,-22.461,-27.832,-8.789,0.000
2598.000,-20.996,-27.344,-32.227,-15.625,0.000
2601.000,-18.066,-33.691,-39.551,-5.859,0.000
2605.000,-1.953,-27.832,-35.645,5.859,0.000
2609.000,-7.324,-13.672,-44.922,-15.625,0.000
2613.000,-20.020,-14.648,-51.270,-43.457,0.000
2617.000,-32.227,-20.508,-49.316,-49.316,0.000
2621.000,-37.598,-13.672,-51.758,-44.434,0.000
2625.000,-27.832,-4.883,-55.176,-49.316,0.000
2629.000,-36.133,-0.977,-58.105,-72.754,0.000
2633.000,-43.457,2.441,-58.594,-70.801,0.000
2637.000,-34.180,10.742,-58.594,-63.965,0.000
2641.000,-29.785,15.137,-59.082,-75.684,0.000
2644.000,-41.992,8.301,-62.500,-84.961,0.000
2648.000,-58.594,5.859,-66.895,-88.379,0.000
2652.000,-76.660,13.184,-65.430,-81.055,0.000
2656.000,-80.078,18.555,-64.453,-69.336,0.000
2660.000,-87.402,20.996,-68.848,-77.637,0.000
2664.000,-105.957,21.973,-70.801,-90.820,0.000
2668.000,-94.727,24.414,-69.824,-85.938,0.000
2672.000,-88.867,27.344,-72.754,-80.566,0.000
2676.000,-85.938,28.320,-79.102,-95.215,0.000
2680.000,-67.871,29.297,-82.520,-96.191,0.000
2683.000,-61.523,31.738,-82.031,-83.008,0.000
2687.000,-65.918,34.668,-83.984,-84.961,0.000
2691.000,-60.547,33.691,-85.938,-92.773,0.000
2695.000,-51.270,35.645,-81.055,-85.449,0.000
2699.000,-57.129,36.621,-76.172,-76.172,0.000
2703.000,-58.594,33.203,-76.660,-66.406,0.000
2707.000,-61.523,28.809,-77.637,-85.938,0.000
2711.000,-51.758,23.438,-78.125,-89.355,0.000
2715.000,-40.527,20.996,-81.543,-84.473,0.000
2719.000,-35.645,21.973,-81.543,-95.215,0.000
2723.000,-38.086,17.578,-81.543,-90.332,0.000
2726.000,-37.109,18.555,-76.172,-73.242,0.000
2730.000,-34.180,12.695,-73.730,-66.895,0.000
2734.000,-30.762,5.371,-75.195,-71.289,0.000
2738.000,-21.973,7.812,-72.266,-64.453,0.000
2742.000,-14.648,13.184,-66.406,-61.035,0.000
2746.000,-16.602,8.789,-61.523,-57.129,0.000
2750.000,-26.855,0.977,-61.035,-40.039,0.000
2754.000,-40.039,-2.441,-65.430,-42.969,0.000
2758.000,-49.316,-7.324,-70.801,-53.223,0.000
2762.000,-55.664,-7.812,-63.965,-44.922,0.000
2766.000,-73.730,-6.348,-62.012,-37.598,0.000
2769.000,-81.055,-6.836,-62.988,-37.598,0.000
2773.000,-69.336,-12.695,-58.105,-37.109,0.000
2777.000,-62.012,-17.090,-56.641,-41.992,0.000
2781.000,-48.828,-15.625,-52.246,-41.992,0.000
2785.000,-44.434,-16.602,-55.176,-46.387,0.000
2789.000,-51.270,-18.066,-61.523,-42.969,0.000
2793.000,-50.293,-16.113,-58.105,-39.062,0.000
2797.000,-38.574,-9.766,-52.734,-47.852,0.000
2801.000,-43.457,-10.254,-52.734,-40.039,0.000
2805.000,-46.875,-10.742,-57.129,-40.527,0.000
2808.000,-37.598,-12.207,-55.664,-45.898,0.000
2812.000,-34.668,-12.695,-49.805,-39.062,0.000
2816.000,-15.625,-4.883,-44.922,-24.902,0.000
2820.000,-2.441,-3.418,-42.480,-19.043,0.000
2824.000,-14.160,-9.277,-40.527,-17.090,0.000
2828.000,-21.484,-12.207,-38.574,-19.043,0.000
2832.000,-21.484,-14.160,-39.062,-20.508,0.000
2836.000,-23.438,-16.113,-37.109,-8.301,0.000
2840.000,-26.367,-19.531,-39.551,-8.301,0.000
2844.000,-21.484,-18.066,-40.527,-27.344,0.000
2848.000,-17.578,-14.648,-33.203,-20.508,0.000
2851.000,-41.504,-19.531,-30.273,-10.254,0.000
2855.000,-55.176,-20.508,-33.203,-17.578,0.000
2859.000,-38.086,-14.160,-33.203,-9.766,0.000
2863.000,-51.270,-13.672,-31.738,-3.906,0.000
2867.000,-62.012,-20.020,-33.203,-16.113,0.000
2871.000,-50.293,-19.531,-39.551,-24.414,0.000
2875.000,-41.992,-16.602,-44.434,-23.438,0.000
2879.000,-38.086,-15.137,-41.016,-28.809,0.000
2883.000,-38.574,-14.160,-33.203,-34.668,0.000
2887.000,-34.668,-15.625,-33.691,-25.879,0.000
2891.000,-30.273,-17.578,-35.645,-26.367,0.000
2894.000,-31.250,-19.531,-35.156,-37.109,0.000
2898.000,-34.180,-22.949,-35.156,-30.762,0.000
2902.000,-31.738,-25.879,-34.180,-26.855,0.000
2906.000,-33.203,-25.391,-35.156,-27.344,0.000
2910.000,-26.367,-24.414,-35.645,-24.414,0.000
2914.000,-11.230,-23.438,-36.133,-42.480,0.000
2918.000,-28.320,-25.879,-35.645,-44.434,0.000
2922.000,-38.086,-22.949,-31.250,-28.809,0.000
2926.000,-26.367,-22.461,-32.227,-18.066,0.000
2930.000,-23.438,-25.391,-37.598,-28.809,0.000
2933.000,-20.508,-22.949,-37.598,-41.016,0.000
2937.000,-20.020,-23.926,-36.621,-29.785,0.000
2941.000,-41.504,-29.785,-35.156,-19.043,0.000
2945.000,-72.754,-27.832,-29.785,-15.625,0.000
2949.000,-73.242,-23.926,-29.785,-13.184,0.000
2953.000,-63.477,-27.832,-32.715,-8.789,0.000
2957.000,-59.570,-33.691,-36.133,-9.766,0.000
2961.000,-48.340,-34.180,-36.133,-16.602,0.000
2965.000,-41.504,-31.738,-33.691,-13.672,0.000
2969.000,-42.480,-27.344,-29.785,-18.066,0.000
2973.000,-37.109,-23.438,-24.414,-20.020,0.000
2976.000,-29.785,-21.484,-22.949,-21.973,0.000
2980.000,-30.273,-23.926,-23.926,-30.273,0.000
2984.000,-34.180,-23.926,-20.996,-22.461,0.000
2988.000,-29.785,-30.762,-24.414,-10.742,0.000
2992.000,-32.715,-37.109,-27.344,-21.484,0.000
2996.000,-32.715,-32.715,-25.879,-32.715,0.000
3000.000,-20.508,-27.344,-28.809,-24.414,0.000
3004.000,-31.738,-27.344,-28.320,-16.113,0.000
3008.000,-45.410,-31.738,-30.762,-23.438,0.000
3012.000,-49.805,-35.645,-34.668,-25.391,0.000
3016.000,-30.762,-36.133,-34.180,-18.555,0.000
3019.000,-16.113,-38.574,-34.180,-28.320,0.000
3023.000,-36.621,-34.668,-34.180,-30.762,0.000
3027.000,-77.148,-30.273,-30.273,-20.020,0.000
3031.000,-74.707,-36.621,-26.855,-17.090,0.000
3035.000,-56.641,-36.621,-33.203,-21.973,0.000
3039.000,-51.270,-27.344,-33.691,-20.996,0.000
3043.000,-37.598,-23.926,-28.320,-26.855,0.000
3047.000,-29.297,-23.438,-34.180,-18.066,0.000
3051.000,-23.438,-18.066,-34.180,5.371,0.000
3055.000,-11.719,-16.602,-23.926,7.812,0.000
3058.000,-27.832,-24.902,-22.461,-15.625,0.000
3062.000,-40.527,-34.668,-27.344,-31.738,0.000
3066.000,-21.973,-31.738,-22.461,-16.113,0.000
3070.000,-9.766,-26.367,-15.137,7.324,0.000
3074.000,-17.578,-32.227,-13.672,6.836,0.000
3078.000,-24.902,-42.480,-17.090,3.418,0.000
3082.000,-21.484,-50.293,-18.555,11.230,0.000
3086.000,-18.066,-52.734,-16.113,12.207,0.000
3090.000,-10.742,-53.223,-15.137,12.207,0.000
3094.000,7.812,-48.340,-9.277,20.508,0.000
3098.000,-0.977,-53.711,-4.395,11.230,0.000
3101.000,-24.902,-68.359,-12.207,22.461,0.000
3105.000,-29.785,-71.289,-15.137,39.551,0.000
3109.000,-26.367,-66.895,-4.883,26.367,0.000
3113.000,-0.488,-63.477,8.301,35.645,0.000
3117.000,-0.488,-67.383,4.883,48.340,0.000
3121.000,-11.230,-76.660,4.883,41.016,0.000
3125.000,-9.766,-75.195,6.348,28.809,0.000
3129.000,-18.555,-79.102,6.836,17.090,0.000
3133.000,-13.672,-83.984,6.836,31.738,0.000
3137.000,-18.555,-80.566,12.207,30.762,0.000
3141.000,-16.602,-78.613,20.508,18.555,0.000
3144.000,-3.418,-76.172,15.625,22.461,0.000
3148.000,1.953,-72.754,4.883,22.461,0.000
3152.000,4.395,-69.336,4.395,30.762,0.000
3156.000,7.324,-71.289,4.883,21.484,0.000
3160.000,18.066,-72.266,4.883,26.855,0.000
3164.000,13.184,-75.684,10.254,38.574,0.000
3168.000,13.672,-74.707,13.672,30.762,0.000
3172.000,17.090,-70.312,20.020,11.230,0.000
3176.000,18.066,-68.359,20.020,16.602,0.000
3180.000,33.691,-61.523,13.672,25.879,0.000
3183.000,5.371,-64.453,8.789,34.180,0.000
3187.000,-48.828,-63.965,10.742,49.316,0.000
3191.000,-40.527,-58.105,6.348,36.133,0.000
3195.000,-11.230,-59.082,2.930,36.621,0.000
3199.000,-5.859,-62.012,6.836,50.293,0.000
3203.000,-10.742,-58.105,10.742,40.039,0.000
3207.000,-5.371,-53.223,12.207,29.785,0.000
3211.000,-4.395,-51.758,10.742,47.363,0.000
3215.000,-5.371,-47.363,10.742,42.969,0.000
3219.000,-5.371,-44.434,9.766,21.973,0.000
3223.000,-4.883,-49.316,5.859,31.738,0.000
3226.000,-2.441,-49.316,1.465,18.066,0.000
3230.000,0.977,-44.922,0.977,3.418,0.000
3234.000,5.859,-45.898,-0.977,14.648,0.000
3238.000,2.441,-40.039,-3.906,14.160,0.000
3242.000,5.859,-31.738,-3.906,12.207,0.000
3246.000,17.578,-44.434,-0.488,22.461,0.000
3250.000,10.742,-50.293,-1.465,19.531,0.000
3254.000,0.000,-48.340,-0.488,15.625,0.000
3258.000,2.441,-46.875,-0.488,4.395,0.000
3262.000,0.488,-43.457,-2.930,-2.441,0.000
3266.000,-8.301,-43.457,-4.395,2.930,0.000
3269.000,-2.441,-40.039,-2.441,8.301,0.000
3273.000,-7.324,-38.086,-7.324,8.301,0.000
3277.000,-19.531,-40.039,-5.859,-0.488,0.000
3281.000,-23.926,-37.598,0.977,1.953,0.000
3285.000,-33.203,-43.945,-0.977,6.348,0.000
3289.000,-40.039,-45.898,-4.395,-5.371,0.000
3293.000,-32.715,-43.945,-5.859,-12.695,0.000
3297.000,-28.320,-43.945,-2.441,-15.625,0.000
3301.000,-38.086,-39.551,-5.859,-19.531,0.000
3305.000,-45.898,-43.945,-14.160,-29.785,0.000
3308.000,-30.273,-44.434,-14.160,-20.508,0.000
3312.000,-22.949,-34.668,-18.066,-5.371,0.000
3316.000,-45.898,-39.062,-20.508,1.465,0.000
3320.000,-41.504,-46.875,-23.438,4.395,0.000
3324.000,-23.438,-42.969,-21.484,-3.906,0.000
3328.000,-16.602,-38.086,-21.973,-12.207,0.000
3332.000,-16.602,-34.668,-24.902,-2.930,0.000
3336.000,-13.672,-31.250,-24.902,8.789,0.000
3340.000,-13.184,-28.320,-25.879,-2.441,0.000
3344.000,-11.719,-27.832,-26.367,-7.324,0.000
3348.000,-14.160,-28.320,-28.320,-16.602,0.000
3351.000,-16.113,-29.785,-30.273,-13.184,0.000
3355.000,6.836,-24.414,-28.809,0.000,0.000
3359.000,8.789,-26.855,-23.438,-9.766,0.000
3363.000,-11.719,-30.273,-21.484,-22.461,0.000
3367.000,-31.250,-27.832,-25.391,-7.324,0.000
3371.000,-29.297,-23.926,-19.043,3.418,0.000
3375.000,-15.625,-25.391,-18.555,-5.859,0.000
3379.000,-16.602,-30.273,-27.832,-14.160,0.000
3383.000,-24.414,-31.738,-22.949,-7.812,0.000
3387.000,-41.016,-29.785,-20.996,-2.441,0.000
3391.000,-56.152,-25.879,-22.949,0.000,0.000
3394.000,-47.852,-24.414,-20.020,-1.465,0.000
3398.000,-41.016,-25.879,-22.461,0.000,0.000
3402.000,-48.340,-32.227,-28.320,2.930,0.000
3406.000,-37.109,-29.785,-26.367,-7.324,0.000
3410.000,-38.574,-29.785,-27.832,-15.625,0.000
3414.000,-38.086,-38.574,-32.715,-12.207,0.000
3418.000,-35.156,-37.109,-26.367,-18.555,0.000
3422.000,-29.785,-30.762,-22.461,-11.230,0.000
3426.000,-20.996,-27.344,-23.438,-1.953,0.000
3430.000,-13.672,-25.391,-21.973,-7.324,0.000
3433.000,-12.695,-29.297,-25.391,-2.441,0.000
3437.000,-30.762,-31.738,-20.996,-8.301,0.000
3441.000,-32.715,-31.738,-23.926,-23.926,0.000
3445.000,-34.180,-34.180,-28.320,-22.949,0.000
3449.000,-37.109,-35.156,-26.367,-22.949,0.000
3453.000,-26.367,-33.203,-30.762,-27.832,0.000
3457.000,-27.344,-34.668,-32.715,-28.320,0.000
3461.000,-23.926,-36.621,-33.203,-34.668,0.000
3465.000,-12.695,-36.133,-34.668,-42.480,0.000
3469.000,-13.184,-35.156,-33.691,-33.691,0.000
3473.000,-16.113,-31.250,-35.156,-28.320,0.000
3476.000,-29.785,-28.320,-31.738,-30.762,0.000
3480.000,-54.688,-34.668,-33.203,-25.391,0.000
3484.000,-65.430,-35.645,-34.668,-24.414,0.000
3488.000,-54.199,-36.133,-31.250,-31.250,0.000
3492.000,-42.480,-43.457,-33.691,-22.949,0.000
3496.000,-16.602,-33.691,-32.227,-0.488,0.000
3500.000,-17.578,-22.949,-44.434,-12.207,0.000
3504.000,-55.664,-22.949,-53.711,-30.273,0.000
3508.000,-71.289,-19.531,-52.246,-37.109,0.000
3512.000,-63.477,-15.625,-54.199,-42.969,0.000
3515.000,-66.895,-11.230,-54.199,-48.828,0.000
3519.000,-64.941,-8.789,-57.617,-44.922,0.000
3523.000,-63.965,-7.324,-58.594,-55.664,0.000
3527.000,-76.660,-3.418,-63.965,-89.844,0.000
3531.000,-70.312,4.883,-65.918,-83.496,0.000
3535.000,-53.711,9.277,-62.988,-66.406,0.000
3539.000,-63.965,8.789,-66.406,-80.566,0.000
3543.000,-63.477,15.625,-69.336,-85.938,0.000
3547.000,-61.523,18.066,-73.242,-88.867,0.000
3551.000,-71.289,18.555,-81.055,-103.027,0.000
3555.000,-68.359,26.855,-77.637,-86.914,0.000
3558.000,-60.547,33.203,-77.148,-87.402,0.000
3562.000,-60.547,31.250,-89.844,-114.258,0.000
3566.000,-62.500,31.738,-89.355,-109.863,0.000
3570.000,-72.266,30.762,-84.961,-93.262,0.000
3574.000,-75.684,33.203,-88.379,-86.426,0.000
3578.000,-61.035,35.156,-85.449,-90.332,0.000
3582.000,-30.762,37.598,-82.031,-88.867,0.000
3586.000,-15.625,42.480,-82.520,-83.496,0.000
3590.000,-26.367,41.992,-80.566,-89.355,0.000
3594.000,-49.316,39.551,-79.102,-79.590,0.000
3598.000,-79.590,40.527,-79.102,-72.266,0.000
3601.000,-71.777,42.969,-79.590,-70.801,0.000
3605.000,-63.965,38.086,-78.125,-79.590,0.000
3609.000,-56.641,34.180,-76.172,-84.473,0.000
3613.000,-41.992,27.832,-82.031,-78.613,0.000
3617.000,-45.410,24.414,-84.473,-74.707,0.000
3621.000,-45.410,17.090,-80.566,-73.242,0.000
3625.000,-33.691,11.230,-78.125,-68.848,0.000
3629.000,-29.297,15.137,-78.125,-62.012,0.000
3633.000,-32.227,7.812,-74.707,-56.641,0.000
3637.000,-34.668,0.000,-72.266,-51.270,0.000
3640.000,-33.691,-2.441,-71.289,-51.270,0.000
3644.000,-28.320,-0.488,-64.941,-43.457,0.000
3648.000,-24.414,4.395,-58.594,-31.738,0.000
3652.000,-17.578,2.441,-53.711,-39.062,0.000
3656.000,-20.996,-4.395,-53.711,-47.363,0.000
3660.000,-24.414,-8.301,-55.664,-56.152,0.000
3664.000,-17.090,-5.371,-56.641,-56.641,0.000
3668.000,-23.926,-1.465,-52.734,-46.875,0.000
3672.000,-27.344,-1.465,-45.410,-40.527,0.000
3676.000,-18.555,0.488,-41.016,-36.621,0.000
3680.000,-21.484,-3.906,-45.898,-43.457,0.000
3683.000,-33.203,-14.648,-46.875,-37.109,0.000
3687.000,-51.758,-16.602,-41.504,-23.926,0.000
3691.000,-57.129,-13.672,-42.480,-22.949,0.000
3695.000,-40.039,-14.648,-43.945,-40.039,0.000
3699.000,-32.227,-13.672,-43.457,-41.992,0.000
3703.000,-40.527,-16.113,-42.969,-26.367,0.000
3707.000,-37.598,-18.066,-41.504,-25.391,0.000
3711.000,-21.973,-13.184,-43.457,-36.621,0.000
3715.000,-19.531,-15.625,-43.457,-26.855,0.000
3719.000,-26.855,-20.996,-39.062,-13.184,0.000
3723.000,-33.203,-18.555,-38.574,-20.996,0.000
3726.000,-42.480,-18.555,-38.574,-30.273,0.000
3730.000,-28.320,-24.414,-35.645,-31.738,0.000
3734.000,-22.949,-19.043,-35.156,-31.250,0.000
3738.000,-32.715,-17.090,-41.504,-34.180,0.000
3742.000,-43.457,-26.367,-41.016,-42.969,0.000
3746.000,-38.086,-26.855,-36.133,-37.109,0.000
3750.000,-22.461,-19.531,-33.203,-22.949,0.000
3754.000,-34.180,-22.461,-39.062,-22.461,0.000
3758.000,-31.250,-26.367,-41.016,-32.227,0.000
3762.000,-18.066,-24.902,-36.621,-49.316,0.000
3765.000,-20.020,-22.461,-39.062,-41.016,0.000
3769.000,-23.438,-22.949,-36.133,-28.809,0.000
3773.000,-31.250,-28.809,-36.621,-34.668,0.000
3777.000,-40.527,-22.949,-36.133,-30.762,0.000
3781.000,-41.992,-17.578,-32.227,-21.973,0.000
3785.000,-38.574,-20.020,-28.809,-18.555,0.000
3789.000,-44.922,-19.531,-29.297,-17.090,0.000
3793.000,-51.758,-20.508,-32.227,-30.762,0.000
3797.000,-59.570,-23.438,-35.156,-35.645,0.000
3801.000,-56.152,-26.367,-39.062,-26.855,0.000
3805.000,-42.480,-24.414,-36.621,-29.785,0.000
3808.000,-53.711,-22.461,-31.250,-33.203,0.000
3812.000,-60.547,-25.879,-36.133,-34.668,0.000
3816.000,-46.875,-25.391,-37.109,-33.203,0.000
3820.000,-29.297,-23.438,-35.645,-38.574,0.000
3824.000,-31.250,-20.020,-40.039,-45.410,0.000
3828.000,-38.574,-18.066,-36.621,-39.062,0.000
3832.000,-40.039,-22.949,-34.180,-32.227,0.000
3836.000,-39.062,-21.973,-29.785,-20.508,0.000
3840.000,-23.926,-16.602,-28.809,-20.020,0.000
3844.000,-14.648,-20.508,-30.273,-36.621,0.000
3848.000,-23.926,-20.996,-21.484,-32.715,0.000
3851.000,-34.668,-17.578,-19.531,-19.043,0.000
3855.000,-41.016,-23.438,-28.809,-16.113,0.000
3859.000,-49.316,-28.320,-31.738,-25.879,0.000
3863.000,-43.457,-24.902,-32.227,-21.973,0.000
3867.000,-40.527,-24.414,-34.668,-19.531,0.000
3871.000,-38.574,-24.902,-33.203,-15.137,0.000
3875.000,-40.039,-23.926,-34.180,-23.926,0.000
3879.000,-45.898,-28.320,-31.250,-30.273,0.000
3883.000,-39.062,-24.902,-27.832,-18.555,0.000
3887.000,-34.668,-20.020,-27.832,-25.391,0.000
3890.000,-37.109,-22.949,-34.668,-28.320,0.000
3894.000,-34.668,-22.949,-36.621,-24.902,0.000
3898.000,-36.133,-23.926,-31.738,-20.020,0.000
3902.000,-50.293,-29.785,-29.297,-21.973,0.000
3906.000,-46.875,-26.367,-32.715,-28.809,0.000
3910.000,-36.133,-18.066,-31.738,-24.414,0.000
3914.000,-33.203,-22.461,-33.691,-22.949,0.000
3918.000,-28.320,-25.879,-37.598,-19.043,0.000
3922.000,-29.785,-22.461,-33.203,-22.461,0.000
3926.000,-25.879,-19.043,-31.738,-23.438,0.000
3930.000,-16.602,-21.484,-34.668,-29.785,0.000
3933.000,-8.789,-19.043,-37.598,-21.484,0.000
3937.000,-6.348,-19.043,-34.668,-9.277,0.000
3941.000,-8.789,-20.020,-30.762,-15.137,0.000
3945.000,-23.438,-20.508,-35.156,-27.344,0.000
3949.000,-31.250,-20.020,-36.133,-29.785,0.000
3953.000,-25.879,-14.160,-35.156,-14.648,0.000
3957.000,-24.414,-12.207,-38.086,-10.742,0.000
3961.000,-27.344,-16.113,-33.691,-8.301,0.000
3965.000,-21.484,-17.578,-35.645,-10.254,0.000
3969.000,-2.930,-16.602,-41.992,5.371,0.000
3973.000,2.441,-14.648,-36.133,15.625,0.000
3976.000,-24.902,-21.973,-26.855,-19.531,0.000
3980.000,-43.457,-31.738,-31.250,-39.551,0.000
3984.000,-28.809,-31.250,-27.344,-16.113,0.000
3988.000,-20.508,-27.344,-14.648,8.301,0.000
3992.000,-24.414,-41.504,-16.113,0.488,0.000
3996.000,-19.531,-53.223,-21.484,-1.953,0.000
4000.000,-19.531,-52.734,-14.160,3.418,0.000
4004.000,-22.949,-55.176,-5.859,1.953,0.000
4008.000,-25.879,-61.035,-3.906,3.906,0.000
4012.000,-18.066,-63.965,-2.441,4.395,0.000
4015.000,0.000,-67.383,0.977,16.602,0.000
4019.000,5.859,-66.895,9.766,22.949,0.000
4023.000,-8.301,-67.871,11.230,29.785,0.000
4027.000,-21.484,-73.242,8.301,32.715,0.000
4031.000,-9.277,-75.195,1.953,35.645,0.000
4035.000,0.000,-76.660,-1.953,33.691,0.000
4039.000,6.348,-77.148,6.836,31.250,0.000
4043.000,13.184,-77.148,13.184,41.504,0.000
4047.000,15.625,-82.031,4.883,43.945,0.000
4051.000,18.555,-77.148,7.324,45.410,0.000
4055.000,24.902,-73.242,20.508,50.781,0.000
4058.000,11.230,-74.707,21.973,42.480,0.000
4062.000,-22.461,-75.684,17.090,50.293,0.000
4066.000,-21.973,-80.078,9.277,53.223,0.000
4070.000,-10.254,-79.590,2.441,45.410,0.000
4074.000,-14.648,-76.172,2.930,41.016,0.000
4078.000,-13.184,-74.707,9.277,32.715,0.000
4082.000,-6.836,-68.848,9.766,34.668,0.000
4086.000,1.465,-65.430,11.719,38.574,0.000
4090.000,5.371,-62.988,16.602,36.133,0.000
4094.000,3.906,-58.594,12.695,33.203,0.000
4098.000,4.883,-55.664,4.395,26.855,0.000
4101.000,-4.883,-60.059,9.277,26.367,0.000
4105.000,-3.906,-62.012,16.602,19.043,0.000
4109.000,-1.465,-56.152,9.277,21.973,0.000
4113.000,-7.324,-59.570,1.465,9.277,0.000
4117.000,-11.230,-62.988,4.395,1.465,0.000
4121.000,-16.113,-62.500,-1.465,3.906,0.000
4125.000,-16.113,-57.617,-4.395,3.418,0.000
4129.000,-4.883,-53.711,0.000,4.395,0.000
4133.000,3.906,-55.664,-0.488,0.977,0.000
4137.000,-2.441,-54.688,0.977,9.766,0.000
4140.000,-11.719,-52.246,6.348,20.508,0.000
4144.000,-15.625,-49.316,5.859,13.184,0.000
4148.000,-4.395,-44.434,0.000,-4.883,0.000
4152.000,8.789,-41.992,-4.883,-7.812,0.000
4156.000,23.438,-39.062,-7.812,1.953,0.000
4160.000,-3.906,-41.016,-9.766,-1.465,0.000
4164.000,-64.941,-45.898,-5.859,8.301,0.000
4168.000,-62.988,-47.363,-2.930,20.508,0.000
4172.000,-54.688,-47.852,-7.324,8.301,0.000
4176.000,-45.410,-41.992,-11.230,3.906,0.000
4180.000,-33.203,-40.039,-9.766,-10.254,0.000
4183.000,-41.016,-37.598,-12.695,-18.066,0.000
4187.000,-31.738,-40.039,-11.719,-8.301,0.000
4191.000,-21.484,-42.969,-12.695,-20.996,0.000
4195.000,-30.273,-41.016,-15.137,-35.645,0.000
4199.000,-35.156,-42.969,-10.742,-26.855,0.000
4203.000,-31.738,-41.016,-9.277,-7.324,0.000
4207.000,-32.715,-41.992,-8.789,-9.766,0.000
4211.000,-29.297,-41.016,-9.277,-15.625,0.000
4215.000,-26.367,-41.016,-10.254,-15.137,0.000
4219.000,-32.715,-44.434,-11.719,-19.043,0.000
4223.000,-23.438,-37.598,-14.160,-18.555,0.000
4226.000,-25.879,-33.691,-15.137,-18.066,0.000
4230.000,-27.344,-35.156,-17.090,-25.879,0.000
4234.000,-13.672,-30.273,-14.160,-24.414,0.000
4238.000,-17.578,-31.738,-15.625,-17.090,0.000
4242.000,-24.414,-33.691,-18.066,-12.695,0.000
4246.000,-25.391,-32.715,-17.578,-11.719,0.000
4250.000,-39.062,-32.715,-23.926,-20.996,0.000
4254.000,-44.434,-33.203,-24.414,-11.230,0.000
4258.000,-48.340,-37.598,-22.461,-2.930,0.000
4262.000,-51.270,-33.203,-22.461,-12.207,0.000
4265.000,-47.852,-30.762,-21.484,-13.672,0.000
4269.000,-51.758,-38.086,-24.414,-9.277,0.000
4273.000,-51.758,-39.551,-27.344,-13.672,0.000
4277.000,-40.527,-33.203,-26.367,-20.508,0.000
4281.000,-38.574,-31.250,-27.832,-17.090,0.000
4285.000,-36.621,-32.227,-32.715,-16.602,0.000
4289.000,-35.156,-34.668,-28.809,-19.043,0.000
4293.000,-38.086,-36.133,-26.855,-19.043,0.000
4297.000,-37.109,-32.715,-31.250,-20.020,0.000
4301.000,-37.109,-33.203,-34.180,-6.348,0.000
4305.000,-31.738,-30.273,-31.250,-15.137,0.000
4308.000,-26.367,-26.855,-31.250,-31.738,0.000
4312.000,-27.344,-28.809,-35.645,-26.855,0.000
4316.000,-26.855,-28.320,-32.715,-27.832,0.000
4320.000,-20.996,-25.879,-30.273,-20.020,0.000
4324.000,-20.508,-25.391,-28.320,-10.254,0.000
4328.000,-29.785,-29.297,-26.855,-10.742,0.000
4332.000,-41.016,-36.133,-29.785,-10.742,0.000
4336.000,-38.574,-36.621,-30.273,-9.277,0.000
4340.000,-30.273,-31.738,-25.879,-15.137,0.000
4344.000,-31.250,-27.832,-25.391,-25.391,0.000
4347.000,-37.109,-28.320,-26.367,-28.320,0.000
4351.000,-26.367,-31.250,-22.949,-4.395,0.000
4355.000,-20.996,-28.809,-20.508,19.043,0.000
4359.000,-32.227,-15.625,-30.762,0.000,0.000
4363.000,-52.734,-16.602,-40.527,-20.020,0.000
4367.000,-66.406,-21.973,-42.480,-38.086,0.000
4371.000,-58.594,-14.648,-48.340,-49.316,0.000
4375.000,-60.059,-4.883,-50.781,-50.781,0.000
4379.000,-66.406,0.000,-54.199,-65.430,0.000
4383.000,-60.547,0.000,-56.641,-70.801,0.000
4387.000,-57.617,-0.488,-61.523,-65.430,0.000
4390.000,-71.289,-0.488,-64.941,-71.777,0.000
4394.000,-77.637,8.301,-64.453,-80.078,0.000
4398.000,-68.359,10.254,-63.477,-80.566,0.000
4402.000,-62.500,10.742,-67.383,-74.707,0.000
4406.000,-56.641,13.184,-76.172,-80.566,0.000
4410.000,-45.410,13.672,-74.707,-87.402,0.000
4414.000,-36.133,15.137,-73.242,-86.426,0.000
4418.000,-32.715,16.113,-82.520,-96.191,0.000
4422.000,-40.527,15.137,-83.008,-96.680,0.000
4426.000,-61.523,15.137,-77.148,-89.355,0.000
4430.000,-76.172,14.648,-83.008,-85.938,0.000
4433.000,-76.660,18.066,-83.008,-74.219,0.000
4437.000,-77.148,21.484,-84.961,-80.078,0.000
4441.000,-79.590,23.926,-90.332,-88.379,0.000
4445.000,-80.566,26.855,-83.984,-83.984,0.000
4449.000,-77.148,21.973,-78.125,-79.102,0.000
4453.000,-63.965,27.344,-79.102,-75.195,0.000
4457.000,-73.730,26.855,-81.055,-90.820,0.000
4461.000,-74.219,22.461,-78.125,-96.191,0.000
4465.000,-59.082,23.926,-76.660,-83.496,0.000
4469.000,-50.293,22.949,-77.148,-73.242,0.000
4472.000,-44.434,18.555,-75.195,-69.336,0.000
4476.000,-39.062,18.066,-75.195,-64.453,0.000
4480.000,-27.344,17.578,-74.219,-56.152,0.000
4484.000,-31.738,12.207,-70.312,-47.363,0.000
4488.000,-33.691,14.648,-70.312,-44.434,0.000
4492.000,-17.578,15.137,-65.430,-41.504,0.000
4496.000,-20.996,7.812,-60.547,-39.551,0.000
4500.000,-20.996,7.324,-56.641,-36.621,0.000
4504.000,-15.625,6.836,-50.781,-37.109,0.000
4508.000,-26.367,2.441,-52.246,-45.410,0.000
4512.000,-23.926,0.488,-53.711,-44.434,0.000
4515.000,-20.996,2.930,-51.270,-34.180,0.000
4519.000,-19.531,3.906,-50.293,-29.785,0.000
4523.000,-22.949,-1.465,-52.734,-35.156,0.000
4527.000,-33.691,-2.930,-56.152,-38.086,0.000
4531.000,-23.438,0.977,-54.688,-32.715,0.000
4535.000,-27.832,-4.395,-49.805,-20.996,0.000
4539.000,-37.598,-11.719,-47.852,-16.113,0.000
4543.000,-21.484,-11.230,-41.992,-11.230,0.000
4547.000,-13.184,-7.812,-36.621,-3.418,0.000
4551.000,-25.879,-9.766,-42.480,-25.879,0.000
4555.000,-43.457,-12.695,-46.387,-42.969,0.000
4558.000,-46.875,-8.789,-46.875,-31.250,0.000
4562.000,-48.340,-5.371,-50.293,-41.504,0.000
4566.000,-51.270,-5.859,-47.363,-42.969,0.000
4570.000,-45.410,-10.254,-47.363,-40.527,0.000
4574.000,-30.762,-8.301,-52.734,-41.504,0.000
4578.000,-29.297,-7.812,-52.246,-27.832,0.000
4582.000,-31.250,-8.789,-54.199,-35.645,0.000
4586.000,-29.297,-7.812,-48.340,-40.039,0.000
4590.000,-28.809,-11.719,-39.551,-32.227,0.000
4594.000,-33.691,-8.301,-38.574,-25.879,0.000
4597.000,-32.715,-7.324,-38.086,-25.391,0.000
4601.000,-29.297,-14.648,-42.480,-35.645,0.000
4605.000,-40.039,-12.207,-47.852,-22.949,0.000
4609.000,-52.246,-14.160,-46.387,-14.648,0.000
4613.000,-37.598,-15.625,-44.922,-22.949,0.000
4617.000,-21.484,-14.648,-44.434,-22.461,0.000
4621.000,-31.250,-16.602,-44.434,-22.461,0.000
4625.000,-24.902,-16.602,-44.434,-26.367,0.000
4629.000,-15.137,-19.043,-42.969,-26.367,0.000
4633.000,-26.855,-21.484,-41.504,-30.273,0.000
4637.000,-34.668,-20.020,-42.480,-27.344,0.000
4640.000,-27.344,-16.602,-42.969,-32.715,0.000
4644.000,-21.484,-11.230,-39.551,-34.180,0.000
4648.000,-18.066,-10.742,-41.016,-22.949,0.000
4652.000,-24.414,-10.254,-39.551,-23.926,0.000
4656.000,-48.340,-10.254,-39.551,-30.762,0.000
4660.000,-52.734,-21.973,-47.363,-42.480,0.000
4664.000,-46.875,-28.809,-46.875,-47.363,0.000
4668.000,-42.969,-21.973,-41.016,-42.480,0.000
4672.000,-43.945,-25.391,-39.062,-43.457,0.000
4676.000,-43.945,-26.367,-39.062,-57.617,0.000
4680.000,-32.715,-20.508,-36.133,-56.641,0.000
4683.000,-30.273,-20.996,-33.203,-41.016,0.000
4687.000,-36.621,-22.949,-34.180,-44.434,0.000
4691.000,-39.551,-23.438,-35.645,-51.758,0.000
4695.000,-39.062,-25.879,-35.156,-46.875,0.000
4699.000,-41.504,-20.020,-30.762,-34.180,0.000
4703.000,-41.992,-17.578,-29.785,-37.109,0.000
4707.000,-38.574,-20.020,-33.203,-33.203,0.000
4711.000,-33.691,-16.602,-28.809,-28.809,0.000
4715.000,-15.137,-12.695,-25.391,-19.043,0.000
4719.000,-14.648,-14.648,-26.855,-12.207,0.000
4722.000,-24.414,-16.602,-29.785,-20.508,0.000
4726.000,-32.227,-18.066,-30.273,-19.043,0.000
4730.000,-32.715,-22.461,-27.832,-22.461,0.000
4734.000,-16.113,-21.973,-26.367,-17.578,0.000
4738.000,-14.160,-20.020,-25.879,-14.648,0.000
4742.000,-22.949,-21.973,-25.879,-24.902,0.000
4746.000,-15.137,-20.996,-28.320,-31.738,0.000
4750.000,-0.977,-17.090,-26.367,-30.273,0.000
4754.000,-5.371,-17.090,-27.832,-25.879,0.000
4758.000,-4.395,-18.066,-30.762,-29.785,0.000
4762.000,-18.066,-23.926,-32.715,-39.551,0.000
4765.000,-53.223,-21.973,-35.156,-36.621,0.000
4769.000,-67.871,-24.902,-33.691,-27.832,0.000
4773.000,-55.176,-27.344,-31.250,-26.367,0.000
4777.000,-56.152,-20.996,-28.320,-36.133,0.000
4781.000,-58.594,-21.484,-28.320,-31.250,0.000
4785.000,-52.734,-26.367,-34.668,-28.320,0.000
4789.000,-53.223,-28.809,-39.062,-36.621,0.000
4793.000,-55.664,-28.320,-36.133,-40.039,0.000
4797.000,-58.594,-25.391,-30.762,-33.691,0.000
4801.000,-58.594,-23.438,-24.902,-35.645,0.000
4805.000,-58.594,-20.996,-21.484,-32.715,0.000
4808.000,-54.688,-19.531,-24.414,-31.738,0.000
4812.000,-43.457,-24.414,-28.320,-31.250,0.000
4816.000,-51.270,-26.367,-29.297,-28.809,0.000
4820.000,-56.152,-23.926,-34.668,-30.762,0.000
4824.000,-46.387,-20.508,-33.203,-37.598,0.000
4828.000,-46.387,-24.414,-33.691,-52.246,0.000
4832.000,-45.898,-28.809,-37.598,-44.922,0.000
4836.000,-33.691,-31.738,-37.109,-31.738,0.000
4840.000,-36.133,-31.250,-32.715,-37.598,0.000
4844.000,-36.621,-24.414,-30.273,-41.016,0.000
4847.000,-23.438,-20.020,-31.738,-38.574,0.000
4851.000,-25.391,-22.461,-31.250,-35.645,0.000
4855.000,-21.973,-23.926,-36.621,-40.039,0.000
4859.000,-20.996,-21.484,-40.039,-41.992,0.000
4863.000,-22.949,-21.973,-38.086,-35.645,0.000
4867.000,-22.461,-18.555,-38.574,-31.250,0.000
4871.000,-41.016,-18.066,-39.062,-25.879,0.000
4875.000,-20.996,-19.531,-40.039,-12.695,0.000
4879.000,4.883,-19.043,-36.621,-1.465,0.000
4883.000,-22.461,-25.391,-31.250,-19.043,0.000
4887.000,-46.875,-35.156,-28.320,-27.344,0.000
4890.000,-46.875,-39.062,-24.414,-12.695,0.000
4894.000,-39.551,-39.551,-17.578,0.000,0.000
4898.000,-39.551,-41.016,-15.137,-0.977,0.000
4902.000,-37.109,-45.410,-15.137,-0.488,0.000
4906.000,-27.832,-49.316,-9.766,12.207,0.000
4910.000,-30.273,-51.270,-6.348,0.000,0.000
4914.000,-29.785,-52.246,-0.977,-0.977,0.000
4918.000,-28.320,-58.105,4.883,16.602,0.000
4922.000,-24.414,-62.500,6.348,20.508,0.000
4926.000,-19.531,-63.965,9.277,20.508,0.000
4930.000,-28.320,-68.359,9.766,5.859,0.000
4933.000,-29.297,-67.871,6.348,6.836,0.000
4937.000,-20.020,-67.871,11.230,16.113,0.000
4941.000,-15.137,-73.242,12.695,0.488,0.000
4945.000,-7.324,-73.730,6.836,-5.859,0.000
4949.000,-5.859,-78.613,7.324,6.836,0.000
4953.000,-12.695,-81.543,7.324,10.254,0.000
4957.000,-7.812,-79.590,8.789,9.277,0.000
4961.000,-5.371,-82.520,9.766,5.371,0.000
4965.000,-2.441,-80.078,8.301,5.859,0.000
4969.000,-1.953,-81.543,7.812,15.137,0.000
4972.000,-33.203,-83.496,8.789,18.066,0.000
4976.000,-59.082,-78.125,11.230,15.137,0.000
4980.000,-36.621,-71.777,14.648,26.367,0.000
4984.000,-18.555,-74.219,14.160,38.086,0.000
4988.000,-28.320,-83.008,10.254,30.762,0.000
4992.000,-32.715,-79.590,10.254,21.973,0.000
4996.000,-16.113,-76.660,9.766,35.645,0.000
5000.000,-1.953,-79.590,6.348,36.621,0.000
5004.000,-21.484,-78.613,8.789,17.578,0.000
5008.000,-20.508,-74.219,7.324,14.648,0.000
5012.000,-9.277,-68.848,5.859,14.648,0.000
5015.000,-6.348,-61.523,7.812,21.973,0.000
5019.000,-5.859,-60.547,4.883,33.691,0.000
5023.000,-9.277,-62.988,0.977,41.016,0.000
5027.000,-12.695,-65.918,-0.488,29.297,0.000
5031.000,-11.230,-64.941,0.977,24.902,0.000
5035.000,-12.695,-57.617,2.930,21.484,0.000
5039.000,-1.953,-53.223,5.371,15.625,0.000
5043.000,-0.977,-49.316,5.371,20.020,0.000
5047.000,-18.066,-49.805,2.441,6.348,0.000
5051.000,-20.508,-50.293,-0.977,-1.465,0.000
5055.000,-13.672,-51.270,-0.977,-1.953,0.000
5058.000,-8.301,-52.246,-1.465,6.348,0.000
5062.000,-5.371,-48.828,-0.977,17.090,0.000
5066.000,-7.324,-43.945,-6.836,5.371,0.000
5070.000,-4.883,-41.504,-11.230,2.930,0.000
5074.000,-11.230,-41.504,-7.324,2.441,0.000
5078.000,-19.043,-42.969,-10.742,-10.254,0.000
5082.000,-22.461,-40.527,-14.160,-5.859,0.000
5086.000,-23.926,-39.551,-6.836,21.484,0.000
5090.000,-27.344,-46.387,-8.301,18.555,0.000
5094.000,-36.621,-44.434,-12.695,6.348,0.000
5097.000,-32.715,-40.527,-9.766,8.789,0.000
5101.000,-28.809,-44.922,-5.859,6.348,0.000
5105.000,-30.762,-48.828,-1.465,2.930,0.000
5109.000,-30.762,-52.734,-0.977,5.859,0.000
5113.000,-26.855,-46.387,-1.953,7.812,0.000
5117.000,-37.598,-43.457,-3.906,5.859,0.000
5121.000,-38.086,-45.410,-10.254,-0.977,0.000
5125.000,-28.320,-41.016,-16.602,-14.160,0.000
5129.000,-30.762,-40.039,-13.672,-26.367,0.000
5133.000,-31.250,-42.480,-15.625,-17.578,0.000
5137.000,-36.133,-44.922,-21.973,-14.160,0.000
5140.000,-44.434,-44.434,-22.949,-22.949,0.000
5144.000,-40.039,-40.527,-20.996,-28.320,0.000
5148.000,-30.762,-37.109,-21.484,-37.598,0.000
5152.000,-26.855,-36.621,-20.508,-34.668,0.000
5156.000,-27.832,-40.039,-22.949,-32.227,0.000
5160.000,-15.625,-37.598,-24.414,-26.367,0.000
5164.000,-4.883,-31.738,-20.996,-14.160,0.000
5168.000,-11.230,-35.156,-19.043,-23.926,0.000
5172.000,-7.812,-37.598,-19.043,-30.762,0.000
5176.000,-10.254,-35.156,-17.090,-21.973,0.000
5179.000,-44.922,-39.062,-15.625,-12.695,0.000
5183.000,-90.332,-41.016,-18.066,3.906,0.000
5187.000,-83.496,-38.574,-19.043,-0.488,0.000
5191.000,-63.965,-34.668,-21.484,-7.812,0.000
5195.000,-49.316,-33.691,-23.926,-13.184,0.000
5199.000,-43.945,-30.762,-20.996,-8.789,0.000
5203.000,-41.504,-26.367,-22.949,-5.859,0.000
5207.000,-22.461,-27.832,-19.531,-8.789,0.000
5211.000,-18.555,-29.297,-17.578,-9.277,0.000
5215.000,-21.973,-27.344,-23.438,-15.625,0.000
5219.000,-17.090,-21.973,-20.996,-21.484,0.000
5222.000,-14.160,-21.484,-19.043,-22.949,0.000
5226.000,-24.414,-30.273,-30.273,-33.691,0.000
5230.000,-18.555,-34.180,-31.250,-39.062,0.000
5234.000,-13.184,-31.250,-27.344,-33.203,0.000
5238.000,-29.785,-31.738,-31.738,-40.039,0.000
5242.000,-22.949,-29.785,-33.691,-51.758,0.000
5246.000,-20.508,-28.809,-29.785,-40.039,0.000
5250.000,-41.016,-32.227,-30.273,-39.551,0.000
5254.000,-36.133,-29.297,-35.156,-45.898,0.000
5258.000,-31.738,-26.855,-33.691,-42.969,0.000
5262.000,-32.715,-26.367,-29.297,-42.969,0.000
5265.000,-28.809,-26.367,-27.832,-35.156,0.000
5269.000,-32.227,-28.809,-25.879,-31.738,0.000
5273.000,-30.273,-25.391,-22.461,-34.180,0.000
5277.000,-27.344,-19.043,-19.531,-35.645,0.000
5281.000,-36.621,-28.809,-20.508,-35.156,0.000
5285.000,-34.668,-29.297,-20.508,-20.020,0.000
5289.000,-29.297,-26.367,-20.508,-15.625,0.000
5293.000,-44.434,-32.227,-23.926,-26.367,0.000
5297.000,-36.621,-28.320,-21.973,-28.320,0.000
5301.000,-36.133,-28.809,-24.414,-19.043,0.000
5304.000,-46.875,-33.691,-28.320,-27.344,0.000
5308.000,-50.293,-36.133,-24.902,-33.203,0.000
5312.000,-46.387,-37.598,-26.367,-37.109,0.000
5316.000,-35.156,-36.133,-27.344,-39.062,0.000
5320.000,-24.902,-29.297,-22.949,-28.320,0.000
5324.000,-26.367,-29.785,-24.902,-31.250,0.000
5328.000,-22.949,-29.297,-26.855,-32.715,0.000
5332.000,-19.531,-22.949,-30.273,-36.133,0.000
5336.000,-18.066,-19.043,-35.645,-36.133,0.000
5340.000,-17.578,-18.066,-32.227,-32.227,0.000
5344.000,-19.531,-18.555,-29.297,-32.715,0.000
5347.000,-25.879,-24.414,-31.250,-28.809,0.000
5351.000,-26.855,-28.809,-32.715,-30.762,0.000
5355.000,-17.578,-24.902,-34.668,-29.785,0.000
5359.000,-16.113,-24.414,-32.715,-37.598,0.000
5363.000,-16.113,-35.156,-33.691,-53.223,0.000
5367.000,-15.625,-40.527,-33.691,-29.297,0.000
5371.000,-35.645,-40.527,-23.438,7.324,0.000
5375.000,-60.059,-27.832,-32.227,-12.695,0.000
5379.000,-61.035,-21.484,-44.434,-37.598,0.000
5383.000,-58.594,-20.508,-37.109,-40.039,0.000
5387.000,-66.406,-13.672,-35.645,-51.270,0.000
5390.000,-69.824,-16.602,-40.039,-61.523,0.000
5394.000,-64.453,-9.277,-45.410,-55.664,0.000
5398.000,-75.684,0.977,-46.875,-56.152,0.000
5402.000,-75.684,3.906,-49.316,-64.941,0.000
5406.000,-77.148,0.977,-61.035,-80.566,0.000
5410.000,-77.637,-2.441,-65.918,-98.145,0.000
5414.000,-63.477,8.789,-64.941,-89.355,0.000
5418.000,-69.336,12.695,-66.895,-77.637,0.000
5422.000,-70.312,12.207,-70.312,-92.773,0.000
5426.000,-61.523,17.578,-74.707,-101.074,0.000
5429.000,-59.082,15.137,-74.219,-94.238,0.000
5433.000,-57.129,16.113,-77.637,-91.309,0.000
5437.000,-61.523,22.461,-83.496,-95.215,0.000
5441.000,-50.781,25.879,-77.148,-98.145,0.000
5445.000,-41.504,29.785,-79.102,-103.027,0.000
5449.000,-46.387,35.645,-82.520,-96.680,0.000
5453.000,-46.387,32.715,-80.566,-89.355,0.000
5457.000,-48.828,33.691,-76.660,-84.961,0.000
5461.000,-49.316,41.504,-74.219,-74.707,0.000
5465.000,-45.410,39.551,-75.195,-76.660,0.000
5469.000,-50.781,38.574,-71.289,-76.660,0.000
5472.000,-45.410,41.992,-69.824,-67.871,0.000
5476.000,-19.531,44.922,-72.266,-71.777,0.000
5480.000,-9.277,42.480,-74.707,-74.707,0.000
5484.000,-33.203,37.109,-78.125,-72.754,0.000
5488.000,-45.410,32.715,-80.078,-71.777,0.000
5492.000,-44.922,27.344,-82.031,-76.172,0.000
5496.000,-40.039,30.273,-81.543,-77.637,0.000
5500.000,-32.715,26.367,-78.125,-65.430,0.000
5504.000,-33.691,18.555,-74.219,-55.176,0.000
5508.000,-22.949,18.555,-69.336,-47.363,0.000
5512.000,-16.602,14.648,-66.406,-52.734,0.000
5515.000,-23.438,14.160,-63.477,-47.852,0.000
5519.000,-27.344,10.254,-60.547,-36.621,0.000
5523.000,-20.508,3.906,-62.500,-54.199,0.000
5527.000,-20.508,2.441,-60.059,-72.266,0.000
5531.000,-22.949,2.441,-55.176,-59.570,0.000
5535.000,-16.113,0.977,-54.688,-53.711,0.000
5539.000,-11.230,-2.441,-48.340,-57.617,0.000
5543.000,-15.137,-3.906,-43.945,-51.270,0.000
5547.000,-17.578,-4.883,-47.363,-49.805,0.000
5551.000,-20.020,-2.930,-47.852,-39.062,0.000
5554.000,-24.902,-3.418,-46.387,-39.062,0.000
5558.000,-14.160,-4.395,-42.969,-47.852,0.000
5562.000,-14.160,-4.395,-37.109,-35.156,0.000
5566.000,-20.508,-3.906,-40.039,-33.691,0.000
5570.000,-27.832,-9.277,-44.434,-39.551,0.000
5574.000,-29.297,-18.066,-47.852,-35.156,0.000
5578.000,-29.785,-16.602,-42.969,-31.738,0.000
5582.000,-29.785,-11.230,-35.156,-19.043,0.000
5586.000,-26.855,-12.695,-35.645,-8.789,0.000
5590.000,-27.832,-15.137,-40.039,-8.301,0.000
5594.000,-21.484,-12.695,-42.969,-11.230,0.000
5597.000,-19.043,-8.789,-40.527,-4.883,0.000
5601.000,-19.043,-9.766,-39.062,-6.836,0.000
5605.000,-22.461,-15.137,-38.086,-20.508,0.000
5609.000,-25.391,-17.578,-38.574,-34.668,0.000
5613.000,-23.926,-15.137,-39.062,-37.598,0.000
5617.000,-24.902,-12.695,-37.109,-33.203,0.000
5621.000,-25.879,-17.578,-40.527,-30.273,0.000
5625.000,-20.996,-22.949,-41.504,-33.203,0.000
5629.000,-24.902,-20.508,-38.574,-35.156,0.000
5633.000,-20.996,-16.602,-37.598,-30.273,0.000
5637.000,-8.301,-15.137,-38.574,-33.203,0.000
5640.000,-20.996,-23.438,-41.016,-37.109,0.000
5644.000,-31.250,-27.344,-38.574,-42.480,0.000
5648.000,-35.645,-28.809,-41.016,-43.945,0.000
5652.000,-31.738,-26.855,-38.086,-35.156,0.000
5656.000,-34.180,-25.879,-35.156,-31.250,0.000
5660.000,-49.316,-25.879,-39.551,-44.434,0.000
5664.000,-45.410,-25.391,-37.109,-48.828,0.000
5668.000,-37.598,-27.832,-29.297,-32.227,0.000
5672.000,-36.133,-25.879,-24.902,-25.391,0.000
5676.000,-39.062,-21.484,-26.367,-29.297,0.000
5679.000,-41.992,-15.137,-25.879,-27.344,0.000
5683.000,-46.387,-16.602,-22.949,-26.855,0.000
5687.000,-46.875,-21.484,-23.438,-24.902,0.000
5691.000,-46.875,-22.461,-27.832,-26.367,0.000
5695.000,-54.199,-24.902,-31.250,-32.227,0.000
5699.000,-47.852,-21.973,-30.273,-32.227,0.000
5703.000,-44.434,-24.902,-23.438,-31.250,0.000
5707.000,-49.316,-27.344,-21.484,-33.691,0.000
5711.000,-42.969,-22.461,-25.879,-40.527,0.000
5715.000,-29.297,-19.531,-25.391,-42.480,0.000
5719.000,-26.367,-16.602,-25.879,-38.086,0.000
5722.000,-55.176,-19.043,-27.344,-38.574,0.000
5726.000,-62.988,-19.531,-31.250,-36.133,0.000
5730.000,-42.480,-17.578,-30.762,-39.551,0.000
5734.000,-34.180,-16.113,-31.738,-38.086,0.000
5738.000,-40.039,-17.090,-35.645,-39.551,0.000
5742.000,-52.246,-16.113,-33.203,-46.387,0.000
5746.000,-48.340,-14.648,-29.785,-40.039,0.000
5750.000,-45.410,-19.043,-32.227,-26.855,0.000
5754.000,-45.410,-20.508,-32.227,-24.414,0.000
5758.000,-45.410,-21.484,-30.762,-36.133,0.000
5762.000,-42.480,-22.949,-32.715,-37.598,0.000
5765.000,-32.227,-23.438,-33.691,-25.391,0.000
5769.000,-27.832,-22.461,-28.809,-22.949,0.000
5773.000,-34.180,-25.391,-29.785,-31.738,0.000
5777.000,-32.227,-23.926,-30.273,-30.273,0.000
5781.000,-34.180,-22.949,-26.367,-18.555,0.000
5785.000,-45.410,-24.902,-27.344,-18.066,0.000
5789.000,-41.504,-26.855,-34.668,-26.855,0.000
5793.000,-32.715,-24.902,-34.668,-25.391,0.000
5797.000,-35.156,-24.902,-28.320,-26.367,0.000
5801.000,-36.621,-26.855,-28.320,-29.297,0.000
5804.000,-27.832,-27.344,-29.785,-26.367,0.000
5808.000,-30.273,-33.203,-31.738,-29.297,0.000
5812.000,-39.062,-29.785,-28.320,-24.414,0.000
5816.000,-42.480,-26.367,-26.367,-17.090,0.000
5820.000,-42.969,-28.809,-29.297,-24.414,0.000
5824.000,-48.828,-28.809,-33.691,-41.504,0.000
5828.000,-44.434,-23.926,-29.785,-45.898,0.000
5832.000,-33.691,-25.391,-26.367,-34.668,0.000
5836.000,-18.066,-28.320,-34.668,-17.578,0.000
5840.000,-29.785,-27.344,-35.645,-21.484,0.000
5844.000,-69.824,-32.227,-24.414,-45.898,0.000
5847.000,-53.711,-30.762,-21.484,-41.016,0.000
5851.000,-23.926,-25.879,-18.555,-2.441,0.000
5855.000,-38.574,-32.227,-17.090,-12.207,0.000
5859.000,-41.016,-33.691,-15.137,-31.250,0.000
5863.000,-31.738,-37.109,-14.160,-10.254,0.000
5867.000,-35.156,-44.434,-11.230,-11.719,0.000
5871.000,-31.250,-45.898,-6.348,-18.066,0.000
5875.000,-35.156,-52.246,-9.277,-29.297,0.000
5879.000,-30.273,-57.617,-12.207,-31.738,0.000
5883.000,-21.484,-62.012,-9.277,-6.348,0.000
5887.000,-37.109,-64.453,-10.742,-3.906,0.000
5890.000,-33.691,-61.523,-8.789,-3.418,0.000
5894.000,-19.043,-62.988,-9.277,0.977,0.000
5898.000,-9.766,-64.941,-8.301,7.812,0.000
5902.000,0.488,-68.359,-0.977,12.695,0.000
5906.000,7.812,-68.359,0.000,12.695,0.000
5910.000,-25.879,-67.383,0.488,11.719,0.000
5914.000,-46.875,-66.895,7.324,21.484,0.000
5918.000,-23.438,-65.430,12.207,29.297,0.000
5922.000,-11.719,-67.871,8.789,28.809,0.000
5926.000,-11.719,-67.383,5.859,40.039,0.000
5929.000,-1.953,-70.801,10.254,35.156,0.000
5933.000,-7.324,-78.125,10.254,28.809,0.000
5937.000,-9.766,-75.195,7.812,36.621,0.000
5941.000,-3.418,-73.730,6.348,34.180,0.000
5945.000,-6.348,-73.730,6.348,33.203,0.000
5949.000,-5.371,-72.754,9.277,28.809,0.000
5953.000,2.441,-68.848,3.906,33.203,0.000
5957.000,-7.812,-66.406,-0.488,36.621,0.000
5961.000,-20.996,-69.336,-1.465,16.602,0.000
5965.000,-18.555,-71.289,1.465,16.602,0.000
5969.000,-22.949,-72.266,6.348,22.461,0.000
5972.000,-22.949,-68.359,5.371,19.043,0.000
5976.000,-30.273,-65.430,2.441,19.531,0.000
5980.000,-33.203,-67.383,-0.977,19.043,0.000
5984.000,-23.926,-67.383,2.930,28.809,0.000
5988.000,-16.602,-67.383,6.348,23.926,0.000
5992.000,-18.555,-66.406,8.789,16.602,0.000
5996.000,-24.414,-62.988,8.301,17.090,0.000
6000.000,-30.273,-56.641,8.301,20.020,0.000
6004.000,-26.367,-52.246,5.859,20.508,0.000
6008.000,-17.090,-55.176,-0.977,24.414,0.000
6012.000,-15.625,-56.641,1.953,13.672,0.000
6015.000,-18.066,-52.246,0.000,10.742,0.000
6019.000,-21.973,-49.316,-2.441,25.879,0.000
6023.000,-28.809,-50.293,3.418,20.508,0.000
6027.000,-26.855,-54.199,4.883,14.160,0.000
6031.000,-21.484,-51.758,-3.418,24.414,0.000
6035.000,-25.391,-48.828,-8.301,15.625,0.000
6039.000,-26.367,-53.223,-5.859,-15.137,0.000
6043.000,-20.996,-52.734,0.000,-21.973,0.000
6047.000,-23.438,-52.246,-8.301,-12.207,0.000
6051.000,-16.602,-49.316,-4.883,10.254,0.000
6054.000,-22.461,-46.387,2.441,1.953,0.000
6058.000,-24.414,-47.852,-12.695,-16.602,0.000
6062.000,-17.090,-44.434,-11.719,-17.090,0.000
6066.000,-20.020,-36.621,-4.395,-8.301,0.000
6070.000,-31.250,-40.527,-6.836,-1.465,0.000
6074.000,-20.508,-41.504,-5.371,5.859,0.000
6078.000,0.977,-38.086,-9.766,-0.977,0.000
6082.000,-2.441,-41.992,-10.742,-19.043,0.000
6086.000,8.789,-38.086,-8.301,-14.160,0.000
6090.000,-0.488,-34.668,-9.766,-1.465,0.000
6094.000,-65.430,-41.016,-11.719,7.324,0.000
6097.000,-78.125,-42.480,-10.254,13.672,0.000
6101.000,-55.176,-38.086,-10.254,10.742,0.000
6105.000,-41.992,-35.645,-10.742,7.324,0.000
6109.000,-47.852,-37.109,-10.254,-7.812,0.000
6113.000,-46.875,-44.922,-16.113,-20.020,0.000
6117.000,-40.039,-47.363,-21.484,-22.461,0.000
6121.000,-41.992,-41.016,-19.531,-20.020,0.000
6125.000,-33.691,-37.598,-20.508,-20.020,0.000
6129.000,-25.391,-37.598,-24.902,-24.414,0.000
6133.000,-25.879,-38.574,-21.973,-31.250,0.000
6136.000,-28.809,-39.551,-24.902,-49.316,0.000
6140.000,-30.762,-34.180,-23.438,-40.039,0.000
6144.000,-20.996,-31.250,-19.043,-32.715,0.000
6148.000,-30.762,-36.621,-18.066,-40.527,0.000
6152.000,-41.504,-37.109,-23.926,-45.410,0.000
6156.000,-24.414,-31.738,-28.809,-45.898,0.000
6160.000,-25.879,-32.715,-27.344,-31.250,0.000
6164.000,-40.527,-34.668,-28.320,-27.832,0.000
6168.000,-60.547,-39.062,-31.738,-20.996,0.000
6172.000,-64.941,-39.551,-34.180,-13.184,0.000
6176.000,-50.781,-32.715,-33.203,-23.438,0.000
6179.000,-41.504,-30.762,-31.250,-21.973,0.000
6183.000,-42.969,-31.250,-33.203,-19.043,0.000
6187.000,-54.688,-36.133,-38.086,-24.902,0.000
6191.000,-63.965,-35.645,-32.227,-19.531,0.000
6195.000,-59.570,-27.344,-24.414,-14.648,0.000
6199.000,-61.523,-27.344,-21.973,-6.836,0.000
6203.000,-58.105,-31.738,-22.949,-3.418,0.000
6207.000,-51.270,-30.273,-26.855,-12.695,0.000
6211.000,-42.480,-34.668,-29.297,-13.672,0.000
6215.000,-38.574,-38.574,-27.344,-14.160,0.000
6219.000,-35.645,-40.527,-30.762,-18.066,0.000
6222.000,-33.691,-40.527,-31.250,-32.227,0.000
6226.000,-36.621,-34.668,-31.738,-32.227,0.000
6230.000,-29.785,-35.645,-26.367,-18.066,0.000
6234.000,-32.227,-38.086,-21.973,-21.484,0.000
6238.000,-29.297,-34.180,-24.414,-24.414,0.000
6242.000,-24.902,-30.762,-28.809,-30.762,0.000
6246.000,-26.855,-34.180,-28.320,-38.086,0.000
6250.000,-25.879,-39.062,-25.391,-35.156,0.000
6254.000,-20.508,-34.180,-28.320,-31.250,0.000
6258.000,-10.742,-30.762,-25.879,-33.691,0.000
6261.000,-2.930,-34.668,-23.438,-33.691,0.000
6265.000,-21.484,-35.156,-24.414,-29.297,0.000
6269.000,-33.691,-35.156,-19.043,-13.184,0.000
6273.000,-47.363,-38.574,-18.555,-1.465,0.000
6277.000,-51.758,-37.109,-23.926,-11.719,0.000
6281.000,-34.180,-33.203,-23.926,-21.484,0.000
6285.000,-31.738,-33.203,-23.438,-24.902,0.000
6289.000,-31.250,-29.785,-21.973,-29.297,0.000
6293.000,-34.668,-30.273,-25.391,-25.391,0.000
6297.000,-29.297,-32.715,-29.785,-23.926,0.000
6301.000,-33.203,-32.227,-27.344,-23.926,0.000
6304.000,-43.457,-31.738,-31.250,-26.855,0.000
6308.000,-40.039,-27.344,-34.180,-32.715,0.000
6312.000,-45.410,-26.855,-33.691,-33.691,0.000
6316.000,-53.711,-33.203,-36.621,-33.203,0.000
6320.000,-54.199,-34.180,-36.133,-36.133,0.000
6324.000,-49.316,-31.738,-33.691,-31.250,0.000
6328.000,-36.133,-32.227,-36.133,-31.250,0.000
6332.000,-31.738,-30.273,-34.668,-32.227,0.000
6336.000,-32.227,-31.250,-33.691,-31.738,0.000
6340.000,-25.879,-28.809,-31.738,-28.809,0.000
6344.000,-28.320,-26.367,-27.344,-36.621,0.000
6347.000,-28.809,-30.273,-26.367,-41.016,0.000
6351.000,-42.480,-39.062,-25.879,-44.434,0.000
6355.000,-41.504,-40.527,-26.367,-41.016,0.000
6359.000,-28.809,-33.691,-24.902,-27.832,0.000
6363.000,-22.949,-20.508,-36.133,-32.715,0.000
6367.000,-16.602,-11.719,-43.945,-44.434,0.000
6371.000,-14.648,-14.648,-43.945,-56.641,0.000
6375.000,-40.039,-16.113,-45.410,-56.641,0.000
6379.000,-75.195,-10.742,-50.781,-58.594,0.000
6383.000,-82.520,-5.371,-58.105,-63.965,0.000
6386.000,-79.590,-5.859,-57.129,-61.523,0.000
6390.000,-73.242,-3.418,-54.199,-68.848,0.000
6394.000,-75.684,-3.418,-62.500,-82.031,0.000
6398.000,-81.055,-0.977,-66.406,-81.055,0.000
6402.000,-88.379,3.906,-61.523,-84.473,0.000
6406.000,-86.426,12.695,-63.477,-91.309,0.000
6410.000,-76.660,19.043,-69.824,-96.680,0.000
6414.000,-74.707,18.066,-73.730,-108.398,0.000
6418.000,-86.426,17.578,-77.148,-113.770,0.000
6422.000,-83.496,14.160,-76.660,-114.746,0.000
6426.000,-75.684,10.254,-73.242,-114.746,0.000
6429.000,-69.824,15.625,-73.242,-112.793,0.000
6433.000,-58.594,23.926,-73.730,-104.492,0.000
6437.000,-59.082,27.344,-72.266,-107.910,0.000
6441.000,-67.383,25.391,-73.242,-112.793,0.000
6445.000,-73.242,24.902,-78.125,-113.770,0.000
6449.000,-67.871,30.273,-81.055,-108.887,0.000
6453.000,-68.848,31.250,-83.008,-100.098,0.000
6457.000,-58.594,34.668,-80.078,-97.168,0.000
6461.000,-36.133,45.410,-76.172,-100.586,0.000
6465.000,-43.457,43.457,-75.195,-101.074,0.000
6469.000,-51.758,41.504,-75.684,-85.938,0.000
6472.000,-39.551,46.875,-75.195,-84.961,0.000
6476.000,-31.738,47.852,-67.871,-86.426,0.000
6480.000,-39.062,41.504,-66.406,-85.938,0.000
6484.000,-57.129,35.156,-70.312,-76.172,0.000
6488.000,-79.590,30.762,-68.359,-64.453,0.000
6492.000,-67.383,28.809,-73.242,-70.312,0.000
6496.000,-58.594,26.855,-69.336,-72.754,0.000
6500.000,-61.523,22.461,-63.477,-59.082,0.000
6504.000,-52.246,27.344,-67.383,-51.758,0.000
6508.000,-44.434,24.902,-71.777,-53.711,0.000
6511.000,-39.062,15.625,-63.965,-46.875,0.000
6515.000,-29.785,18.066,-54.688,-36.621,0.000
6519.000,-28.320,17.090,-57.617,-36.133,0.000
6523.000,-26.855,11.719,-58.105,-48.828,0.000
6527.000,-31.250,4.883,-60.547,-61.035,0.000
6531.000,-30.762,2.930,-59.570,-62.500,0.000
6535.000,-38.086,-0.488,-52.734,-55.664,0.000
6539.000,-40.527,0.000,-50.293,-50.293,0.000
6543.000,-40.527,1.465,-53.711,-47.852,0.000
6547.000,-44.922,-3.906,-52.734,-48.828,0.000
6551.000,-37.598,-5.859,-44.922,-39.551,0.000
6554.000,-25.391,-8.789,-42.969,-36.621,0.000
6558.000,-29.785,-9.277,-44.434,-36.133,0.000
6562.000,-44.922,-10.254,-40.527,-38.086,0.000
6566.000,-41.992,-9.766,-37.598,-41.016,0.000
6570.000,-42.969,-6.836,-36.621,-33.203,0.000
6574.000,-36.133,-10.742,-36.621,-42.969,0.000
6578.000,-21.973,-13.184,-38.086,-45.410,0.000
6582.000,-28.809,-18.066,-41.504,-35.156,0.000
6586.000,-43.457,-20.020,-41.016,-27.832,0.000
6590.000,-42.480,-15.137,-35.645,-21.973,0.000
6594.000,-30.762,-11.230,-33.203,-27.832,0.000
6597.000,-21.484,-12.207,-32.715,-28.320,0.000
6601.000,-20.996,-11.719,-39.551,-24.414,0.000
6605.000,-20.996,-10.742,-38.574,-19.531,0.000
6609.000,-31.738,-11.230,-37.109,-19.531,0.000
6613.000,-30.762,-14.648,-37.109,-18.066,0.000
6617.000,-24.414,-12.695,-26.855,-7.324,0.000
6621.000,-37.598,-15.137,-29.785,-17.090,0.000
6625.000,-40.039,-19.043,-37.598,-32.227,0.000
6629.000,-27.344,-16.113,-33.203,-28.320,0.000
6633.000,-23.926,-14.160,-28.809,-21.484,0.000
6636.000,-21.973,-16.602,-29.785,-28.809,0.000
6640.000,-8.301,-19.043,-30.762,-29.785,0.000
6644.000,6.348,-15.625,-28.320,-17.090,0.000
6648.000,6.836,-10.742,-28.320,-17.090,0.000
6652.000,1.465,-13.184,-31.738,-26.367,0.000
6656.000,-31.738,-14.160,-31.250,-24.414,0.000
6660.000,-59.082,-14.160,-26.855,-19.043,0.000
6664.000,-60.059,-19.043,-28.320,-11.719,0.000
6668.000,-63.477,-20.508,-32.715,-13.184,0.000
6672.000,-51.270,-20.996,-33.691,-22.461,0.000
6676.000,-38.574,-21.973,-30.762,-23.438,0.000
6679.000,-30.273,-22.461,-35.645,-24.902,0.000
6683.000,-28.809,-23.926,-32.227,-26.855,0.000
6687.000,-38.574,-26.855,-29.785,-28.320,0.000
6691.000,-39.062,-23.926,-31.738,-18.066,0.000
6695.000,-35.156,-24.414,-28.809,-17.090,0.000
6699.000,-33.203,-27.832,-24.414,-23.438,0.000
6703.000,-37.598,-30.762,-23.438,-26.367,0.000
6707.000,-45.410,-34.668,-27.344,-32.227,0.000
6711.000,-42.969,-31.738,-27.344,-34.668,0.000
6715.000,-38.574,-32.227,-27.832,-30.762,0.000
6719.000,-38.574,-33.203,-26.855,-29.297,0.000
6722.000,-30.273,-32.227,-23.438,-39.551,0.000
6726.000,-18.066,-30.273,-30.273,-33.691,0.000
6730.000,-20.508,-30.762,-34.668,-31.250,0.000
6734.000,-21.973,-32.227,-34.180,-29.785,0.000
6738.000,-19.043,-28.320,-32.227,-28.320,0.000
6742.000,-17.090,-26.367,-33.203,-37.598,0.000
6746.000,-9.766,-26.367,-35.156,-43.457,0.000
6750.000,-22.461,-27.832,-33.691,-43.457,0.000
6754.000,-42.969,-31.250,-29.785,-42.480,0.000
6758.000,-48.340,-32.715,-26.367,-42.480,0.000
6761.000,-54.199,-28.809,-27.832,-33.203,0.000
6765.000,-48.340,-26.367,-27.832,-22.461,0.000
6769.000,-41.504,-25.391,-25.391,-20.508,0.000
6773.000,-42.480,-21.973,-21.484,-21.973,0.000
6777.000,-50.293,-20.508,-22.949,-22.949,0.000
6781.000,-53.711,-24.414,-23.438,-15.625,0.000
6785.000,-57.129,-24.414,-23.926,-13.184,0.000
6789.000,-60.547,-23.438,-25.879,-24.902,0.000
6793.000,-60.547,-25.879,-22.949,-21.973,0.000
6797.000,-49.805,-28.320,-25.391,-20.508,0.000
6801.000,-37.598,-28.320,-19.043,-21.973,0.000
6804.000,-34.668,-25.879,-17.090,-20.508,0.000
6808.000,-33.203,-26.855,-22.949,-20.020,0.000
6812.000,-35.645,-26.855,-25.879,-24.414,0.000
6816.000,-31.738,-23.438,-31.250,-37.598,0.000
6820.000,-24.414,-27.832,-31.250,-40.527,0.000
6824.000,-18.066,-32.715,-32.227,-24.414,0.000
6828.000,4.395,-27.344,-32.715,-26.367,0.000
6832.000,17.090,-24.902,-32.715,-36.621,0.000
6836.000,3.906,-22.949,-33.203,-24.902,0.000
6840.000,-19.043,-21.973,-26.855,3.418,0.000
6844.000,-17.578,-24.414,-24.414,-13.184,0.000
6847.000,-21.973,-30.273,-28.320,-39.551,0.000
6851.000,-30.273,-35.645,-18.066,-31.250,0.000
6855.000,-23.926,-39.551,-11.719,-21.484,0.000
6859.000,-62.988,-48.340,-11.719,-3.906,0.000
6863.000,-112.305,-57.129,-9.277,-1.465,0.000
6867.000,-91.797,-57.129,-8.789,-6.836,0.000
6871.000,-68.848,-61.035,-8.301,2.441,0.000
6875.000,-65.918,-66.406,-9.277,2.441,0.000
6879.000,-61.035,-67.871,-10.254,-0.488,0.000
6883.000,-54.199,-71.777,-1.465,1.953,0.000
6886.000,-43.457,-73.242,7.812,12.695,0.000
6890.000,-32.715,-72.754,4.883,16.602,0.000
6894.000,-33.203,-77.148,-1.465,4.883,0.000
6898.000,-21.973,-75.684,0.488,20.020,0.000
6902.000,-32.227,-76.172,2.930,30.762,0.000
6906.000,-42.480,-83.008,2.930,17.578,0.000
6910.000,-21.484,-84.961,7.324,4.883,0.000
6914.000,15.625,-78.613,3.906,-0.977,0.000
6918.000,51.758,-74.707,-0.488,14.160,0.000
6922.000,90.332,-73.730,-1.465,4.395,0.000
6926.000,50.781,-74.707,1.953,-3.906,0.000
6929.000,-89.355,-81.055,11.230,19.043,0.000
6933.000,-136.230,-85.449,13.184,33.691,0.000
6937.000,-91.797,-83.496,9.766,35.156,0.000
6941.000,-66.895,-78.613,9.277,22.949,0.000
6945.000,-45.410,-74.219,9.766,22.949,0.000
6949.000,-32.227,-74.707,11.230,35.156,0.000
6953.000,-25.391,-68.359,14.160,41.992,0.000
6957.000,-3.418,-66.895,13.184,43.457,0.000
6961.000,-12.695,-73.242,11.719,26.367,0.000
6965.000,-25.879,-71.289,10.742,26.367,0.000
6968.000,-20.996,-67.383,8.789,29.297,0.000
6972.000,-20.020,-72.754,13.184,27.344,0.000
6976.000,-22.461,-72.754,13.184,29.785,0.000
6980.000,-26.855,-65.918,14.648,26.367,0.000
6984.000,-11.230,-62.988,14.648,22.461,0.000
6988.000,-9.766,-61.523,9.766,21.484,0.000
6992.000,-14.648,-60.059,10.742,22.949,0.000
6996.000,-9.766,-55.176,7.324,16.113,0.000
7000.000,-10.742,-56.152,3.906,6.348,0.000
7004.000,-10.254,-56.641,3.906,10.254,0.000
7008.000,-12.207,-55.664,1.465,3.418,0.000
7011.000,0.000,-52.246,2.441,-13.184,0.000
7015.000,8.789,-52.734,4.883,-2.441,0.000
7019.000,-6.836,-56.152,3.906,15.137,0.000
7023.000,-15.625,-49.805,3.418,14.160,0.000
7027.000,-13.672,-47.852,1.953,-0.977,0.000
7031.000,-12.207,-50.293,-1.953,-8.789,0.000
7035.000,3.906,-49.805,0.488,-6.348,0.000
7039.000,6.348,-45.898,0.488,-1.465,0.000
7043.000,-25.391,-43.457,-7.324,12.207,0.000
7047.000,-42.969,-42.969,-7.324,15.137,0.000
7051.000,-46.387,-40.039,-3.418,-0.977,0.000
7054.000,-46.387,-36.621,-13.672,0.977,0.000
7058.000,-41.016,-34.180,-16.602,5.859,0.000
7062.000,-28.809,-31.738,-2.930,8.789,0.000
7066.000,-24.902,-37.598,-4.883,17.090,0.000
7070.000,-27.344,-36.621,-11.230,17.578,0.000
7074.000,-25.879,-34.668,-14.160,-3.906,0.000
7078.000,-25.879,-38.086,-13.184,-7.324,0.000
7082.000,-28.320,-40.527,-13.184,7.324,0.000
7086.000,-26.855,-40.527,-11.719,8.789,0.000
7090.000,-18.555,-34.180,-5.371,-8.301,0.000
7093.000,-13.184,-29.297,-6.836,-26.367,0.000
7097.000,-15.137,-35.645,-10.742,-21.973,0.000
7101.000,-11.230,-37.598,-12.695,-6.836,0.000
7105.000,-0.488,-36.621,-14.160,-9.766,0.000
7109.000,4.883,-36.621,-18.555,-14.160,0.000
7113.000,-6.836,-34.180,-23.438,1.465,0.000
7117.000,-20.508,-35.645,-19.531,8.789,0.000
7121.000,-19.531,-30.762,-16.113,-2.441,0.000
7125.000,-10.742,-31.250,-19.043,-13.672,0.000
7129.000,-1.953,-40.527,-20.020,-20.020,0.000
7133.000,5.859,-30.273,-16.602,-11.719,0.000
7136.000,-11.719,-26.855,-10.254,4.395,0.000
7140.000,-30.762,-38.574,-17.578,0.977,0.000
7144.000,-42.480,-42.480,-20.020,-5.371,0.000
7148.000,-48.340,-36.621,-15.625,0.000,0.000
7152.000,-42.480,-32.715,-21.973,-2.441,0.000
7156.000,-39.062,-36.133,-21.973,-5.371,0.000
7160.000,-44.922,-40.039,-19.531,-15.137,0.000
7164.000,-41.016,-37.109,-25.391,-19.531,0.000
7168.000,-39.551,-33.203,-22.949,-5.371,0.000
7172.000,-40.039,-31.738,-18.555,-5.371,0.000
7176.000,-34.180,-31.250,-24.414,-30.762,0.000
7179.000,-27.344,-32.227,-27.344,-34.668,0.000
7183.000,-20.996,-36.133,-18.066,-25.879,0.000
7187.000,-27.344,-37.109,-18.555,-24.902,0.000
7191.000,-30.273,-35.645,-23.438,-26.855,0.000
7195.000,-19.043,-30.273,-22.949,-30.273,0.000
7199.000,-12.207,-26.855,-24.902,-20.020,0.000
7203.000,-25.879,-27.832,-22.949,-10.742,0.000
7207.000,-26.855,-24.414,-23.438,-19.531,0.000
7211.000,-20.020,-25.879,-23.926,-30.762,0.000
7215.000,-16.113,-28.809,-24.902,-28.809,0.000
7218.000,-6.348,-27.344,-29.785,-20.508,0.000
7222.000,-18.555,-28.320,-31.250,-26.367,0.000
7226.000,-24.902,-27.832,-27.344,-30.762,0.000
7230.000,-40.039,-29.785,-29.785,-21.484,0.000
7234.000,-74.219,-34.180,-31.250,-10.254,0.000
7238.000,-69.824,-31.738,-29.785,-10.254,0.000
7242.000,-44.922,-27.832,-26.855,-17.090,0.000
7246.000,-37.109,-28.809,-25.391,-18.066,0.000
7250.000,-45.410,-31.250,-24.414,-20.508,0.000
7254.000,-48.828,-26.855,-27.344,-27.832,0.000
7258.000,-50.781,-22.949,-28.320,-26.855,0.000
7261.000,-50.781,-27.832,-26.855,-34.668,0.000
7265.000,-42.480,-30.273,-33.203,-42.480,0.000
7269.000,-35.645,-29.297,-32.715,-32.227,0.000
7273.000,-41.504,-27.832,-28.809,-31.738,0.000
7277.000,-43.457,-29.297,-30.762,-42.969,0.000
7281.000,-42.480,-29.785,-26.367,-43.457,0.000
7285.000,-27.832,-32.227,-23.438,-25.391,0.000
7289.000,-10.254,-29.785,-19.043,-7.324,0.000
7293.000,-17.090,-13.184,-30.762,-27.344,0.000
7297.000,-24.902,-7.812,-41.992,-56.641,0.000
7301.000,-23.438,-11.719,-39.551,-48.340,0.000
7304.000,-16.602,-8.789,-45.410,-49.316,0.000
7308.000,-6.836,-8.301,-54.199,-65.918,0.000
7312.000,-22.949,-5.371,-53.223,-50.293,0.000
7316.000,-37.598,1.465,-50.781,-50.781,0.000
7320.000,-19.043,5.371,-56.152,-68.359,0.000
7324.000,-37.109,6.348,-59.082,-67.383,0.000
7328.000,-62.500,9.277,-56.152,-59.082,0.000
7332.000,-73.730,8.301,-60.547,-63.965,0.000
7336.000,-95.215,5.859,-69.824,-65.430,0.000
7340.000,-94.238,9.766,-71.777,-61.035,0.000
7343.000,-82.031,12.695,-73.242,-85.449,0.000
7347.000,-72.754,15.625,-71.777,-98.633,0.000
7351.000,-64.941,22.461,-71.777,-93.750,0.000
7355.000,-65.430,23.926,-75.684,-95.215,0.000
7359.000,-58.105,24.902,-76.172,-91.797,0.000
7363.000,-49.805,24.902,-75.684,-93.262,0.000
7367.000,-61.035,23.926,-80.566,-104.980,0.000
7371.000,-57.129,28.809,-78.613,-96.191,0.000
7375.000,-56.152,28.809,-78.613,-104.004,0.000
7379.000,-51.758,28.809,-83.008,-105.469,0.000
7383.000,-48.828,24.902,-84.961,-93.750,0.000
7386.000,-58.594,18.555,-86.914,-109.375,0.000
7390.000,-51.758,23.926,-83.496,-105.469,0.000
7394.000,-44.922,29.297,-79.590,-104.492,0.000
7398.000,-47.852,30.762,-77.148,-104.492,0.000
7402.000,-58.594,29.297,-78.125,-90.332,0.000
