timestamp,TP9,AF7,AF8,TP10,Right AUX
0.000,-37.598,-8.301,-16.113,-33.203,0.000
4.000,-41.016,-14.648,-12.695,-24.414,0.000
8.000,-35.156,-18.066,-15.137,-25.879,0.000
12.000,-32.715,-19.531,-18.066,-34.180,0.000
16.000,-24.414,-13.672,-15.625,-39.062,0.000
20.000,-29.785,-12.207,-5.859,-43.945,0.000
23.000,-48.828,-15.137,-1.465,-45.410,0.000
27.000,-38.086,-11.230,-3.418,-19.043,0.000
31.000,-19.043,-12.207,-6.836,-16.113,0.000
35.000,-19.531,-16.113,-5.371,-33.691,0.000
39.000,-42.480,-20.996,-5.371,-27.344,0.000
43.000,-46.875,-25.391,-8.301,-16.113,0.000
47.000,-37.598,-21.973,-6.836,-13.184,0.000
51.000,-36.133,-19.043,-10.742,-10.742,0.000
55.000,-45.898,-21.973,-11.230,-13.672,0.000
59.000,-52.734,-19.043,-3.906,-18.555,0.000
62.000,-50.293,-20.508,0.977,-16.113,0.000
66.000,-57.129,-25.391,3.418,-24.414,0.000
70.000,-61.523,-21.484,0.488,-22.461,0.000
74.000,-53.711,-20.508,-2.930,-17.578,0.000
78.000,-44.922,-22.461,-1.465,-31.250,0.000
82.000,-40.039,-20.996,-3.906,-25.391,0.000
86.000,-47.363,-23.926,-6.348,-29.785,0.000
90.000,-39.062,-25.391,-4.883,-40.039,0.000
94.000,-34.668,-28.809,-12.207,-44.434,0.000
98.000,-43.945,-33.203,-18.555,-44.434,0.000
102.000,-43.457,-26.367,-14.160,-41.992,0.000
105.000,-50.293,-26.367,-19.043,-49.316,0.000
109.000,-54.199,-31.250,-23.926,-46.387,0.000
113.000,-44.434,-30.762,-20.996,-40.527,0.000
117.000,-44.434,-31.738,-17.578,-50.293,0.000
121.000,-51.270,-33.203,-17.090,-52.246,0.000
125.000,-53.711,-33.203,-14.160,-40.039,0.000
129.000,-41.016,-30.273,-11.719,-48.340,0.000
133.000,-35.645,-30.762,-13.672,-48.340,0.000
137.000,-44.434,-28.320,-9.766,-43.457,0.000
141.000,-45.410,-28.809,-10.742,-36.133,0.000
145.000,-47.852,-29.297,-19.043,-37.598,0.000
148.000,-45.410,-24.902,-17.578,-33.691,0.000
152.000,-43.945,-22.461,-14.160,-37.109,0.000
156.000,-31.250,-21.484,-18.555,-58.594,0.000
160.000,-5.371,-22.949,-17.578,-36.133,0.000
164.000,3.418,-18.066,-5.859,-5.371,0.000
168.000,-30.762,-25.391,-2.441,-30.273,0.000
172.000,-47.852,-34.668,-3.418,-38.574,0.000
176.000,-24.414,-33.203,2.441,-35.645,0.000
180.000,-37.109,-40.039,11.230,-41.504,0.000
184.000,-56.152,-47.363,14.648,-36.133,0.000
187.000,-46.875,-51.270,14.648,-30.762,0.000
191.000,-51.758,-56.152,12.695,-16.602,0.000
195.000,-59.082,-60.059,16.113,-9.766,0.000
199.000,-52.246,-63.965,19.043,-27.344,0.000
203.000,-50.293,-66.895,22.461,-23.926,0.000
207.000,-49.316,-70.801,30.762,-8.301,0.000
211.000,-42.969,-67.871,29.785,-0.977,0.000
215.000,-41.504,-65.918,33.691,5.371,0.000
219.000,-47.852,-73.242,39.551,-3.418,0.000
223.000,-54.688,-76.660,35.156,-6.836,0.000
227.000,-57.129,-75.684,25.879,0.000,0.000
230.000,-53.711,-80.566,28.320,-16.113,0.000
234.000,-56.152,-85.449,35.645,-9.277,0.000
238.000,-58.594,-81.055,40.527,14.160,0.000
242.000,-52.246,-78.125,45.410,12.695,0.000
246.000,-54.688,-80.078,42.480,22.949,0.000
250.000,-63.477,-78.613,41.504,11.719,0.000
254.000,-69.824,-80.566,43.945,-24.902,0.000
258.000,-60.059,-77.637,43.945,-20.996,0.000
262.000,-44.434,-74.219,48.340,-7.812,0.000
266.000,-49.805,-78.125,51.758,-5.859,0.000
270.000,-74.219,-81.055,56.152,-30.762,0.000
273.000,-82.031,-84.961,58.105,-40.039,0.000
277.000,-62.988,-78.125,57.617,3.418,0.000
281.000,-65.430,-70.801,55.664,15.137,0.000
285.000,-76.660,-78.125,48.340,-12.695,0.000
289.000,-77.148,-79.102,47.852,-26.367,0.000
293.000,-70.801,-72.754,46.387,-14.160,0.000
297.000,-57.617,-70.312,43.457,-5.859,0.000
301.000,-51.758,-70.312,42.480,-12.207,0.000
305.000,-45.410,-68.359,38.086,-6.348,0.000
309.000,-43.945,-68.359,37.598,8.789,0.000
312.000,-42.969,-67.383,36.133,11.230,0.000
316.000,-33.691,-58.594,32.715,2.930,0.000
320.000,-34.180,-53.223,30.273,-1.465,0.000
324.000,-25.391,-52.246,32.715,5.371,0.000
328.000,-8.789,-49.316,33.691,14.160,0.000
332.000,-22.949,-51.270,27.344,-4.883,0.000
336.000,-34.668,-50.781,25.879,-13.672,0.000
340.000,-29.785,-54.199,20.020,-10.254,0.000
344.000,-23.926,-54.688,18.066,-3.906,0.000
348.000,-35.156,-50.781,17.090,5.371,0.000
352.000,-39.551,-48.828,6.836,-0.977,0.000
355.000,-41.016,-49.316,11.230,3.418,0.000
359.000,-33.691,-48.340,25.391,12.695,0.000
363.000,-16.113,-46.875,27.344,-1.953,0.000
367.000,-17.090,-46.387,20.020,-15.137,0.000
371.000,-13.184,-44.922,21.973,4.395,0.000
375.000,-14.160,-40.527,17.578,26.367,0.000
379.000,-32.227,-39.551,12.207,36.133,0.000
383.000,-30.273,-37.598,19.043,29.297,0.000
387.000,-28.809,-34.180,17.090,-14.160,0.000
391.000,-33.203,-40.039,14.648,-22.949,0.000
395.000,-32.715,-46.875,18.066,-13.184,0.000
398.000,-31.250,-43.945,10.742,-18.555,0.000
402.000,-30.273,-43.945,9.277,-14.160,0.000
406.000,-26.855,-41.016,13.672,-7.812,0.000
410.000,-25.879,-34.180,12.695,-8.301,0.000
414.000,-28.320,-31.250,8.789,0.488,0.000
418.000,-34.668,-34.668,13.184,13.184,0.000
422.000,-38.574,-36.621,11.719,7.812,0.000
426.000,-27.832,-37.598,6.348,4.395,0.000
430.000,-23.438,-35.156,2.930,-4.395,0.000
434.000,-24.414,-24.902,3.906,-14.648,0.000
437.000,-16.602,-22.461,1.953,-22.461,0.000
441.000,-10.254,-23.926,-5.371,-21.484,0.000
445.000,-9.766,-26.367,-7.324,-20.020,0.000
449.000,-16.602,-29.785,-9.766,-18.066,0.000
453.000,-28.809,-25.391,-11.230,-11.719,0.000
457.000,-27.344,-25.879,-8.789,-3.418,0.000
461.000,-23.438,-26.367,-5.371,-11.230,0.000
465.000,-26.855,-23.438,-6.836,-10.742,0.000
469.000,-26.855,-23.926,-4.883,-13.672,0.000
473.000,-34.180,-23.926,-5.859,-19.531,0.000
477.000,-40.039,-27.344,-8.301,-2.441,0.000
480.000,-29.297,-31.250,-6.348,3.418,0.000
484.000,-24.414,-34.668,-6.836,-15.625,0.000
488.000,-30.273,-32.227,-7.324,-24.902,0.000
492.000,-21.973,-24.902,-6.836,-27.832,0.000
496.000,-13.672,-27.832,0.000,-30.273,0.000
500.000,-13.184,-31.250,3.906,-11.719,0.000
504.000,-19.531,-28.809,0.977,-16.602,0.000
508.000,-21.484,-23.438,-3.418,-33.691,0.000
512.000,-26.367,-19.043,-3.906,-37.109,0.000
516.000,-27.344,-23.438,-8.301,-29.297,0.000
520.000,-20.996,-25.391,-10.742,-11.230,0.000
523.000,-24.414,-23.926,-5.859,-20.508,0.000
527.000,-23.438,-25.391,-6.836,-34.668,0.000
531.000,-21.973,-26.367,-5.859,-31.250,0.000
535.000,-32.715,-24.414,-4.395,-25.879,0.000
539.000,-48.340,-27.832,-8.301,-24.902,0.000
543.000,-41.016,-29.785,-8.301,-24.902,0.000
547.000,-31.250,-30.273,-13.672,-21.484,0.000
551.000,-50.781,-29.785,-13.672,-11.719,0.000
555.000,-54.688,-26.367,-11.230,-8.789,0.000
559.000,-50.293,-29.297,-14.160,-13.184,0.000
562.000,-48.828,-29.297,-8.301,-9.277,0.000
566.000,-50.781,-28.809,-9.277,-6.836,0.000
570.000,-53.711,-26.855,-13.184,-12.207,0.000
574.000,-49.316,-26.855,-8.789,-19.043,0.000
578.000,-37.109,-25.879,-8.789,-15.625,0.000
582.000,-31.738,-23.438,-10.254,-19.043,0.000
586.000,-41.992,-24.902,-7.812,-25.391,0.000
590.000,-43.945,-22.461,-6.348,-22.461,0.000
594.000,-36.621,-20.508,-6.836,-17.578,0.000
598.000,-37.598,-16.602,-5.859,-7.324,0.000
602.000,-34.180,-11.230,-6.348,-14.648,0.000
605.000,-31.738,-11.719,-6.348,-31.250,0.000
609.000,-39.062,-25.879,-3.418,-24.414,0.000
613.000,-21.973,-36.133,-9.766,-20.996,0.000
617.000,0.488,-30.273,-8.789,-10.742,0.000
621.000,-11.719,-12.207,-11.230,-12.695,0.000
625.000,-27.832,-5.859,-21.484,-26.855,0.000
629.000,-25.391,-14.648,-21.973,-37.109,0.000
633.000,-39.551,-12.207,-20.996,-52.246,0.000
637.000,-45.898,-6.348,-30.273,-62.012,0.000
641.000,-41.016,-6.348,-33.691,-75.195,0.000
645.000,-59.570,-7.812,-35.645,-83.496,0.000
648.000,-81.055,-3.906,-42.480,-92.285,0.000
652.000,-89.355,-0.977,-52.734,-106.934,0.000
656.000,-89.844,0.977,-57.617,-105.469,0.000
660.000,-83.984,6.836,-56.152,-106.445,0.000
664.000,-81.055,16.113,-58.594,-111.328,0.000
668.000,-73.730,21.484,-56.152,-114.258,0.000
672.000,-77.637,20.508,-57.129,-116.699,0.000
676.000,-87.891,20.508,-62.988,-116.699,0.000
680.000,-73.242,27.832,-62.012,-108.887,0.000
684.000,-76.660,27.344,-62.012,-115.723,0.000
687.000,-93.750,26.855,-65.430,-108.887,0.000
691.000,-83.496,33.691,-68.848,-96.680,0.000
695.000,-70.801,35.645,-70.312,-109.375,0.000
699.000,-64.941,36.133,-71.289,-121.582,0.000
703.000,-67.383,39.551,-68.848,-121.094,0.000
707.000,-73.242,40.039,-67.871,-109.863,0.000
711.000,-59.570,37.598,-67.871,-100.586,0.000
715.000,-54.199,36.621,-70.312,-94.727,0.000
719.000,-48.828,39.062,-66.406,-78.613,0.000
723.000,-43.457,41.504,-59.570,-68.359,0.000
727.000,-44.922,41.016,-59.082,-77.637,0.000
730.000,-34.668,37.598,-55.176,-78.125,0.000
734.000,-25.879,35.645,-55.176,-73.242,0.000
738.000,-23.438,34.668,-51.270,-70.312,0.000
742.000,-19.043,27.344,-45.898,-67.383,0.000
746.000,-19.043,23.926,-44.922,-68.359,0.000
750.000,-27.344,23.438,-44.922,-76.660,0.000
754.000,-24.902,22.461,-41.016,-81.055,0.000
758.000,-29.785,17.090,-36.621,-64.453,0.000
762.000,-32.227,10.742,-35.156,-46.387,0.000
766.000,-27.832,11.230,-32.715,-46.387,0.000
770.000,-33.203,10.742,-36.133,-47.363,0.000
773.000,-40.527,2.930,-38.086,-43.457,0.000
777.000,-38.574,-4.883,-36.621,-31.250,0.000
781.000,-34.180,-6.348,-35.645,-41.016,0.000
785.000,-37.109,-1.953,-29.297,-54.688,0.000
789.000,-41.992,-2.930,-20.508,-44.922,0.000
793.000,-35.156,-3.418,-18.555,-41.016,0.000
797.000,-19.531,-1.465,-19.043,-41.016,0.000
801.000,-33.691,-7.812,-20.020,-39.062,0.000
805.000,-44.434,-10.742,-20.020,-43.945,0.000
809.000,-39.062,-6.836,-18.555,-47.852,0.000
812.000,-37.109,-6.348,-22.461,-46.387,0.000
816.000,-27.344,-9.766,-20.996,-45.898,0.000
820.000,-23.926,-11.230,-19.043,-36.621,0.000
824.000,-33.203,-13.672,-16.602,-34.668,0.000
828.000,-33.203,-19.531,-20.020,-48.340,0.000
832.000,-27.832,-18.555,-21.973,-40.527,0.000
836.000,-28.809,-19.531,-17.090,-27.344,0.000
840.000,-33.203,-20.020,-11.719,-32.715,0.000
844.000,-35.645,-20.508,-13.184,-28.320,0.000
848.000,-35.156,-26.367,-13.672,-32.715,0.000
852.000,-31.738,-24.902,-11.719,-48.340,0.000
855.000,-31.250,-19.043,-6.348,-44.922,0.000
859.000,-32.715,-16.113,-2.930,-35.156,0.000
863.000,-43.457,-19.043,-6.348,-34.668,0.000
867.000,-48.828,-20.508,-0.488,-33.203,0.000
871.000,-41.992,-20.020,1.953,-20.508,0.000
875.000,-45.898,-22.461,-6.348,-18.555,0.000
879.000,-47.363,-26.367,-7.812,-32.227,0.000
883.000,-38.574,-21.484,-1.465,-29.785,0.000
887.000,-39.062,-17.578,1.953,-31.250,0.000
891.000,-40.527,-17.090,4.395,-35.645,0.000
895.000,-36.133,-19.043,2.930,-48.340,0.000
898.000,-36.133,-18.555,-0.488,-49.805,0.000
902.000,-40.039,-20.508,-1.465,-38.086,0.000
906.000,-46.875,-24.414,7.324,-31.738,0.000
910.000,-41.016,-19.043,10.742,-32.715,0.000
914.000,-30.273,-21.484,2.930,-52.734,0.000
918.000,-35.156,-25.879,-3.418,-58.594,0.000
922.000,-42.480,-21.484,-4.395,-54.688,0.000
926.000,-40.039,-18.555,-8.301,-56.152,0.000
930.000,-32.715,-20.508,-15.137,-52.734,0.000
934.000,-29.785,-18.555,-9.277,-35.156,0.000
937.000,-34.180,-15.625,-9.277,-31.738,0.000
941.000,-21.484,-14.648,-11.230,-39.551,0.000
945.000,-14.648,-12.695,-2.930,-41.992,0.000
949.000,-34.180,-14.648,0.000,-41.016,0.000
953.000,-49.316,-19.531,-6.836,-46.387,0.000
957.000,-53.223,-20.508,-6.348,-44.922,0.000
961.000,-51.758,-14.648,-7.812,-41.504,0.000
965.000,-53.711,-20.508,-13.672,-42.969,0.000
969.000,-47.363,-18.555,-11.230,-27.832,0.000
973.000,-41.016,-12.695,-11.230,-28.320,0.000
977.000,-40.039,-18.066,-17.578,-40.039,0.000
980.000,-25.879,-19.043,-19.043,-34.180,0.000
984.000,-24.414,-20.020,-17.090,-21.973,0.000
988.000,-27.344,-16.602,-14.160,-2.441,0.000
992.000,-19.043,-11.230,-7.812,-1.953,0.000
996.000,-18.066,-14.648,-6.836,-25.391,0.000
1000.000,-20.508,-19.043,-8.789,-36.133,0.000
1004.000,-28.809,-19.043,-11.230,-35.156,0.000
1008.000,-36.133,-24.414,-12.695,-41.992,0.000
1012.000,-31.738,-22.461,-10.742,-49.316,0.000
1016.000,-34.180,-20.996,-10.254,-44.434,0.000
1019.000,-39.551,-23.438,-12.695,-35.645,0.000
1023.000,-36.133,-22.949,-14.648,-37.598,0.000
1027.000,-31.250,-20.996,-15.137,-41.992,0.000
1031.000,-27.832,-24.414,-14.648,-37.598,0.000
1035.000,-26.855,-20.996,-8.301,-30.273,0.000
1039.000,-34.668,-18.555,-5.859,-43.945,0.000
1043.000,-40.039,-20.996,-4.883,-48.828,0.000
1047.000,-30.762,-17.578,-2.441,-32.227,0.000
1051.000,-19.531,-20.508,-9.277,-25.879,0.000
1055.000,-10.742,-18.555,-10.742,-11.719,0.000
1059.000,-15.137,-18.066,-0.488,-5.371,0.000
1062.000,-42.969,-26.367,8.789,-22.461,0.000
1066.000,-60.547,-37.109,6.836,-36.621,0.000
1070.000,-53.711,-42.480,5.371,-34.668,0.000
1074.000,-43.457,-42.969,15.625,-15.625,0.000
1078.000,-43.945,-45.898,21.973,-10.254,0.000
1082.000,-56.152,-56.641,20.020,-23.926,0.000
1086.000,-56.152,-62.500,17.578,-42.480,0.000
1090.000,-52.734,-63.477,18.555,-53.711,0.000
1094.000,-61.035,-69.824,21.973,-52.734,0.000
1098.000,-58.105,-68.848,21.484,-44.922,0.000
1102.000,-55.664,-71.777,22.461,-37.598,0.000
1105.000,-62.500,-73.730,26.855,-29.785,0.000
1109.000,-62.500,-72.754,29.297,-13.184,0.000
1113.000,-47.852,-74.219,34.668,-12.207,0.000
1117.000,-43.457,-72.754,34.668,-14.648,0.000
1121.000,-54.199,-80.078,31.738,-13.672,0.000
1125.000,-61.523,-85.449,29.297,-10.742,0.000
1129.000,-66.406,-84.961,30.762,-5.371,0.000
1133.000,-61.035,-85.449,37.598,3.418,0.000
1137.000,-51.270,-77.148,42.480,17.578,0.000
1141.000,-50.293,-72.754,43.457,19.043,0.000
1144.000,-45.410,-75.684,42.969,14.648,0.000
1148.000,-34.180,-76.660,39.551,6.836,0.000
1152.000,-43.945,-76.172,30.762,7.324,0.000
1156.000,-46.387,-72.754,39.551,12.207,0.000
1160.000,-40.527,-70.801,45.898,5.859,0.000
1164.000,-38.574,-70.312,38.574,0.977,0.000
1168.000,-39.062,-65.430,38.574,2.441,0.000
1172.000,-33.691,-62.012,37.598,5.371,0.000
1176.000,-24.414,-59.082,35.156,3.906,0.000
1180.000,-15.137,-53.711,37.109,-4.883,0.000
1184.000,-6.348,-50.293,38.574,3.906,0.000
1187.000,-23.438,-52.734,36.133,6.836,0.000
1191.000,-32.715,-61.035,28.320,0.488,0.000
1195.000,-25.879,-62.500,26.855,9.277,0.000
1199.000,-22.949,-56.641,28.809,9.277,0.000
1203.000,-24.414,-57.617,28.809,9.277,0.000
1207.000,-31.250,-60.547,28.320,30.273,0.000
1211.000,-20.996,-54.199,25.879,33.691,0.000
1215.000,-9.277,-49.805,32.227,19.531,0.000
1219.000,-23.438,-52.246,33.203,9.277,0.000
1223.000,-27.344,-54.199,31.738,9.277,0.000
1227.000,-29.785,-51.758,33.203,8.789,0.000
1230.000,-47.852,-46.387,28.320,4.883,0.000
1234.000,-49.316,-51.270,24.902,3.906,0.000
1238.000,-41.504,-50.781,23.926,-13.672,0.000
1242.000,-31.250,-41.504,27.344,-17.578,0.000
1246.000,-26.367,-47.852,26.855,-6.836,0.000
1250.000,-26.855,-48.340,18.555,-1.953,0.000
1254.000,-27.344,-41.992,17.578,4.395,0.000
1258.000,-23.926,-37.598,19.531,15.625,0.000
1262.000,-19.531,-40.527,16.113,7.812,0.000
1266.000,-28.809,-44.922,12.695,-7.324,0.000
1269.000,-37.109,-41.504,13.184,0.977,0.000
1273.000,-41.504,-39.062,11.719,-0.488,0.000
1277.000,-38.574,-32.715,9.277,0.977,0.000
1281.000,-29.297,-33.203,6.836,2.930,0.000
1285.000,-24.902,-34.180,12.695,-3.906,0.000
1289.000,-20.996,-25.879,14.160,9.277,0.000
1293.000,-19.043,-26.855,7.812,5.859,0.000
1297.000,-14.648,-31.250,1.465,-7.324,0.000
1301.000,-23.926,-29.785,-1.953,4.395,0.000
1305.000,-31.250,-27.344,-1.465,1.465,0.000
1309.000,-32.227,-30.762,-1.953,-14.160,0.000
1312.000,-23.438,-31.738,-1.953,-12.695,0.000
1316.000,-27.832,-30.762,3.418,-1.465,0.000
1320.000,-41.992,-32.227,2.441,-5.859,0.000
1324.000,-26.855,-29.785,1.953,-0.977,0.000
1328.000,-13.184,-24.414,7.324,19.043,0.000
1332.000,-16.602,-30.273,7.812,-2.441,0.000
1336.000,-23.926,-34.180,1.953,-40.039,0.000
1340.000,-30.762,-35.645,-1.465,-28.809,0.000
1344.000,-28.320,-41.016,-0.977,-20.020,0.000
1348.000,-19.043,-36.133,-1.953,-18.066,0.000
1352.000,-20.996,-32.227,-2.930,-11.719,0.000
1355.000,-26.855,-29.785,-1.465,-19.531,0.000
1359.000,-14.160,-24.414,2.930,-10.742,0.000
1363.000,-1.465,-26.367,2.441,-16.602,0.000
1367.000,-22.949,-30.273,-6.348,-40.039,0.000
1371.000,-39.062,-33.203,-8.301,-49.805,0.000
1375.000,-28.320,-28.809,-1.953,-44.922,0.000
1379.000,-18.066,-22.949,0.488,-37.109,0.000
1383.000,-14.648,-20.996,2.930,-34.180,0.000
1387.000,-21.973,-19.531,2.930,-18.555,0.000
1391.000,-25.879,-23.926,1.953,-12.695,0.000
1394.000,-23.926,-28.320,-4.395,-14.648,0.000
1398.000,-27.344,-26.367,-2.441,-7.812,0.000
1402.000,-35.645,-28.809,0.977,-3.906,0.000
1406.000,-27.832,-30.762,-1.465,-10.254,0.000
1410.000,-25.879,-26.855,-2.930,-16.602,0.000
1414.000,-38.574,-28.320,-3.418,-16.113,0.000
1418.000,-40.039,-25.391,2.441,-18.066,0.000
1422.000,-37.598,-24.414,5.371,-24.902,0.000
1426.000,-38.086,-25.879,0.488,-22.461,0.000
1430.000,-37.109,-24.902,-0.488,-12.695,0.000
1434.000,-38.574,-28.809,0.000,-37.598,0.000
1437.000,-41.504,-30.762,-1.465,-49.805,0.000
1441.000,-38.574,-31.738,-7.324,-39.551,0.000
1445.000,-33.691,-33.203,-10.254,-40.527,0.000
1449.000,-41.504,-30.762,-6.348,-40.039,0.000
1453.000,-41.504,-30.273,-3.418,-31.738,0.000
1457.000,-23.926,-33.691,-0.488,-17.578,0.000
1461.000,-5.859,-26.855,2.930,-0.488,0.000
1465.000,-24.902,-15.137,-12.207,-20.020,0.000
1469.000,-58.594,-17.090,-20.020,-62.012,0.000
1473.000,-62.500,-13.672,-19.043,-71.777,0.000
1477.000,-56.641,-11.230,-34.668,-79.590,0.000
1480.000,-64.453,-7.324,-40.527,-93.750,0.000
1484.000,-74.219,-5.371,-41.504,-83.984,0.000
1488.000,-79.102,-5.859,-45.410,-75.684,0.000
1492.000,-79.102,1.465,-48.340,-83.984,0.000
1496.000,-69.824,9.766,-50.293,-88.867,0.000
1500.000,-62.988,12.207,-50.781,-103.516,0.000
1504.000,-64.453,14.160,-51.758,-118.164,0.000
1508.000,-74.219,18.555,-55.176,-110.840,0.000
1512.000,-91.797,20.508,-58.105,-112.793,0.000
1516.000,-86.914,25.391,-62.012,-129.883,0.000
1519.000,-76.660,29.297,-63.965,-140.625,0.000
1523.000,-80.566,30.273,-65.918,-145.508,0.000
1527.000,-66.406,35.645,-70.312,-140.625,0.000
1531.000,-55.664,42.969,-62.988,-129.883,0.000
1535.000,-78.613,45.410,-60.547,-120.605,0.000
1539.000,-87.402,40.527,-63.477,-107.422,0.000
1543.000,-71.777,38.086,-63.965,-90.820,0.000
1547.000,-65.918,39.062,-70.312,-91.797,0.000
1551.000,-60.547,37.598,-69.824,-96.191,0.000
1555.000,-58.594,35.645,-62.988,-97.168,0.000
1559.000,-54.688,32.715,-63.477,-97.168,0.000
1562.000,-40.039,34.180,-64.941,-88.379,0.000
1566.000,-42.480,30.273,-64.453,-89.355,0.000
1570.000,-47.852,28.809,-60.547,-79.590,0.000
1574.000,-45.898,30.273,-57.129,-61.523,0.000
1578.000,-29.785,28.320,-54.688,-60.547,0.000
1582.000,-16.602,26.367,-56.641,-71.777,0.000
1586.000,-14.160,19.043,-54.199,-58.594,0.000
1590.000,-16.602,13.672,-46.387,-55.176,0.000
1594.000,-16.602,11.719,-45.898,-75.195,0.000
1598.000,-9.766,9.766,-41.016,-67.871,0.000
1602.000,-16.113,7.324,-37.109,-43.457,0.000
1605.000,-23.926,7.324,-35.156,-30.273,0.000
1609.000,-18.555,6.348,-32.715,-29.785,0.000
1613.000,-17.090,4.883,-26.855,-26.855,0.000
1617.000,-21.484,-0.977,-21.973,-20.508,0.000
1621.000,-24.414,-1.465,-20.508,-22.949,0.000
1625.000,-29.297,-2.441,-21.973,-41.016,0.000
1629.000,-34.668,-7.324,-20.020,-55.176,0.000
1633.000,-43.945,-7.812,-20.020,-47.852,0.000
1637.000,-49.805,-6.348,-21.973,-48.828,0.000
1641.000,-47.363,0.488,-17.578,-47.363,0.000
1644.000,-41.992,0.000,-14.648,-41.992,0.000
1648.000,-36.133,-4.395,-17.090,-45.410,0.000
1652.000,-39.551,-4.883,-16.113,-48.828,0.000
1656.000,-44.922,-4.883,-15.625,-48.340,0.000
1660.000,-46.875,-4.883,-16.602,-39.062,0.000
1664.000,-41.504,-5.371,-20.508,-33.691,0.000
1668.000,-44.434,-5.859,-23.926,-44.922,0.000
1672.000,-47.852,-6.348,-23.926,-47.852,0.000
1676.000,-36.621,-3.418,-23.438,-35.645,0.000
1680.000,-34.668,-7.324,-20.996,-32.715,0.000
1684.000,-39.551,-13.672,-20.508,-45.898,0.000
1687.000,-41.504,-17.090,-20.508,-46.875,0.000
1691.000,-39.551,-20.508,-21.484,-31.250,0.000
1695.000,-29.297,-14.160,-19.043,-25.879,0.000
1699.000,-32.715,-11.719,-21.973,-36.621,0.000
1703.000,-39.062,-12.207,-23.438,-39.062,0.000
1707.000,-32.715,-10.254,-24.414,-34.180,0.000
1711.000,-28.320,-13.672,-23.438,-36.621,0.000
1715.000,-37.598,-17.578,-15.137,-46.387,0.000
1719.000,-40.039,-17.578,-17.578,-49.805,0.000
1723.000,-41.504,-16.113,-18.066,-33.691,0.000
1727.000,-42.969,-16.113,-15.137,-27.832,0.000
1730.000,-44.434,-18.066,-19.043,-35.156,0.000
1734.000,-51.270,-19.043,-17.578,-41.016,0.000
1738.000,-55.176,-20.508,-16.113,-45.410,0.000
1742.000,-46.387,-19.043,-17.090,-31.738,0.000
1746.000,-35.645,-12.695,-10.742,-32.715,0.000
1750.000,-30.762,-18.066,-9.766,-41.016,0.000
1754.000,-35.645,-27.832,-10.254,-37.598,0.000
1758.000,-36.621,-29.297,-11.230,-35.156,0.000
1762.000,-30.273,-25.879,-13.184,-38.574,0.000
1766.000,-26.855,-22.949,-10.742,-46.875,0.000
1769.000,-26.855,-25.879,-11.719,-40.039,0.000
1773.000,-35.156,-29.785,-13.672,-38.574,0.000
1777.000,-37.598,-30.762,-11.230,-34.668,0.000
1781.000,-34.180,-30.762,-10.254,-25.391,0.000
1785.000,-36.621,-25.391,-7.812,-35.156,0.000
1789.000,-33.203,-23.438,-10.742,-37.598,0.000
1793.000,-29.297,-24.902,-11.230,-37.598,0.000
1797.000,-29.785,-20.508,-4.883,-35.645,0.000
1801.000,-32.227,-20.996,-5.371,-36.621,0.000
1805.000,-36.621,-20.508,-6.836,-33.203,0.000
1809.000,-36.133,-17.578,-1.953,-30.762,0.000
1812.000,-29.785,-17.578,0.977,-33.203,0.000
1816.000,-39.062,-21.973,-8.301,-34.668,0.000
1820.000,-46.387,-22.461,-10.254,-44.434,0.000
1824.000,-38.574,-18.555,-7.812,-45.898,0.000
1828.000,-33.691,-16.602,-5.859,-32.227,0.000
1832.000,-41.016,-20.020,-3.906,-34.668,0.000
1836.000,-49.805,-23.438,-4.395,-40.527,0.000
1840.000,-53.223,-25.391,-2.930,-38.086,0.000
1844.000,-59.082,-26.855,-6.348,-41.992,0.000
1848.000,-54.199,-24.414,-10.254,-55.176,0.000
1852.000,-42.480,-22.461,-8.789,-63.477,0.000
1855.000,-44.922,-22.949,-8.301,-68.848,0.000
1859.000,-50.293,-24.414,-9.277,-63.965,0.000
1863.000,-49.805,-26.855,-10.254,-52.246,0.000
1867.000,-52.734,-26.855,-12.207,-51.758,0.000
1871.000,-44.922,-18.066,-7.812,-51.758,0.000
1875.000,-38.086,-16.602,-2.441,-41.504,0.000
1879.000,-29.297,-18.066,-1.953,-33.691,0.000
1883.000,-14.648,-16.113,-5.371,-28.809,0.000
1887.000,-9.277,-14.160,-4.395,-21.484,0.000
1891.000,-25.391,-17.578,10.742,-36.133,0.000
1894.000,-37.598,-26.367,12.207,-45.898,0.000
1898.000,-41.992,-36.133,1.953,-36.621,0.000
1902.000,-45.410,-44.922,0.488,-42.969,0.000
1906.000,-51.270,-49.805,0.977,-46.387,0.000
1910.000,-50.293,-48.340,9.277,-42.480,0.000
1914.000,-42.969,-52.734,15.625,-52.734,0.000
1918.000,-36.133,-51.270,14.160,-45.410,0.000
1922.000,-41.504,-55.176,16.602,-35.156,0.000
1926.000,-49.316,-65.918,17.578,-41.504,0.000
1930.000,-48.828,-73.242,13.672,-46.875,0.000
1934.000,-49.316,-69.824,15.625,-26.367,0.000
1937.000,-47.852,-66.406,22.949,0.488,0.000
1941.000,-50.293,-72.754,25.879,-7.812,0.000
1945.000,-55.176,-75.195,23.926,-9.277,0.000
1949.000,-46.387,-74.707,21.484,8.301,0.000
1953.000,-39.551,-74.219,25.391,10.254,0.000
1957.000,-39.062,-71.777,32.715,17.578,0.000
1961.000,-37.598,-71.777,41.504,30.762,0.000
1965.000,-36.133,-69.824,41.016,34.668,0.000
1969.000,-26.855,-66.895,39.551,38.086,0.000
1973.000,-26.855,-70.801,37.598,39.062,0.000
1977.000,-24.902,-73.730,26.855,37.109,0.000
1980.000,-17.578,-71.777,24.902,19.043,0.000
1984.000,-17.090,-71.289,26.855,8.789,0.000
1988.000,-13.184,-71.777,29.297,22.949,0.000
1992.000,-6.348,-73.242,36.621,33.691,0.000
1996.000,-10.254,-72.266,33.691,16.113,0.000
2000.000,-7.812,-69.824,35.645,3.418,0.000
2004.000,-7.812,-72.266,42.480,5.859,0.000
2008.000,-13.184,-72.266,38.574,12.695,0.000
2012.000,-7.324,-62.500,31.738,22.461,0.000
2016.000,-8.789,-61.523,34.180,20.020,0.000
2019.000,-16.602,-62.012,36.621,8.301,0.000
2023.000,-6.836,-58.105,33.203,19.531,0.000
2027.000,-0.977,-57.129,31.738,38.574,0.000
2031.000,-9.277,-53.711,29.785,41.016,0.000
2035.000,-14.160,-51.270,30.762,44.434,0.000
2039.000,-27.832,-55.176,34.180,42.969,0.000
2043.000,-25.391,-54.199,27.344,27.832,0.000
2047.000,-12.207,-49.316,24.902,5.371,0.000
2051.000,-14.160,-47.852,32.715,6.348,0.000
2055.000,-23.438,-50.293,34.668,11.230,0.000
2059.000,-28.809,-54.199,32.715,-3.418,0.000
2062.000,-21.973,-48.828,26.855,-6.836,0.000
2066.000,-16.602,-49.805,27.344,-4.883,0.000
2070.000,-20.020,-54.688,25.879,-1.465,0.000
2074.000,-16.113,-49.316,23.438,8.789,0.000
2078.000,-6.836,-49.805,23.438,-5.859,0.000
2082.000,-2.930,-44.922,17.578,-29.785,0.000
2086.000,-8.789,-39.551,11.719,-24.902,0.000
2090.000,-18.066,-40.527,16.602,-11.230,0.000
2094.000,-13.184,-38.086,20.020,-5.859,0.000
2098.000,-3.906,-35.645,20.508,-2.441,0.000
2101.000,-17.090,-37.598,17.578,-5.859,0.000
2105.000,-25.391,-39.551,15.137,0.488,0.000
2109.000,-20.020,-38.574,18.066,2.930,0.000
2113.000,-18.555,-41.992,10.254,-8.789,0.000
2117.000,-26.367,-46.387,3.418,-18.066,0.000
2121.000,-27.832,-41.992,8.301,-8.789,0.000
2125.000,-18.066,-37.109,12.695,12.695,0.000
2129.000,-15.137,-36.133,13.672,11.719,0.000
2133.000,-21.973,-34.668,13.672,3.906,0.000
2137.000,-35.645,-36.621,8.301,-0.977,0.000
2141.000,-41.504,-33.203,7.324,-1.465,0.000
2144.000,-30.273,-27.344,9.766,2.930,0.000
2148.000,-24.902,-26.367,4.883,-9.766,0.000
2152.000,-32.715,-29.297,-2.441,-19.043,0.000
2156.000,-31.738,-29.297,-2.930,-19.531,0.000
2160.000,-27.344,-31.738,-0.977,-27.832,0.000
2164.000,-22.949,-30.273,0.000,-22.461,0.000
2168.000,-22.949,-24.414,-1.953,-23.926,0.000
2172.000,-28.320,-22.949,0.488,-39.062,0.000
2176.000,-29.785,-27.344,3.906,-26.367,0.000
2180.000,-29.297,-31.738,-0.488,-17.578,0.000
2184.000,-27.344,-31.250,1.953,-23.926,0.000
2187.000,-29.297,-25.391,1.953,-23.438,0.000
2191.000,-22.461,-19.043,-0.977,-14.160,0.000
2195.000,-11.719,-19.043,-0.977,-15.625,0.000
2199.000,-19.043,-21.973,-1.953,-13.184,0.000
2203.000,-26.367,-23.438,-1.465,0.000,0.000
2207.000,-26.367,-23.926,0.000,7.324,0.000
2211.000,-20.508,-24.902,-1.953,-8.301,0.000
2215.000,-17.578,-24.414,-4.883,-23.438,0.000
2219.000,-25.879,-23.438,-2.930,-25.879,0.000
2223.000,-28.320,-22.461,-4.395,-21.973,0.000
2226.000,-21.484,-21.484,-9.277,-24.902,0.000
2230.000,-19.043,-17.090,-10.254,-27.832,0.000
2234.000,-19.531,-13.184,-1.465,-17.090,0.000
2238.000,-21.484,-17.090,0.000,-22.949,0.000
2242.000,-27.344,-22.461,-0.977,-32.715,0.000
2246.000,-28.809,-20.996,-3.418,-32.227,0.000
2250.000,-36.133,-21.484,-8.301,-37.598,0.000
2254.000,-40.039,-23.438,-6.836,-39.551,0.000
2258.000,-38.086,-23.438,-11.230,-43.457,0.000
2262.000,-33.691,-21.973,-15.625,-42.969,0.000
2266.000,-35.645,-22.949,-12.695,-38.574,0.000
2269.000,-58.105,-25.391,-5.371,-35.645,0.000
2273.000,-60.059,-26.367,-4.883,-35.645,0.000
2277.000,-41.016,-25.391,-7.812,-20.508,0.000
2281.000,-41.992,-17.090,-8.301,-18.555,0.000
2285.000,-46.387,-14.160,-8.789,-32.715,0.000
2289.000,-47.852,-26.855,-4.395,-37.109,0.000
2293.000,-40.039,-31.738,-2.441,-20.020,0.000
2297.000,-18.555,-27.832,-1.465,7.324,0.000
2301.000,-25.879,-13.672,-7.812,1.953,0.000
2305.000,-58.105,-6.836,-14.160,-33.691,0.000
2309.000,-66.895,-11.230,-18.555,-58.105,0.000
2312.000,-49.316,-7.324,-22.949,-55.664,0.000
2316.000,-49.316,-4.395,-22.949,-60.547,0.000
2320.000,-61.523,-1.953,-30.273,-81.543,0.000
2324.000,-64.453,0.000,-37.598,-79.102,0.000
2328.000,-64.453,4.883,-39.062,-74.219,0.000
2332.000,-57.129,9.277,-43.457,-82.031,0.000
2336.000,-55.664,11.719,-48.340,-98.633,0.000
2340.000,-68.848,13.184,-56.641,-105.957,0.000
2344.000,-75.195,12.207,-61.523,-113.770,0.000
2348.000,-70.801,12.207,-61.523,-120.605,0.000
2351.000,-69.824,12.695,-63.965,-116.699,0.000
2355.000,-72.266,19.531,-61.523,-99.609,0.000
2359.000,-71.289,21.973,-60.059,-98.633,0.000
2363.000,-70.312,22.461,-62.012,-113.770,0.000
2367.000,-69.824,29.785,-57.617,-103.027,0.000
2371.000,-67.871,31.250,-54.199,-95.703,0.000
2375.000,-66.406,33.691,-57.129,-98.145,0.000
2379.000,-66.406,38.574,-60.547,-102.051,0.000
2383.000,-64.453,39.062,-62.500,-109.375,0.000
2387.000,-61.035,41.504,-60.059,-110.352,0.000
2391.000,-60.059,38.574,-60.547,-106.445,0.000
2394.000,-59.082,39.062,-63.965,-94.727,0.000
2398.000,-51.270,36.133,-58.594,-76.660,0.000
2402.000,-39.062,36.621,-48.340,-69.336,0.000
2406.000,-35.645,41.992,-43.457,-74.219,0.000
2410.000,-30.273,41.992,-40.039,-66.406,0.000
2414.000,-21.484,39.551,-38.086,-63.477,0.000
2418.000,-18.066,40.527,-44.922,-62.012,0.000
2422.000,-14.648,39.062,-51.270,-65.430,0.000
2426.000,-11.230,33.203,-45.410,-59.570,0.000
2430.000,-17.090,28.320,-41.504,-56.641,0.000
2434.000,-21.973,24.902,-42.969,-58.105,0.000
2437.000,-24.414,18.555,-42.969,-62.988,0.000
2441.000,-23.438,12.695,-41.992,-57.617,0.000
2445.000,-13.672,8.301,-35.156,-44.434,0.000
2449.000,-10.254,9.277,-30.273,-43.945,0.000
2453.000,-22.461,7.324,-27.832,-41.992,0.000
2457.000,-26.367,0.488,-23.926,-34.180,0.000
2461.000,-19.043,-2.441,-22.461,-33.691,0.000
2465.000,-21.484,0.488,-20.996,-41.504,0.000
2469.000,-37.109,-2.930,-23.438,-47.363,0.000
2473.000,-48.828,-5.371,-26.367,-49.805,0.000
2476.000,-43.945,-2.930,-25.879,-33.203,0.000
2480.000,-36.133,-2.441,-23.926,-22.949,0.000
2484.000,-35.645,-4.395,-22.949,-30.273,0.000
2488.000,-37.598,-4.395,-21.484,-30.762,0.000
2492.000,-42.480,-4.883,-19.531,-30.762,0.000
2496.000,-40.527,-9.766,-20.020,-40.039,0.000
2500.000,-33.691,-6.348,-17.090,-48.828,0.000
2504.000,-33.691,-5.859,-15.137,-42.969,0.000
2508.000,-35.156,-12.695,-14.160,-41.016,0.000
2512.000,-35.645,-13.672,-19.043,-49.805,0.000
2516.000,-26.367,-9.277,-19.043,-46.875,0.000
2519.000,-20.508,-4.883,-16.602,-40.039,0.000
2523.000,-25.879,-5.371,-20.020,-39.551,0.000
2527.000,-29.785,-5.859,-19.531,-40.527,0.000
2531.000,-30.762,-4.883,-21.973,-47.363,0.000
2535.000,-34.180,-4.395,-22.461,-41.504,0.000
2539.000,-31.738,-10.254,-22.461,-51.758,0.000
2543.000,-32.715,-18.555,-26.855,-59.082,0.000
2547.000,-33.203,-17.578,-24.414,-50.293,0.000
2551.000,-41.504,-15.625,-22.461,-49.316,0.000
2555.000,-44.434,-17.578,-24.414,-45.410,0.000
2559.000,-37.109,-20.996,-22.461,-44.434,0.000
2562.000,-31.250,-22.949,-23.926,-44.922,0.000
2566.000,-33.691,-22.949,-24.902,-44.922,0.000
2570.000,-40.527,-24.902,-20.508,-44.922,0.000
2574.000,-41.504,-25.391,-19.531,-39.551,0.000
2578.000,-33.691,-23.926,-18.555,-25.879,0.000
2582.000,-35.645,-30.273,-20.508,-36.133,0.000
2586.000,-43.457,-32.227,-23.438,-53.223,0.000
2590.000,-41.504,-27.344,-22.949,-49.805,0.000
2594.000,-32.715,-24.902,-18.066,-38.574,0.000
2598.000,-23.438,-23.926,-14.160,-42.969,0.000
2601.000,-21.484,-23.438,-12.207,-47.852,0.000
2605.000,-26.367,-21.973,-15.625,-44.922,0.000
2609.000,-23.926,-19.531,-15.137,-39.551,0.000
2613.000,-19.531,-20.020,-12.207,-33.203,0.000
2617.000,-18.555,-20.020,-13.672,-40.039,0.000
2621.000,-24.414,-17.578,-10.742,-46.387,0.000
2625.000,-30.273,-15.137,-11.230,-35.645,0.000
2629.000,-23.438,-18.066,-10.742,-34.668,0.000
2633.000,-18.555,-21.484,-8.301,-32.715,0.000
2637.000,-33.203,-20.508,-12.695,-21.973,0.000
2641.000,-41.016,-17.578,-9.277,-5.859,0.000
2644.000,-42.969,-19.043,-1.465,-2.441,0.000
2648.000,-48.828,-19.043,0.000,-11.230,0.000
2652.000,-46.387,-17.090,0.977,-16.113,0.000
2656.000,-37.598,-18.555,-0.977,-25.391,0.000
2660.000,-33.203,-18.066,-6.348,-21.484,0.000
2664.000,-29.297,-14.648,-8.789,-12.207,0.000
2668.000,-33.691,-17.090,-12.207,-19.531,0.000
2672.000,-39.551,-23.926,-17.578,-31.738,0.000
2676.000,-32.227,-22.949,-12.695,-17.578,0.000
2680.000,-20.508,-23.926,-11.230,-14.160,0.000
2684.000,-21.484,-24.414,-14.648,-20.020,0.000
2687.000,-30.273,-23.438,-13.672,-18.555,0.000
2691.000,-31.250,-23.438,-13.184,-19.531,0.000
2695.000,-28.320,-24.414,-12.695,-26.367,0.000
2699.000,-23.438,-23.926,-10.742,-32.227,0.000
2703.000,-26.367,-22.461,-8.301,-43.457,0.000
2707.000,-18.555,-16.602,-10.742,-41.504,0.000
2711.000,-8.301,-19.531,-15.137,-44.922,0.000
2715.000,-10.254,-25.879,-13.672,-44.434,0.000
2719.000,-16.113,-23.438,-12.695,-43.945,0.000
2723.000,-24.414,-21.484,-10.742,-37.109,0.000
2726.000,-30.273,-24.414,-6.836,-22.461,0.000
2730.000,-39.551,-29.297,-12.207,-21.973,0.000
2734.000,-42.480,-32.227,-15.137,-27.832,0.000
2738.000,-36.133,-24.414,-10.742,-29.297,0.000
2742.000,-37.109,-19.043,-11.719,-27.832,0.000
2746.000,-37.598,-23.926,-12.695,-25.879,0.000
2750.000,-37.109,-22.461,-11.719,-23.438,0.000
2754.000,-34.668,-19.043,-7.812,-23.438,0.000
2758.000,-33.203,-17.090,-8.789,-27.344,0.000
2762.000,-34.668,-19.531,-15.625,-19.043,0.000
2766.000,-26.855,-23.926,-15.625,-9.277,0.000
2769.000,-7.324,-19.043,-14.160,-2.441,0.000
2773.000,-5.371,-16.113,-8.301,3.418,0.000
2777.000,-32.715,-23.438,-5.859,-20.020,0.000
2781.000,-42.969,-27.832,-3.418,-35.645,0.000
2785.000,-26.855,-27.832,5.371,-27.832,0.000
2789.000,-25.879,-30.762,9.277,-15.625,0.000
2793.000,-30.762,-33.203,15.137,-13.184,0.000
2797.000,-34.180,-39.551,15.137,-34.180,0.000
2801.000,-48.828,-47.363,20.508,-30.273,0.000
2805.000,-60.059,-53.711,23.926,-19.531,0.000
2809.000,-56.641,-56.152,25.879,-34.668,0.000
2812.000,-56.152,-55.664,35.156,-41.992,0.000
2816.000,-63.477,-62.988,40.527,-44.434,0.000
2820.000,-69.824,-65.430,46.387,-43.457,0.000
2824.000,-67.871,-65.918,49.805,-35.156,0.000
2828.000,-66.406,-73.242,52.246,-34.180,0.000
2832.000,-86.914,-81.055,51.270,-39.551,0.000
2836.000,-92.285,-86.426,44.922,-32.227,0.000
2840.000,-83.008,-85.449,46.387,-19.531,0.000
2844.000,-69.824,-79.102,46.875,-15.625,0.000
2848.000,-56.152,-75.195,44.922,7.324,0.000
2851.000,-60.059,-75.684,50.293,10.742,0.000
2855.000,-60.059,-80.566,48.340,-4.395,0.000
2859.000,-46.875,-81.543,41.504,3.906,0.000
2863.000,-28.320,-74.707,41.504,27.344,0.000
2867.000,-25.879,-71.777,40.527,17.578,0.000
2871.000,-19.531,-73.730,40.527,18.066,0.000
2875.000,1.465,-72.266,38.086,39.062,0.000
2879.000,9.766,-66.895,39.062,44.922,0.000
2883.000,13.672,-63.965,40.527,51.758,0.000
2887.000,17.578,-69.824,39.062,58.594,0.000
2891.000,28.320,-69.824,37.598,66.895,0.000
2894.000,38.086,-66.895,40.527,69.336,0.000
2898.000,38.574,-68.359,39.062,62.012,0.000
2902.000,35.645,-68.848,39.551,62.500,0.000
2906.000,20.508,-71.289,36.133,67.871,0.000
2910.000,29.297,-68.848,38.086,72.754,0.000
2914.000,40.527,-62.012,42.480,70.312,0.000
2918.000,38.086,-58.105,38.574,66.895,0.000
2922.000,33.691,-52.246,36.133,60.547,0.000
2926.000,27.344,-53.223,33.203,66.406,0.000
2930.000,36.621,-53.711,35.645,84.961,0.000
2934.000,34.180,-50.781,35.156,86.914,0.000
2937.000,20.508,-50.293,31.738,83.008,0.000
2941.000,21.973,-46.387,29.297,73.242,0.000
2945.000,22.949,-41.016,30.762,63.965,0.000
2949.000,16.113,-35.156,29.785,65.430,0.000
2953.000,10.742,-31.250,25.879,61.523,0.000
2957.000,15.625,-27.832,20.508,46.875,0.000
2961.000,22.461,-24.902,19.531,47.363,0.000
2965.000,17.578,-28.320,16.113,39.551,0.000
2969.000,8.301,-33.203,14.160,44.434,0.000
2973.000,6.836,-35.645,12.695,33.203,0.000
2976.000,8.789,-29.297,6.836,7.324,0.000
2980.000,5.371,-32.227,5.859,5.859,0.000
2984.000,-0.977,-41.504,4.395,-0.977,0.000
2988.000,-12.207,-43.945,-0.488,-18.066,0.000
2992.000,-16.602,-42.969,-4.883,-22.461,0.000
2996.000,-8.301,-40.527,-3.418,-22.949,0.000
3000.000,-12.207,-36.621,-5.859,-36.133,0.000
3004.000,-21.973,-37.598,-4.395,-39.062,0.000
3008.000,-21.973,-40.039,-2.930,-37.109,0.000
3012.000,-20.020,-34.180,-3.418,-28.809,0.000
3016.000,-18.066,-36.133,-0.977,-20.508,0.000
3019.000,-24.902,-34.180,-3.906,-27.832,0.000
3023.000,-27.832,-29.785,-3.906,-18.555,0.000
3027.000,-29.297,-31.250,-7.324,-7.324,0.000
3031.000,-42.480,-35.156,-12.207,-21.484,0.000
3035.000,-51.758,-39.062,-1.465,-22.949,0.000
3039.000,-49.805,-41.016,-0.977,-17.578,0.000
3043.000,-47.852,-40.039,-10.254,-15.137,0.000
3047.000,-49.316,-40.527,-10.254,-18.066,0.000
3051.000,-44.922,-39.551,-6.836,-19.043,0.000
3055.000,-37.598,-41.992,-6.836,-8.301,0.000
3059.000,-37.598,-38.574,-5.859,4.395,0.000
3062.000,-31.738,-36.133,-7.812,-2.441,0.000
3066.000,-28.809,-37.598,-15.137,-12.695,0.000
3070.000,-29.297,-31.250,-15.625,-12.207,0.000
3074.000,-25.879,-30.273,-10.254,-4.883,0.000
3078.000,-21.484,-32.715,-13.672,-9.766,0.000
3082.000,-18.066,-33.203,-12.207,-24.902,0.000
3086.000,-19.531,-36.621,-8.301,-37.109,0.000
3090.000,-15.625,-35.645,-7.812,-34.668,0.000
3094.000,-11.230,-31.250,-7.812,-39.062,0.000
3098.000,-14.160,-33.203,-10.254,-41.992,0.000
3101.000,-24.902,-38.086,-8.789,-38.574,0.000
3105.000,-28.809,-34.180,-10.742,-44.922,0.000
3109.000,-23.438,-30.762,-7.812,-35.645,0.000
3113.000,-24.902,-32.227,-0.977,-30.762,0.000
3117.000,-23.438,-30.273,-0.977,-40.039,0.000
3121.000,-20.508,-29.297,-7.324,-39.551,0.000
3125.000,-19.043,-25.879,-6.836,-36.133,0.000
3129.000,-24.902,-23.438,-3.906,-28.809,0.000
3133.000,-48.340,-26.367,-3.418,-20.020,0.000
3137.000,-52.734,-23.926,-1.953,-26.367,0.000
3141.000,-44.922,-21.973,-3.418,-32.715,0.000
3144.000,-48.340,-21.484,-5.371,-26.367,0.000
3148.000,-45.410,-22.461,-3.418,-11.719,0.000
3152.000,-45.410,-21.484,0.977,-2.441,0.000
3156.000,-51.758,-17.090,0.000,-8.789,0.000
3160.000,-55.176,-19.531,-3.906,-7.324,0.000
3164.000,-50.781,-17.578,-0.977,-0.977,0.000
3168.000,-49.316,-15.137,-0.977,-12.695,0.000
3172.000,-53.711,-16.113,-7.812,-23.438,0.000
3176.000,-43.457,-20.020,-5.859,-13.672,0.000
3180.000,-34.180,-27.832,-6.348,-14.160,0.000
3183.000,-12.207,-33.691,-10.254,-12.695,0.000
3187.000,3.418,-22.461,-4.395,-5.859,0.000
3191.000,-21.484,-11.230,-16.602,-26.855,0.000
3195.000,-41.016,-13.672,-29.297,-55.176,0.000
3199.000,-42.969,-16.113,-30.273,-63.477,0.000
3203.000,-37.109,-9.277,-30.273,-49.316,0.000
3207.000,-45.410,-0.488,-33.691,-54.688,0.000
3211.000,-60.547,-1.953,-41.992,-78.125,0.000
3215.000,-76.172,0.977,-48.828,-89.355,0.000
3219.000,-83.496,3.906,-52.734,-93.750,0.000
3223.000,-84.961,1.953,-55.664,-102.539,0.000
3226.000,-93.750,4.395,-62.988,-124.512,0.000
3230.000,-79.590,12.695,-60.547,-127.441,0.000
3234.000,-76.660,14.648,-60.059,-123.047,0.000
3238.000,-86.914,9.766,-66.406,-124.023,0.000
3242.000,-82.031,9.277,-70.312,-115.723,0.000
3246.000,-75.684,14.648,-70.312,-104.492,0.000
3250.000,-72.754,19.531,-66.895,-98.633,0.000
3254.000,-71.289,21.484,-60.059,-85.449,0.000
3258.000,-65.918,24.902,-60.059,-78.613,0.000
3262.000,-56.152,27.832,-59.082,-79.590,0.000
3266.000,-51.758,27.832,-53.711,-77.148,0.000
3269.000,-45.410,29.297,-54.688,-67.871,0.000
3273.000,-35.156,33.691,-53.223,-60.059,0.000
3277.000,-38.574,36.621,-52.734,-71.289,0.000
3281.000,-36.621,33.203,-55.664,-70.801,0.000
3285.000,-35.156,30.273,-54.199,-62.988,0.000
3289.000,-45.410,35.156,-46.875,-55.664,0.000
3293.000,-36.621,35.645,-47.363,-32.715,0.000
3297.000,-30.273,32.715,-53.223,-35.645,0.000
3301.000,-46.875,23.926,-57.617,-47.852,0.000
3305.000,-54.199,18.555,-59.570,-53.711,0.000
3308.000,-47.363,17.090,-54.199,-55.176,0.000
3312.000,-26.855,14.160,-47.852,-37.109,0.000
3316.000,-21.484,17.090,-49.316,-39.062,0.000
3320.000,-26.855,12.207,-49.805,-46.387,0.000
3324.000,-22.949,6.836,-40.527,-38.574,0.000
3328.000,-29.785,8.789,-38.574,-43.945,0.000
3332.000,-35.156,6.836,-41.992,-58.594,0.000
3336.000,-30.762,8.301,-35.645,-60.059,0.000
3340.000,-21.484,8.789,-30.762,-56.152,0.000
3344.000,-21.973,4.395,-37.109,-62.012,0.000
3348.000,-21.973,4.395,-36.133,-58.594,0.000
3351.000,-22.949,3.418,-38.086,-56.641,0.000
3355.000,-28.320,2.930,-42.480,-58.105,0.000
3359.000,-25.391,2.930,-38.086,-54.199,0.000
3363.000,-27.344,-1.953,-37.598,-53.223,0.000
3367.000,-33.203,-8.789,-39.062,-58.594,0.000
3371.000,-37.598,-9.277,-38.574,-65.430,0.000
3375.000,-39.062,-7.812,-34.668,-59.570,0.000
3379.000,-35.645,-5.859,-27.832,-45.410,0.000
3383.000,-20.020,-3.906,-29.297,-35.156,0.000
3387.000,-3.906,0.977,-28.809,-16.602,0.000
3391.000,-5.859,4.883,-27.832,-19.043,0.000
3394.000,-23.926,0.488,-32.227,-57.617,0.000
3398.000,-29.785,-2.441,-33.203,-65.918,0.000
3402.000,-23.438,-1.953,-34.180,-44.922,0.000
3406.000,-30.273,-6.348,-35.156,-48.340,0.000
3410.000,-29.297,-5.371,-31.250,-55.664,0.000
3414.000,-22.461,-4.395,-35.156,-42.480,0.000
3418.000,-28.809,-11.230,-37.109,-46.387,0.000
3422.000,-27.344,-12.207,-31.250,-40.039,0.000
3426.000,-18.555,-8.301,-27.832,-25.879,0.000
3430.000,-22.461,-8.301,-21.973,-26.855,0.000
3433.000,-31.250,-8.301,-17.090,-27.832,0.000
3437.000,-33.203,-8.301,-17.090,-22.949,0.000
3441.000,-26.855,-8.789,-18.555,-28.320,0.000
3445.000,-14.160,-2.930,-18.066,-33.203,0.000
3449.000,-9.277,-5.859,-16.113,-34.668,0.000
3453.000,-16.113,-4.883,-16.113,-42.480,0.000
3457.000,-15.137,-5.371,-17.090,-47.363,0.000
3461.000,-14.160,-13.672,-18.555,-47.363,0.000
3465.000,-23.926,-16.113,-16.602,-40.039,0.000
3469.000,-24.902,-11.230,-14.648,-36.133,0.000
3473.000,-26.367,-9.766,-15.625,-39.062,0.000
3476.000,-31.738,-12.695,-19.043,-42.969,0.000
3480.000,-25.391,-10.742,-18.066,-46.387,0.000
3484.000,-27.344,-15.625,-20.020,-53.223,0.000
3488.000,-25.391,-19.043,-18.555,-52.246,0.000
3492.000,-20.996,-12.695,-14.160,-37.598,0.000
3496.000,-18.555,-12.695,-9.766,-32.715,0.000
3500.000,-20.996,-16.602,-10.254,-30.762,0.000
3504.000,-27.832,-14.648,-11.719,-27.832,0.000
3508.000,-20.508,-18.066,-13.672,-25.879,0.000
3512.000,-15.625,-21.973,-17.578,-30.762,0.000
3516.000,-13.184,-18.555,-15.137,-37.109,0.000
3519.000,-13.184,-13.672,-12.207,-33.203,0.000
3523.000,-18.555,-15.625,-12.695,-27.344,0.000
3527.000,-18.066,-16.113,-11.230,-30.762,0.000
3531.000,-12.695,-6.348,-9.766,-21.973,0.000
3535.000,-21.484,-7.812,-12.207,-16.602,0.000
3539.000,-29.297,-13.184,-13.184,-12.207,0.000
3543.000,-18.066,-10.742,-13.672,-15.137,0.000
3547.000,-18.066,-7.812,-10.742,-17.090,0.000
3551.000,-25.879,-13.672,-10.254,-20.020,0.000
3555.000,-26.855,-14.648,-11.719,-22.949,0.000
3558.000,-29.297,-6.348,-8.301,-22.949,0.000
3562.000,-30.762,-6.348,-9.277,-30.273,0.000
3566.000,-36.621,-15.625,-10.254,-30.762,0.000
3570.000,-44.922,-18.555,-10.254,-30.762,0.000
3574.000,-47.363,-17.090,-12.207,-39.062,0.000
3578.000,-41.016,-14.160,-14.160,-52.246,0.000
3582.000,-39.062,-14.160,-13.184,-54.199,0.000
3586.000,-41.016,-11.230,-12.207,-52.246,0.000
3590.000,-46.387,-11.719,-12.695,-56.641,0.000
3594.000,-43.457,-17.578,-13.672,-64.941,0.000
3598.000,-45.898,-20.508,-17.578,-64.941,0.000
3601.000,-47.363,-21.484,-21.484,-62.988,0.000
3605.000,-50.781,-22.461,-24.414,-62.012,0.000
3609.000,-54.688,-26.855,-24.414,-59.082,0.000
3613.000,-44.434,-21.484,-19.043,-47.363,0.000
3617.000,-42.480,-16.113,-16.602,-51.270,0.000
3621.000,-39.551,-18.066,-15.137,-58.105,0.000
3625.000,-33.691,-20.508,-16.113,-52.734,0.000
3629.000,-34.668,-20.508,-18.555,-55.664,0.000
3633.000,-33.691,-17.090,-17.090,-51.758,0.000
3637.000,-36.621,-20.996,-16.602,-46.875,0.000
3641.000,-36.133,-23.438,-21.484,-49.316,0.000
3644.000,-30.273,-20.508,-20.020,-39.551,0.000
3648.000,-31.738,-23.438,-19.043,-32.715,0.000
3652.000,-12.207,-20.020,-22.461,-24.902,0.000
3656.000,10.254,-14.160,-18.555,-7.324,0.000
3660.000,-16.113,-20.996,-12.207,-21.484,0.000
3664.000,-34.668,-22.461,-7.324,-37.598,0.000
3668.000,-23.926,-21.484,-2.930,-32.715,0.000
3672.000,-20.508,-30.273,-2.930,-21.484,0.000
3676.000,-21.484,-36.133,3.906,-9.277,0.000
3680.000,-18.066,-40.039,8.789,1.953,0.000
3683.000,-21.973,-42.969,14.160,-1.953,0.000
3687.000,-31.250,-47.363,16.113,-10.742,0.000
3691.000,-32.227,-50.781,9.277,-16.113,0.000
3695.000,-24.902,-50.781,13.672,-8.789,0.000
3699.000,-26.855,-49.805,20.508,-9.766,0.000
3703.000,-30.273,-51.270,24.414,1.953,0.000
3707.000,-38.574,-59.570,28.320,8.301,0.000
3711.000,-43.945,-63.965,27.344,0.977,0.000
3715.000,-39.062,-63.477,29.297,-3.906,0.000
3719.000,-47.363,-67.383,29.785,-2.441,0.000
3723.000,-54.688,-74.219,27.832,-17.578,0.000
3726.000,-53.223,-79.590,28.809,-33.203,0.000
3730.000,-43.945,-79.590,27.344,-19.043,0.000
3734.000,-34.668,-77.637,33.203,-8.301,0.000
3738.000,-32.227,-73.730,38.086,-8.301,0.000
3742.000,-31.738,-74.219,36.133,-1.953,0.000
3746.000,-37.109,-77.637,37.598,-0.977,0.000
3750.000,-35.156,-74.707,40.039,3.418,0.000
3754.000,-35.156,-74.219,41.992,6.836,0.000
3758.000,-30.762,-74.219,40.527,12.207,0.000
3762.000,-17.090,-74.219,41.504,26.855,0.000
3766.000,-17.578,-72.754,42.480,24.902,0.000
3769.000,-18.066,-66.895,46.875,17.578,0.000
3773.000,-20.996,-67.383,48.340,22.461,0.000
3777.000,-23.438,-68.359,43.457,21.484,0.000
3781.000,-25.879,-63.965,39.551,29.785,0.000
3785.000,-35.645,-66.895,45.898,28.809,0.000
3789.000,-44.922,-67.383,49.805,12.207,0.000
3793.000,-48.828,-67.871,47.852,14.160,0.000
3797.000,-46.387,-68.848,42.969,-1.953,0.000
3801.000,-48.340,-66.406,38.574,-13.672,0.000
3805.000,-56.641,-68.359,38.086,-5.859,0.000
3808.000,-55.176,-69.824,33.203,-14.648,0.000
3812.000,-48.828,-66.406,25.391,-24.902,0.000
3816.000,-45.410,-60.547,21.484,-26.367,0.000
3820.000,-41.992,-57.129,25.391,-24.414,0.000
3824.000,-41.504,-58.105,23.926,-31.250,0.000
3828.000,-44.434,-59.570,21.973,-26.367,0.000
3832.000,-45.410,-54.688,18.555,-15.625,0.000
3836.000,-36.621,-48.340,9.766,-14.160,0.000
3840.000,-26.367,-47.852,8.789,-19.531,0.000
3844.000,-19.043,-50.781,6.836,-30.273,0.000
3848.000,-6.836,-43.457,5.371,-26.367,0.000
3851.000,-22.949,-43.457,4.883,-26.855,0.000
3855.000,-39.551,-46.875,2.930,-23.438,0.000
3859.000,-28.809,-45.898,-0.488,-11.230,0.000
3863.000,-27.832,-49.805,-7.812,-13.184,0.000
3867.000,-29.785,-44.434,-7.812,-13.672,0.000
3871.000,-27.832,-41.992,-9.766,-20.020,0.000
3875.000,-18.555,-44.922,-5.371,-23.926,0.000
3879.000,-14.160,-45.410,0.000,-12.207,0.000
3883.000,-19.043,-43.945,-1.953,-11.719,0.000
3887.000,-30.273,-42.480,-1.465,-20.508,0.000
3891.000,-29.297,-44.434,2.441,-21.484,0.000
3894.000,-23.438,-46.387,11.719,-16.113,0.000
3898.000,-28.320,-49.316,10.254,-8.789,0.000
3902.000,-34.668,-46.387,7.324,-9.766,0.000
3906.000,-31.738,-41.504,10.254,-8.789,0.000
3910.000,-22.461,-41.016,8.789,0.977,0.000
3914.000,-16.602,-40.039,9.277,5.371,0.000
3918.000,-24.414,-40.039,11.719,1.953,0.000
3922.000,-35.156,-41.992,7.812,-1.953,0.000
3926.000,-27.344,-46.875,3.418,1.465,0.000
3930.000,-13.672,-43.945,7.324,-6.836,0.000
3933.000,-11.719,-34.180,13.184,-11.719,0.000
3937.000,-27.832,-30.762,10.742,-10.254,0.000
3941.000,-33.691,-30.762,0.977,-23.926,0.000
3945.000,-29.785,-30.762,0.000,-33.691,0.000
3949.000,-27.832,-32.227,2.930,-49.316,0.000
3953.000,-29.297,-38.086,1.953,-45.410,0.000
3957.000,-29.785,-37.598,-5.371,-30.273,0.000
3961.000,-25.391,-36.621,-6.348,-29.785,0.000
3965.000,-28.320,-36.621,-2.441,-37.598,0.000
3969.000,-31.738,-35.645,-8.301,-40.527,0.000
3973.000,-25.879,-31.250,-8.789,-21.973,0.000
3976.000,-24.414,-27.832,-2.930,-11.230,0.000
3980.000,-20.508,-28.320,-1.953,-7.324,0.000
3984.000,-21.484,-31.738,-6.348,-3.418,0.000
3988.000,-26.855,-32.715,-1.465,-5.371,0.000
3992.000,-17.090,-32.227,1.465,5.859,0.000
3996.000,-8.301,-30.762,1.465,6.348,0.000
4000.000,-12.207,-33.691,0.977,-11.230,0.000
4004.000,-24.902,-35.645,-3.906,-9.766,0.000
4008.000,-30.762,-33.203,-5.371,2.441,0.000
4012.000,-20.020,-35.156,-6.348,7.812,0.000
4016.000,-17.090,-36.621,-8.301,0.488,0.000
4019.000,-28.320,-29.785,-5.859,1.465,0.000
4023.000,-31.250,-31.738,-4.395,-0.488,0.000
4027.000,-22.949,-31.738,-3.418,8.301,0.000
4031.000,-4.883,-24.902,-1.953,15.137,0.000
4035.000,-10.254,-16.113,-17.090,-17.090,0.000
4039.000,-32.715,-11.230,-28.320,-44.922,0.000
4043.000,-25.391,-8.789,-24.902,-46.387,0.000
4047.000,-25.391,-3.906,-30.762,-49.805,0.000
4051.000,-40.039,-4.395,-39.062,-62.500,0.000
4055.000,-58.105,-6.836,-36.621,-77.637,0.000
4058.000,-82.031,-0.977,-42.969,-90.820,0.000
4062.000,-79.102,12.207,-47.363,-85.938,0.000
4066.000,-76.172,14.648,-46.387,-101.074,0.000
4070.000,-79.590,12.207,-49.316,-105.957,0.000
4074.000,-72.266,12.695,-46.875,-95.703,0.000
4078.000,-72.754,19.043,-50.293,-106.934,0.000
4082.000,-71.289,25.391,-58.594,-103.027,0.000
4086.000,-73.242,18.066,-60.547,-102.539,0.000
4090.000,-81.055,19.043,-57.129,-105.469,0.000
4094.000,-78.613,21.484,-57.617,-98.633,0.000
4098.000,-73.730,29.297,-62.500,-94.238,0.000
4101.000,-80.566,31.250,-67.383,-100.586,0.000
4105.000,-79.102,36.621,-67.871,-101.074,0.000
4109.000,-61.523,41.016,-61.523,-80.566,0.000
4113.000,-54.688,38.086,-62.012,-78.613,0.000
4117.000,-50.781,43.945,-62.012,-80.078,0.000
4121.000,-56.641,44.434,-59.570,-83.984,0.000
4125.000,-54.688,42.480,-61.523,-83.984,0.000
4129.000,-44.434,43.457,-62.012,-78.125,0.000
4133.000,-40.527,42.480,-63.965,-76.172,0.000
4137.000,-38.574,39.551,-62.012,-75.195,0.000
4140.000,-46.387,39.062,-62.012,-81.543,0.000
4144.000,-37.598,39.062,-68.359,-85.449,0.000
4148.000,-22.461,33.203,-67.871,-81.543,0.000
4152.000,-20.508,32.227,-62.988,-73.730,0.000
4156.000,-17.090,31.250,-57.617,-71.777,0.000
4160.000,-13.672,25.879,-53.223,-67.871,0.000
4164.000,-14.648,21.484,-55.176,-59.082,0.000
4168.000,-14.648,18.555,-52.246,-51.270,0.000
4172.000,-17.578,12.695,-47.852,-46.875,0.000
4176.000,-21.973,9.277,-49.805,-36.621,0.000
4180.000,-18.555,7.812,-47.852,-34.180,0.000
4183.000,-10.742,9.766,-45.898,-34.668,0.000
4187.000,-12.207,8.301,-42.480,-30.273,0.000
4191.000,-18.066,1.465,-35.156,-29.297,0.000
4195.000,-15.137,-0.488,-27.344,-21.973,0.000
4199.000,-17.578,-2.441,-22.461,-10.254,0.000
4203.000,-28.320,-0.977,-23.926,-20.020,0.000
4207.000,-30.273,-12.695,-23.438,-28.320,0.000
4211.000,-18.555,-21.484,-18.066,-25.391,0.000
4215.000,0.977,-10.254,-12.207,-11.719,0.000
4219.000,8.789,-4.395,-14.648,-5.859,0.000
4223.000,-13.184,-2.930,-19.531,-26.855,0.000
4226.000,-41.992,-5.859,-16.113,-44.434,0.000
4230.000,-30.762,-8.301,-15.137,-34.668,0.000
4234.000,-16.113,-11.230,-18.555,-29.297,0.000
4238.000,-18.066,-7.812,-18.066,-23.926,0.000
4242.000,-12.207,-0.488,-19.531,-19.043,0.000
4246.000,-9.277,-5.859,-21.973,-30.273,0.000
4250.000,-17.578,-12.207,-30.273,-41.016,0.000
4254.000,-17.578,-6.836,-27.832,-37.598,0.000
4258.000,-17.578,-0.977,-23.438,-25.391,0.000
4262.000,-7.812,-4.395,-27.344,-22.461,0.000
4265.000,3.418,-9.766,-31.738,-33.691,0.000
4269.000,-13.672,-8.301,-33.203,-44.434,0.000
4273.000,-12.207,-1.953,-30.762,-43.945,0.000
4277.000,-5.859,-5.859,-31.738,-40.527,0.000
4281.000,-8.789,-8.301,-32.715,-41.016,0.000
4285.000,-10.742,-11.230,-31.250,-35.156,0.000
4289.000,-22.461,-14.648,-26.367,-29.297,0.000
4293.000,-25.391,-9.277,-24.902,-32.715,0.000
4297.000,-20.996,-7.324,-23.926,-44.434,0.000
4301.000,-20.996,-14.648,-23.438,-46.387,0.000
4305.000,-24.902,-20.020,-23.438,-40.527,0.000
4308.000,-30.762,-17.090,-20.508,-32.227,0.000
4312.000,-29.785,-13.672,-18.555,-28.320,0.000
4316.000,-26.855,-13.672,-16.602,-33.203,0.000
4320.000,-32.227,-16.113,-14.648,-40.039,0.000
4324.000,-41.504,-17.090,-15.625,-39.551,0.000
4328.000,-34.668,-18.066,-18.066,-46.875,0.000
4332.000,-34.180,-21.973,-19.531,-51.758,0.000
4336.000,-44.922,-19.043,-23.926,-49.316,0.000
4340.000,-43.457,-17.578,-29.297,-48.828,0.000
4344.000,-38.086,-19.043,-29.297,-46.875,0.000
4348.000,-33.203,-17.090,-24.902,-47.363,0.000
4351.000,-40.039,-17.090,-23.438,-51.758,0.000
4355.000,-48.340,-16.113,-22.949,-55.664,0.000
4359.000,-41.504,-15.137,-22.461,-62.012,0.000
4363.000,-38.574,-13.184,-24.902,-62.988,0.000
4367.000,-43.945,-16.602,-29.297,-70.801,0.000
4371.000,-49.316,-20.508,-26.855,-73.242,0.000
4375.000,-43.945,-17.578,-21.973,-62.012,0.000
4379.000,-32.227,-15.137,-26.367,-65.430,0.000
4383.000,-41.016,-16.113,-30.762,-72.266,0.000
4387.000,-44.434,-17.090,-26.367,-70.312,0.000
4390.000,-33.691,-12.695,-22.949,-62.988,0.000
4394.000,-36.621,-17.090,-27.344,-57.617,0.000
4398.000,-40.527,-15.137,-33.203,-59.570,0.000
4402.000,-39.062,-8.789,-31.738,-63.477,0.000
4406.000,-40.527,-12.207,-30.273,-57.617,0.000
4410.000,-37.109,-14.648,-36.133,-46.875,0.000
4414.000,-29.297,-15.625,-34.180,-44.922,0.000
4418.000,-33.691,-20.020,-28.809,-47.363,0.000
4422.000,-36.621,-18.555,-27.832,-41.016,0.000
4426.000,-32.715,-17.090,-22.461,-40.527,0.000
4430.000,-29.297,-19.531,-21.973,-27.832,0.000
4433.000,-28.320,-21.973,-14.648,-12.207,0.000
4437.000,-27.344,-22.949,-3.418,-17.578,0.000
4441.000,-31.250,-22.461,-7.324,-16.602,0.000
4445.000,-29.785,-24.902,-8.301,-10.742,0.000
4449.000,-31.738,-25.391,-5.859,-12.695,0.000
4453.000,-36.621,-24.414,-8.301,-21.973,0.000
4457.000,-33.203,-26.367,-10.742,-27.344,0.000
4461.000,-24.414,-21.973,-11.230,-37.109,0.000
4465.000,-28.809,-25.391,-15.625,-41.992,0.000
4469.000,-39.062,-28.320,-15.625,-39.062,0.000
4473.000,-42.480,-26.855,-14.160,-33.691,0.000
4476.000,-48.828,-25.879,-18.066,-39.551,0.000
4480.000,-39.062,-23.926,-20.508,-48.828,0.000
4484.000,-29.297,-21.973,-20.508,-43.945,0.000
4488.000,-32.227,-21.484,-19.531,-41.992,0.000
4492.000,-25.879,-19.531,-18.066,-41.992,0.000
4496.000,-15.137,-17.578,-12.695,-42.480,0.000
4500.000,-23.438,-19.531,-5.371,-23.926,0.000
4504.000,-34.180,-24.902,-9.277,-20.020,0.000
4508.000,-27.344,-26.855,-18.555,-30.762,0.000
4512.000,-16.113,-20.508,-19.531,-24.902,0.000
4515.000,-14.160,-16.113,-16.602,-32.715,0.000
4519.000,-11.230,-20.020,-16.602,-49.805,0.000
4523.000,-12.207,-20.508,-19.043,-42.969,0.000
4527.000,-17.578,-24.414,-21.484,-28.320,0.000
4531.000,-6.836,-24.414,-18.555,-3.906,0.000
4535.000,4.395,-14.648,-9.766,17.578,0.000
4539.000,-20.996,-23.926,-3.418,-10.254,0.000
4543.000,-35.156,-31.250,-2.441,-44.434,0.000
4547.000,-28.320,-34.668,0.488,-38.086,0.000
4551.000,-20.996,-38.574,1.465,-26.367,0.000
4555.000,-22.949,-42.969,1.953,-27.344,0.000
4558.000,-32.227,-44.434,8.301,-18.066,0.000
4562.000,-37.109,-46.875,7.812,-9.277,0.000
4566.000,-39.551,-50.293,9.766,-7.812,0.000
4570.000,-40.527,-55.664,17.578,-7.324,0.000
4574.000,-43.457,-60.547,20.508,-4.395,0.000
4578.000,-43.457,-58.105,22.461,3.418,0.000
4582.000,-49.805,-62.500,25.879,7.812,0.000
4586.000,-58.594,-64.941,23.438,11.719,0.000
4590.000,-55.664,-63.965,21.973,14.160,0.000
4594.000,-44.434,-68.359,25.879,17.578,0.000
4598.000,-48.340,-69.336,27.344,13.672,0.000
4601.000,-55.176,-68.848,27.832,5.859,0.000
4605.000,-54.199,-70.801,29.297,6.348,0.000
4609.000,-42.969,-70.312,29.785,20.508,0.000
4613.000,-37.109,-66.406,30.762,27.832,0.000
4617.000,-33.203,-62.988,30.762,23.926,0.000
4621.000,-34.668,-62.988,29.297,19.531,0.000
4625.000,-26.855,-61.035,29.785,16.113,0.000
4629.000,-14.648,-59.570,23.926,19.043,0.000
4633.000,-16.602,-59.082,22.461,18.066,0.000
4637.000,-19.531,-61.035,27.344,15.625,0.000
4640.000,-12.695,-61.035,27.832,10.254,0.000
4644.000,-1.465,-59.570,31.250,14.160,0.000
4648.000,-5.859,-55.176,34.668,13.184,0.000
4652.000,-7.812,-53.223,30.762,0.977,0.000
4656.000,-3.906,-56.641,32.715,-2.441,0.000
4660.000,-2.930,-57.129,36.621,9.766,0.000
4664.000,2.930,-55.664,40.527,17.090,0.000
4668.000,-5.859,-57.129,37.109,13.672,0.000
4672.000,-13.184,-60.547,32.715,17.578,0.000
4676.000,-10.254,-61.035,36.133,2.441,0.000
4680.000,-10.742,-60.059,31.738,-0.977,0.000
4683.000,-9.277,-62.012,31.250,3.906,0.000
4687.000,-21.973,-66.406,34.668,-13.672,0.000
4691.000,-35.645,-67.871,33.691,0.000,0.000
4695.000,-32.227,-67.383,34.180,21.484,0.000
4699.000,-29.297,-61.523,37.109,19.043,0.000
4703.000,-42.969,-59.570,35.645,9.766,0.000
4707.000,-44.922,-65.918,29.785,0.488,0.000
4711.000,-38.574,-68.359,31.250,-3.418,0.000
4715.000,-40.527,-65.918,32.227,0.000,0.000
4719.000,-38.086,-62.988,29.785,5.371,0.000
4723.000,-42.969,-63.477,31.250,6.348,0.000
4726.000,-39.062,-65.430,31.738,8.301,0.000
4730.000,-38.086,-65.430,32.715,6.348,0.000
4734.000,-47.363,-61.035,27.832,-9.277,0.000
4738.000,-49.805,-58.594,23.926,-20.996,0.000
4742.000,-52.246,-65.430,23.926,-26.855,0.000
4746.000,-41.504,-65.918,15.137,-32.715,0.000
4750.000,-36.133,-58.594,14.648,-34.180,0.000
4754.000,-45.410,-59.082,17.090,-41.504,0.000
4758.000,-48.340,-62.012,15.137,-38.574,0.000
4762.000,-44.922,-59.082,15.137,-33.691,0.000
4765.000,-47.363,-57.129,14.160,-25.879,0.000
4769.000,-46.387,-51.270,15.137,-16.602,0.000
4773.000,-37.109,-45.898,15.625,-12.695,0.000
4777.000,-31.250,-46.875,11.719,-7.812,0.000
4781.000,-31.738,-47.852,3.418,-7.812,0.000
4785.000,-30.273,-43.945,4.395,-1.953,0.000
4789.000,-31.250,-39.551,2.930,-2.441,0.000
4793.000,-36.621,-37.109,0.488,1.465,0.000
4797.000,-23.926,-38.086,7.324,11.230,0.000
4801.000,-18.555,-38.574,8.789,10.254,0.000
4805.000,-20.020,-39.551,8.789,13.672,0.000
4808.000,-18.555,-40.527,8.789,9.766,0.000
4812.000,-21.484,-39.551,8.301,5.859,0.000
4816.000,-24.902,-41.992,6.348,2.930,0.000
4820.000,-32.227,-42.480,0.000,-12.207,0.000
4824.000,-27.344,-40.527,-0.488,-17.090,0.000
4828.000,-22.949,-41.504,-4.883,-12.207,0.000
4832.000,-20.508,-41.992,-4.395,-12.207,0.000
4836.000,-21.973,-43.457,0.977,-11.719,0.000
4840.000,-23.438,-37.598,-2.441,-4.883,0.000
4844.000,-13.184,-32.227,-0.977,1.953,0.000
4848.000,-19.043,-32.227,4.395,0.488,0.000
4851.000,-22.949,-31.250,1.953,0.977,0.000
4855.000,-18.066,-29.785,-0.977,-4.395,0.000
4859.000,-17.090,-28.320,0.488,-6.836,0.000
4863.000,-13.184,-25.879,1.465,-14.648,0.000
4867.000,-13.672,-31.250,-2.441,-23.926,0.000
4871.000,-25.391,-35.645,-1.465,-20.020,0.000
4875.000,-19.531,-28.320,-2.441,-17.090,0.000
4879.000,-19.531,-25.391,-6.836,-18.555,0.000
4883.000,-36.133,-30.273,-7.324,-13.672,0.000
4887.000,-46.387,-31.250,-6.836,-7.812,0.000
4890.000,-49.316,-29.297,-8.301,-8.301,0.000
4894.000,-47.363,-27.832,-11.230,-11.230,0.000
4898.000,-40.039,-28.809,-12.695,-7.324,0.000
4902.000,-37.109,-26.855,-13.184,-7.812,0.000
4906.000,-29.785,-21.973,-11.230,-5.371,0.000
4910.000,-21.484,-21.484,-15.625,-7.812,0.000
4914.000,-22.949,-21.973,-22.949,-19.043,0.000
4918.000,-30.762,-24.414,-20.996,-20.020,0.000
4922.000,-31.738,-22.949,-21.973,-25.391,0.000
4926.000,-32.227,-20.020,-20.996,-33.691,0.000
4930.000,-18.555,-24.414,-22.949,-21.484,0.000
4933.000,12.207,-24.414,-18.066,-1.953,0.000
4937.000,4.395,-13.184,-23.438,-10.742,0.000
4941.000,-28.320,-5.371,-37.598,-36.133,0.000
4945.000,-37.109,-8.789,-41.016,-63.477,0.000
4949.000,-39.062,-5.859,-44.922,-70.312,0.000
4953.000,-41.992,2.930,-49.316,-59.570,0.000
4957.000,-51.758,7.324,-48.828,-65.918,0.000
4961.000,-53.711,10.254,-52.734,-73.730,0.000
4965.000,-46.875,13.184,-55.664,-69.336,0.000
4969.000,-51.270,15.137,-54.199,-80.078,0.000
4973.000,-55.664,18.066,-56.152,-76.172,0.000
4976.000,-53.711,14.648,-62.500,-77.637,0.000
4980.000,-60.059,13.184,-65.918,-81.055,0.000
4984.000,-68.359,18.555,-59.570,-75.195,0.000
4988.000,-64.941,23.926,-61.035,-78.125,0.000
4992.000,-56.641,28.320,-62.500,-82.031,0.000
4996.000,-48.828,31.250,-59.570,-79.590,0.000
5000.000,-42.969,33.691,-58.594,-73.730,0.000
5004.000,-39.551,30.762,-61.035,-78.125,0.000
5008.000,-27.832,35.156,-58.594,-65.918,0.000
5012.000,-27.832,38.574,-58.105,-60.547,0.000
5015.000,-26.855,35.156,-59.570,-58.594,0.000
5019.000,-29.297,34.180,-57.617,-50.293,0.000
5023.000,-41.016,31.250,-61.035,-64.941,0.000
5027.000,-21.973,35.645,-60.059,-58.594,0.000
5031.000,-8.301,37.109,-56.152,-47.363,0.000
5035.000,-22.461,37.598,-56.641,-56.152,0.000
5039.000,-24.414,36.621,-59.082,-58.105,0.000
5043.000,-24.414,28.320,-58.105,-52.734,0.000
5047.000,-29.785,23.926,-55.176,-63.965,0.000
5051.000,-32.715,23.926,-51.758,-72.754,0.000
5055.000,-34.180,26.367,-52.246,-67.871,0.000
5058.000,-38.086,23.926,-54.199,-70.801,0.000
5062.000,-41.992,16.602,-52.734,-74.707,0.000
5066.000,-41.992,11.719,-56.641,-82.520,0.000
5070.000,-41.504,9.277,-58.105,-85.449,0.000
5074.000,-34.668,7.812,-51.758,-72.754,0.000
5078.000,-27.832,6.836,-47.852,-69.336,0.000
5082.000,-24.414,11.230,-45.410,-70.801,0.000
5086.000,-31.250,6.348,-43.457,-62.988,0.000
5090.000,-35.645,-0.488,-43.945,-53.711,0.000
5094.000,-26.367,2.441,-46.875,-56.641,0.000
5097.000,-26.855,5.371,-40.039,-51.758,0.000
5101.000,-34.668,0.977,-36.621,-48.828,0.000
5105.000,-33.691,-1.465,-39.551,-53.711,0.000
5109.000,-29.297,-1.953,-40.527,-54.199,0.000
5113.000,-28.320,-4.395,-42.969,-58.594,0.000
5117.000,-39.062,-5.371,-41.016,-60.547,0.000
5121.000,-39.062,-2.930,-35.156,-61.523,0.000
5125.000,-31.250,1.465,-32.715,-65.918,0.000
5129.000,-28.320,-2.930,-33.691,-60.547,0.000
5133.000,-28.320,-3.418,-34.668,-60.059,0.000
5137.000,-32.227,-2.441,-32.715,-64.453,0.000
5140.000,-31.250,-2.930,-22.949,-51.270,0.000
5144.000,-26.855,-9.766,-19.531,-36.621,0.000
5148.000,-38.086,-18.066,-30.273,-43.945,0.000
5152.000,-41.016,-16.602,-29.297,-42.969,0.000
5156.000,-38.086,-12.695,-23.438,-37.598,0.000
5160.000,-36.621,-17.090,-24.902,-41.016,0.000
5164.000,-29.785,-16.602,-26.855,-47.852,0.000
5168.000,-33.203,-15.137,-22.949,-45.410,0.000
5172.000,-34.668,-16.113,-20.020,-35.156,0.000
5176.000,-33.691,-16.602,-20.020,-31.250,0.000
5180.000,-41.016,-16.113,-23.926,-37.109,0.000
5183.000,-39.551,-12.695,-25.391,-40.527,0.000
5187.000,-43.457,-14.648,-22.461,-38.086,0.000
5191.000,-48.828,-21.484,-21.973,-37.109,0.000
5195.000,-47.363,-19.043,-23.926,-42.480,0.000
5199.000,-41.504,-10.742,-31.250,-48.828,0.000
5203.000,-48.340,-11.719,-33.691,-49.805,0.000
5207.000,-48.340,-15.625,-29.297,-44.434,0.000
5211.000,-32.715,-12.695,-29.297,-42.969,0.000
5215.000,-33.203,-15.137,-26.367,-44.434,0.000
5219.000,-37.109,-10.254,-18.066,-39.062,0.000
5222.000,-36.133,-7.324,-16.602,-37.109,0.000
5226.000,-38.574,-16.602,-20.996,-39.062,0.000
5230.000,-38.086,-20.508,-23.926,-47.852,0.000
5234.000,-40.527,-20.508,-27.344,-45.410,0.000
5238.000,-43.457,-20.020,-26.855,-45.898,0.000
5242.000,-37.598,-16.602,-25.879,-52.246,0.000
5246.000,-30.762,-15.625,-29.297,-51.270,0.000
5250.000,-30.762,-15.625,-25.391,-50.781,0.000
5254.000,-31.738,-18.066,-19.531,-51.758,0.000
5258.000,-23.926,-21.484,-17.090,-47.363,0.000
5262.000,-27.344,-21.484,-13.184,-30.273,0.000
5265.000,-31.738,-16.602,-12.207,-26.367,0.000
5269.000,-28.320,-17.090,-11.719,-33.691,0.000
5273.000,-31.250,-22.949,-11.230,-38.086,0.000
5277.000,-35.645,-26.855,-14.648,-46.387,0.000
5281.000,-32.227,-23.926,-19.043,-47.852,0.000
5285.000,-37.598,-24.902,-20.508,-48.828,0.000
5289.000,-49.805,-32.227,-19.531,-46.387,0.000
5293.000,-41.016,-31.738,-20.996,-35.156,0.000
5297.000,-28.320,-22.949,-21.973,-23.926,0.000
5301.000,-33.203,-21.973,-15.625,-22.949,0.000
5305.000,-44.434,-31.250,-13.184,-24.902,0.000
5308.000,-41.504,-30.762,-14.648,-11.230,0.000
5312.000,-37.109,-29.785,-15.137,-12.695,0.000
5316.000,-40.527,-25.879,-10.254,-20.996,0.000
5320.000,-50.293,-20.508,-9.277,-19.043,0.000
5324.000,-52.246,-25.879,-13.184,-9.766,0.000
5328.000,-37.598,-21.484,-8.789,-6.836,0.000
5332.000,-26.855,-14.160,-4.395,-10.254,0.000
5336.000,-24.902,-14.160,-4.883,-4.883,0.000
5340.000,-20.508,-15.625,-2.930,-7.812,0.000
5344.000,-20.996,-19.531,-7.324,-15.137,0.000
5347.000,-20.996,-20.020,-6.836,-10.742,0.000
5351.000,-23.926,-20.996,-6.836,-7.812,0.000
5355.000,-26.367,-22.461,-10.254,-8.301,0.000
5359.000,-28.320,-23.926,-12.207,-0.977,0.000
5363.000,-23.926,-23.926,-12.695,0.488,0.000
5367.000,-27.832,-19.531,-12.207,0.000,0.000
5371.000,-43.457,-19.531,-13.672,-6.348,0.000
5375.000,-34.668,-20.020,-16.602,-25.879,0.000
5379.000,-30.273,-19.531,-15.625,-28.809,0.000
5383.000,-30.273,-21.973,-10.254,-27.832,0.000
5387.000,-30.762,-26.855,-14.160,-33.691,0.000
5390.000,-31.250,-21.973,-15.625,-38.574,0.000
5394.000,-17.578,-21.484,-10.254,-28.320,0.000
5398.000,-23.926,-21.484,-13.184,-27.344,0.000
5402.000,-33.203,-18.066,-18.066,-30.762,0.000
5406.000,-30.762,-17.090,-19.043,-26.855,0.000
5410.000,-24.414,-18.555,-20.508,-25.391,0.000
5414.000,-13.184,-15.625,-14.160,-8.789,0.000
5418.000,-24.902,-16.602,-9.277,-2.930,0.000
5422.000,-32.227,-21.484,-18.066,-9.277,0.000
5426.000,-8.789,-19.531,-23.438,9.277,0.000
5430.000,10.254,-15.625,-12.695,13.672,0.000
5433.000,-8.301,-20.508,-8.789,-16.113,0.000
5437.000,-19.531,-22.949,0.977,-21.484,0.000
5441.000,-9.277,-28.320,13.184,2.930,0.000
5445.000,0.977,-30.273,7.812,16.113,0.000
5449.000,-3.906,-36.621,0.000,9.277,0.000
5453.000,-26.855,-46.387,-3.906,-4.883,0.000
5457.000,-32.715,-47.363,3.418,-4.395,0.000
5461.000,-11.719,-54.199,12.695,13.184,0.000
5465.000,-3.418,-55.176,17.578,18.555,0.000
5469.000,-13.672,-50.293,16.602,17.578,0.000
5472.000,-8.789,-53.223,15.137,24.902,0.000
5476.000,-8.789,-60.547,11.230,16.602,0.000
5480.000,-9.277,-62.988,6.348,10.742,0.000
5484.000,-11.230,-71.777,15.137,5.859,0.000
5488.000,-12.207,-71.777,31.250,3.418,0.000
5492.000,-6.836,-68.359,34.180,17.090,0.000
5496.000,-8.301,-72.754,27.832,11.719,0.000
5500.000,0.488,-69.824,41.504,19.043,0.000
5504.000,-2.441,-69.336,66.406,42.969,0.000
5508.000,-12.695,-69.336,72.754,41.504,0.000
5512.000,-10.254,-78.613,79.590,30.762,0.000
5515.000,-1.465,-83.984,84.473,32.227,0.000
5519.000,-7.324,-83.008,84.473,29.785,0.000
5523.000,-9.277,-79.590,102.051,27.832,0.000
5527.000,0.000,-77.637,125.977,41.504,0.000
5531.000,-2.441,-76.660,149.902,39.551,0.000
5535.000,-4.395,-69.824,176.270,43.457,0.000
5539.000,-2.930,-66.406,201.660,53.711,0.000
5543.000,-5.859,-66.406,226.562,44.922,0.000
5547.000,-0.977,-59.570,253.418,44.434,0.000
5551.000,7.812,-59.082,278.809,52.246,0.000
5555.000,-3.906,-63.477,300.781,31.250,0.000
5558.000,-9.277,-65.430,319.336,25.391,0.000
5562.000,0.000,-63.477,329.590,32.227,0.000
5566.000,-4.395,-63.965,333.984,15.625,0.000
5570.000,-4.395,-62.500,339.355,19.531,0.000
5574.000,-2.441,-55.664,340.332,24.902,0.000
5578.000,-4.883,-54.199,337.891,22.461,0.000
5582.000,-9.766,-55.664,334.473,21.973,0.000
5586.000,-11.230,-55.664,321.777,11.719,0.000
5590.000,0.000,-53.711,308.594,9.277,0.000
5594.000,6.836,-51.270,297.363,18.555,0.000
5597.000,-1.465,-54.199,284.668,16.113,0.000
5601.000,-20.020,-55.664,274.414,18.066,0.000
5605.000,-30.273,-56.152,261.719,15.137,0.000
5609.000,-17.090,-56.641,238.770,13.672,0.000
5613.000,-16.602,-58.105,219.727,15.137,0.000
5617.000,-28.320,-60.547,209.473,8.301,0.000
5621.000,-23.438,-53.711,196.289,10.254,0.000
5625.000,-15.625,-52.734,187.988,4.395,0.000
5629.000,-17.578,-52.246,174.805,-7.324,0.000
5633.000,-21.973,-47.363,155.762,-10.742,0.000
5637.000,-27.344,-45.898,141.602,-8.301,0.000
5640.000,-28.809,-47.852,128.906,-14.160,0.000
5644.000,-21.973,-48.828,118.164,-20.020,0.000
5648.000,-22.949,-48.828,105.469,-25.391,0.000
5652.000,-33.203,-42.480,96.191,-26.367,0.000
5656.000,-25.879,-42.969,89.355,-23.926,0.000
5660.000,-18.066,-46.875,83.008,-13.672,0.000
5664.000,-18.066,-40.039,77.148,-16.602,0.000
5668.000,-14.648,-38.574,64.941,-19.531,0.000
5672.000,-22.949,-40.527,54.199,-10.742,0.000
5676.000,-29.297,-41.992,46.387,-11.719,0.000
5680.000,-23.438,-41.992,42.480,-11.719,0.000
5683.000,-23.438,-40.527,38.086,-12.695,0.000
5687.000,-17.090,-34.668,31.250,-15.137,0.000
5691.000,-23.926,-30.762,27.344,-7.812,0.000
5695.000,-37.598,-33.691,21.973,-6.348,0.000
5699.000,-43.945,-33.691,18.555,-3.906,0.000
5703.000,-53.711,-36.621,13.184,-15.137,0.000
5707.000,-54.199,-38.574,5.371,-29.785,0.000
5711.000,-47.852,-29.785,1.465,-33.691,0.000
5715.000,-45.898,-25.391,-2.930,-26.855,0.000
5719.000,-44.922,-34.180,-6.348,-23.438,0.000
5722.000,-50.781,-34.180,-5.859,-24.902,0.000
5726.000,-47.363,-30.273,-3.906,-16.113,0.000
5730.000,-43.457,-35.645,-3.418,-16.602,0.000
5734.000,-41.992,-38.086,-8.789,-18.555,0.000
5738.000,-40.039,-38.574,-11.719,-14.648,0.000
5742.000,-28.809,-35.645,-7.812,-8.301,0.000
5746.000,-22.461,-34.180,-11.719,-15.625,0.000
5750.000,-26.367,-41.504,-19.043,-32.715,0.000
5754.000,-24.414,-41.016,-21.973,-29.785,0.000
5758.000,-26.855,-41.504,-23.926,-21.973,0.000
5762.000,-34.180,-36.133,-23.438,-20.996,0.000
5765.000,-40.039,-34.180,-22.461,-22.949,0.000
5769.000,-41.504,-36.133,-29.297,-28.320,0.000
5773.000,-35.156,-35.156,-34.180,-25.391,0.000
5777.000,-33.203,-34.668,-34.668,-25.879,0.000
5781.000,-41.504,-31.738,-34.668,-26.367,0.000
5785.000,-50.781,-30.273,-35.156,-14.648,0.000
5789.000,-50.781,-32.715,-37.109,-13.184,0.000
5793.000,-53.223,-34.180,-39.062,-25.391,0.000
5797.000,-51.758,-34.668,-40.527,-29.785,0.000
5801.000,-57.617,-38.574,-39.551,-30.762,0.000
5805.000,-57.617,-33.691,-36.133,-31.250,0.000
5808.000,-50.781,-34.668,-36.621,-31.250,0.000
5812.000,-57.129,-35.645,-38.574,-25.391,0.000
5816.000,-56.641,-27.344,-40.527,-24.414,0.000
5820.000,-55.176,-32.227,-44.922,-34.180,0.000
5824.000,-55.664,-33.203,-45.898,-32.227,0.000
5828.000,-51.270,-30.762,-44.922,-25.391,0.000
5832.000,-53.711,-31.738,-42.969,-22.949,0.000
5836.000,-50.781,-29.297,-41.992,-27.832,0.000
5840.000,-47.852,-28.320,-43.457,-26.855,0.000
5844.000,-37.598,-27.832,-41.016,-17.578,0.000
5847.000,-33.203,-25.391,-35.156,-11.719,0.000
5851.000,-49.316,-26.855,-35.156,-20.508,0.000
5855.000,-52.734,-37.109,-34.668,-20.996,0.000
5859.000,-30.762,-40.527,-34.180,-6.348,0.000
5863.000,-16.113,-28.809,-35.156,-3.418,0.000
5867.000,-28.809,-12.695,-51.270,-21.973,0.000
5871.000,-37.598,-13.672,-60.059,-39.062,0.000
5875.000,-46.387,-20.508,-59.570,-54.688,0.000
5879.000,-47.852,-17.578,-63.965,-54.199,0.000
5883.000,-47.852,-8.301,-65.918,-52.734,0.000
5887.000,-52.734,-1.465,-64.941,-52.734,0.000
5890.000,-53.223,1.953,-62.012,-52.734,0.000
5894.000,-62.012,-3.418,-63.477,-65.430,0.000
5898.000,-63.965,1.465,-64.453,-60.547,0.000
5902.000,-60.059,9.277,-64.453,-57.129,0.000
5906.000,-67.383,4.395,-63.965,-77.637,0.000
5910.000,-64.453,4.883,-62.988,-79.590,0.000
5914.000,-62.012,4.395,-64.941,-80.078,0.000
5918.000,-71.777,5.371,-69.824,-89.844,0.000
5922.000,-64.941,10.254,-72.754,-87.402,0.000
5926.000,-62.988,12.207,-72.266,-89.355,0.000
5930.000,-64.941,13.672,-71.289,-87.891,0.000
5933.000,-59.082,12.207,-71.289,-81.543,0.000
5937.000,-65.430,11.230,-79.102,-88.379,0.000
5941.000,-64.453,16.602,-80.566,-89.355,0.000
5945.000,-62.988,22.949,-71.777,-87.402,0.000
5949.000,-64.453,26.855,-69.824,-94.727,0.000
5953.000,-57.129,27.832,-74.219,-85.449,0.000
5957.000,-61.035,25.879,-80.566,-79.590,0.000
5961.000,-56.641,24.902,-80.566,-85.449,0.000
5965.000,-50.293,27.344,-77.637,-81.055,0.000
5969.000,-55.176,30.273,-76.660,-83.008,0.000
5972.000,-43.945,30.273,-74.219,-79.590,0.000
5976.000,-35.645,27.832,-75.195,-80.078,0.000
5980.000,-47.363,22.949,-80.566,-85.938,0.000
5984.000,-51.270,22.461,-85.449,-82.031,0.000
5988.000,-49.316,24.902,-84.473,-81.055,0.000
5992.000,-46.387,26.855,-82.031,-87.402,0.000
5996.000,-29.785,29.297,-80.566,-83.008,0.000
6000.000,-24.414,30.762,-79.102,-82.031,0.000
6004.000,-32.715,32.715,-77.637,-87.891,0.000
6008.000,-27.344,36.133,-74.219,-76.660,0.000
6012.000,-27.832,29.297,-73.242,-64.453,0.000
6015.000,-33.691,23.438,-72.754,-67.871,0.000
6019.000,-33.691,26.367,-66.895,-71.777,0.000
6023.000,-32.227,24.902,-61.035,-77.637,0.000
6027.000,-27.832,25.391,-62.500,-68.359,0.000
6031.000,-31.738,23.926,-65.430,-66.406,0.000
6035.000,-32.715,25.391,-56.152,-66.406,0.000
6039.000,-32.227,19.531,-54.688,-69.824,0.000
6043.000,-30.762,11.230,-60.059,-63.965,0.000
6047.000,-28.809,14.648,-55.664,-50.293,0.000
6051.000,-31.738,12.695,-53.223,-53.711,0.000
6055.000,-28.809,10.254,-54.688,-55.664,0.000
6058.000,-24.414,8.301,-54.688,-61.523,0.000
6062.000,-20.020,5.371,-51.758,-60.547,0.000
6066.000,-23.438,1.953,-45.410,-63.965,0.000
6070.000,-30.762,-2.930,-40.039,-59.570,0.000
6074.000,-22.461,-0.977,-42.969,-45.898,0.000
6078.000,-20.020,-1.953,-42.480,-38.574,0.000
6082.000,-42.480,-7.812,-35.156,-35.645,0.000
6086.000,-48.340,-7.812,-38.574,-29.785,0.000
6090.000,-39.551,-7.324,-38.086,-23.438,0.000
6094.000,-33.691,-11.719,-32.227,-22.949,0.000
6097.000,-33.203,-13.184,-34.180,-23.926,0.000
6101.000,-42.969,-15.137,-35.645,-31.738,0.000
6105.000,-42.480,-15.625,-32.715,-37.598,0.000
6109.000,-27.832,-10.742,-29.785,-29.297,0.000
6113.000,-23.438,-10.254,-26.855,-31.738,0.000
6117.000,-29.785,-14.160,-30.273,-36.621,0.000
6121.000,-31.738,-18.066,-29.785,-26.855,0.000
6125.000,-29.785,-17.578,-28.809,-24.902,0.000
6129.000,-26.855,-15.137,-30.273,-39.551,0.000
6133.000,-19.043,-17.578,-25.391,-30.762,0.000
6137.000,-22.461,-20.020,-22.949,-23.438,0.000
6140.000,-23.438,-13.672,-22.949,-30.273,0.000
6144.000,-14.160,-16.602,-21.484,-25.391,0.000
6148.000,-19.043,-20.508,-19.531,-25.391,0.000
6152.000,-26.855,-19.531,-20.508,-39.551,0.000
6156.000,-20.020,-17.090,-24.902,-43.457,0.000
6160.000,-18.066,-20.020,-20.020,-42.480,0.000
6164.000,-22.461,-25.391,-16.113,-49.316,0.000
6168.000,-27.832,-22.949,-12.207,-50.781,0.000
6172.000,-39.062,-21.973,-12.207,-49.805,0.000
6176.000,-38.086,-21.973,-13.672,-48.340,0.000
6179.000,-34.668,-20.508,-15.625,-41.992,0.000
6183.000,-44.434,-23.926,-17.578,-51.270,0.000
6187.000,-46.387,-21.973,-17.578,-59.570,0.000
6191.000,-44.922,-20.996,-18.555,-58.594,0.000
6195.000,-44.922,-20.996,-20.996,-63.477,0.000
6199.000,-43.457,-18.066,-20.020,-62.988,0.000
6203.000,-42.969,-17.090,-19.043,-60.547,0.000
6207.000,-47.363,-19.531,-19.043,-52.246,0.000
6211.000,-46.875,-22.461,-20.508,-49.805,0.000
6215.000,-44.922,-26.367,-23.926,-54.199,0.000
6219.000,-50.781,-29.297,-25.391,-50.781,0.000
6222.000,-45.410,-22.461,-24.902,-49.805,0.000
6226.000,-35.645,-12.695,-20.508,-40.527,0.000
6230.000,-37.598,-12.207,-21.484,-38.574,0.000
6234.000,-42.969,-11.719,-23.438,-48.340,0.000
6238.000,-40.527,-13.184,-23.926,-49.316,0.000
6242.000,-39.551,-19.531,-25.391,-43.945,0.000
6246.000,-38.086,-20.508,-24.902,-36.621,0.000
6250.000,-31.738,-16.602,-25.391,-24.414,0.000
6254.000,-32.715,-20.996,-26.855,-20.996,0.000
6258.000,-30.762,-25.879,-26.367,-27.344,0.000
6262.000,-23.926,-20.996,-25.391,-36.133,0.000
6265.000,-29.297,-19.043,-19.531,-35.645,0.000
6269.000,-27.344,-22.461,-21.973,-24.414,0.000
6273.000,-18.066,-23.926,-24.902,-23.438,0.000
6277.000,-31.738,-24.902,-24.902,-25.391,0.000
6281.000,-40.039,-24.902,-27.832,-19.531,0.000
6285.000,-35.645,-25.391,-26.367,-17.578,0.000
6289.000,-39.062,-28.809,-31.738,-17.090,0.000
6293.000,-40.527,-27.344,-29.785,-12.695,0.000
6297.000,-34.668,-25.391,-22.949,-26.367,0.000
6301.000,-40.039,-30.762,-24.414,-38.086,0.000
6304.000,-41.016,-30.762,-23.926,-34.668,0.000
6308.000,-33.203,-27.832,-21.973,-35.645,0.000
6312.000,-28.809,-26.367,-15.137,-35.156,0.000
6316.000,-34.180,-28.809,-15.625,-40.039,0.000
6320.000,-35.156,-25.879,-17.578,-40.527,0.000
6324.000,-27.344,-21.484,-14.160,-34.668,0.000
6328.000,-29.297,-22.461,-17.090,-37.109,0.000
6332.000,-33.203,-20.020,-19.531,-39.551,0.000
6336.000,-30.273,-20.020,-19.043,-39.062,0.000
6340.000,-39.551,-24.902,-22.949,-34.668,0.000
6344.000,-43.457,-24.902,-24.902,-31.250,0.000
6347.000,-35.645,-23.926,-20.020,-38.574,0.000
6351.000,-44.434,-26.855,-23.438,-47.852,0.000
6355.000,-44.922,-25.879,-29.297,-53.223,0.000
6359.000,-30.273,-20.996,-28.320,-48.340,0.000
6363.000,-33.691,-22.461,-31.738,-41.504,0.000
6367.000,-39.062,-24.902,-31.738,-51.758,0.000
6371.000,-33.203,-21.484,-28.809,-65.430,0.000
6375.000,-33.691,-19.531,-24.902,-54.199,0.000
6379.000,-30.273,-18.066,-23.926,-39.551,0.000
6383.000,-30.762,-20.996,-28.809,-52.246,0.000
6387.000,-33.691,-23.926,-31.250,-60.059,0.000
6390.000,-22.949,-20.020,-25.391,-48.340,0.000
6394.000,-22.461,-22.461,-24.414,-37.598,0.000
6398.000,-27.344,-28.320,-29.297,-26.367,0.000
6402.000,-16.113,-26.367,-26.367,-6.348,0.000
6406.000,-20.996,-25.391,-14.160,-7.812,0.000
6410.000,-41.504,-27.344,-5.371,-31.250,0.000
6414.000,-37.109,-28.320,0.977,-32.715,0.000
6418.000,-30.762,-33.691,0.488,-31.250,0.000
6422.000,-32.715,-39.551,-3.906,-36.621,0.000
6426.000,-29.785,-39.551,-1.953,-31.738,0.000
6429.000,-35.156,-42.969,-2.930,-28.320,0.000
6433.000,-29.785,-46.387,2.930,-22.461,0.000
6437.000,-29.297,-49.316,7.812,-19.531,0.000
6441.000,-35.156,-52.734,2.930,-18.066,0.000
6445.000,-32.227,-53.223,4.395,-12.695,0.000
6449.000,-41.504,-53.711,9.277,-14.648,0.000
6453.000,-51.270,-57.129,11.230,-18.555,0.000
6457.000,-39.062,-57.129,20.508,-26.367,0.000
6461.000,-29.785,-60.547,24.414,-29.785,0.000
6465.000,-42.969,-64.941,23.438,-23.438,0.000
6469.000,-61.523,-62.988,24.414,-26.855,0.000
6472.000,-71.289,-70.312,18.555,-41.504,0.000
6476.000,-68.359,-70.801,17.578,-44.434,0.000
6480.000,-62.012,-67.383,20.508,-27.344,0.000
6484.000,-67.871,-74.707,16.602,-28.320,0.000
6488.000,-65.918,-75.684,17.578,-27.344,0.000
6492.000,-53.223,-72.266,19.531,-27.344,0.000
6496.000,-63.965,-78.613,16.602,-46.875,0.000
6500.000,-79.102,-77.148,22.461,-38.574,0.000
6504.000,-78.613,-72.266,26.855,-19.043,0.000
6508.000,-68.848,-76.172,24.902,-5.371,0.000
6512.000,-64.453,-79.590,25.879,-6.836,0.000
6515.000,-65.918,-81.055,26.367,0.000,0.000
6519.000,-70.312,-80.078,22.461,0.000,0.000
6523.000,-60.547,-80.078,19.043,-2.930,0.000
6527.000,-46.387,-77.637,24.414,11.230,0.000
6531.000,-53.223,-77.148,25.391,8.301,0.000
6535.000,-53.223,-76.172,27.344,5.371,0.000
6539.000,-34.180,-74.219,31.738,17.578,0.000
6543.000,-25.391,-69.824,32.227,17.578,0.000
6547.000,-14.648,-64.941,33.691,17.090,0.000
6551.000,-1.953,-63.477,28.320,10.742,0.000
6554.000,1.465,-60.547,22.461,8.301,0.000
6558.000,7.324,-64.941,20.996,20.996,0.000
6562.000,20.508,-66.895,21.484,20.996,0.000
6566.000,22.461,-62.012,24.414,20.020,0.000
6570.000,17.090,-62.988,25.391,26.367,0.000
6574.000,20.020,-65.430,21.973,24.902,0.000
6578.000,25.879,-57.617,20.996,20.996,0.000
6582.000,26.855,-49.316,23.926,24.414,0.000
6586.000,20.996,-52.246,27.344,37.598,0.000
6590.000,20.508,-51.758,31.250,41.504,0.000
6594.000,21.973,-49.316,24.902,33.691,0.000
6597.000,23.926,-53.711,19.043,35.156,0.000
6601.000,15.137,-50.293,15.625,34.180,0.000
6605.000,4.395,-46.387,15.137,33.691,0.000
6609.000,0.977,-47.852,20.508,45.410,0.000
6613.000,-0.488,-51.270,18.066,45.410,0.000
6617.000,0.977,-52.246,14.160,40.527,0.000
6621.000,5.371,-44.922,13.672,41.504,0.000
6625.000,10.742,-44.922,14.648,31.250,0.000
6629.000,2.441,-47.363,14.160,15.625,0.000
6633.000,0.488,-43.945,10.742,12.695,0.000
6637.000,7.324,-46.387,10.742,12.207,0.000
6640.000,13.184,-42.480,8.789,11.719,0.000
6644.000,23.438,-37.598,4.883,2.930,0.000
6648.000,22.949,-39.551,1.465,-5.859,0.000
6652.000,11.230,-37.598,-0.977,-5.859,0.000
6656.000,3.906,-35.645,0.977,-13.184,0.000
6660.000,14.160,-35.156,-1.953,-14.160,0.000
6664.000,20.996,-34.668,-0.488,-0.488,0.000
6668.000,13.672,-31.250,1.953,4.395,0.000
6672.000,5.859,-29.785,-7.324,0.977,0.000
6676.000,-1.465,-33.691,-11.230,-8.301,0.000
6679.000,-10.742,-33.691,-13.184,-18.555,0.000
6683.000,-20.508,-32.227,-10.254,-20.020,0.000
6687.000,-26.367,-32.227,-8.789,-9.766,0.000
6691.000,-24.902,-31.738,-13.672,1.465,0.000
6695.000,-21.484,-31.738,-14.160,-3.906,0.000
6699.000,-13.672,-29.785,-12.695,-0.977,0.000
6703.000,-20.508,-29.785,-14.648,-13.184,0.000
6707.000,-24.414,-28.809,-15.625,-14.648,0.000
6711.000,-18.555,-27.832,-13.672,0.000,0.000
6715.000,-23.438,-32.715,-17.578,-13.184,0.000
6719.000,-23.926,-31.250,-22.949,-23.926,0.000
6722.000,-21.973,-28.809,-20.020,-25.879,0.000
6726.000,-15.625,-26.367,-16.602,-21.484,0.000
6730.000,-8.301,-21.973,-14.648,-15.137,0.000
6734.000,-16.602,-22.949,-17.090,-11.230,0.000
6738.000,-16.602,-28.320,-17.578,-20.508,0.000
6742.000,-6.348,-25.391,-17.090,-20.508,0.000
6746.000,-5.371,-24.902,-20.020,-21.484,0.000
6750.000,-8.789,-27.344,-21.484,-32.227,0.000
6754.000,-14.648,-23.926,-17.090,-34.668,0.000
6758.000,-26.855,-21.973,-12.695,-22.461,0.000
6762.000,-28.320,-23.926,-10.742,-20.508,0.000
6765.000,-25.879,-27.832,-12.207,-26.855,0.000
6769.000,-33.203,-30.273,-13.672,-25.391,0.000
6773.000,-33.203,-26.367,-15.625,-23.438,0.000
6777.000,-24.414,-21.973,-15.137,-13.672,0.000
6781.000,-28.320,-28.320,-14.160,-15.137,0.000
6785.000,-30.273,-31.250,-16.113,-20.020,0.000
6789.000,-26.855,-29.785,-17.090,-23.438,0.000
6793.000,-26.367,-26.855,-17.578,-22.461,0.000
6797.000,-30.762,-25.879,-20.508,-12.695,0.000
6801.000,-25.879,-24.902,-22.949,-18.555,0.000
6804.000,-23.438,-21.973,-15.625,-35.156,0.000
6808.000,-23.926,-23.438,-17.090,-36.133,0.000
6812.000,-18.555,-27.344,-17.578,-29.297,0.000
6816.000,-25.391,-37.598,-14.648,-27.832,0.000
6820.000,-8.301,-38.086,-12.695,-5.371,0.000
6824.000,13.184,-27.832,-11.719,6.836,0.000
6828.000,-25.879,-16.113,-27.832,-38.574,0.000
6832.000,-60.547,-17.578,-36.133,-69.824,0.000
6836.000,-58.594,-20.508,-34.180,-64.453,0.000
6840.000,-67.871,-14.648,-36.621,-73.730,0.000
6844.000,-83.496,-12.207,-41.016,-86.426,0.000
6847.000,-81.543,-16.113,-44.922,-101.074,0.000
6851.000,-81.543,-12.695,-51.270,-122.559,0.000
6855.000,-93.262,-9.277,-52.246,-134.277,0.000
6859.000,-102.539,-12.695,-54.199,-142.090,0.000
6863.000,-104.980,-8.789,-60.059,-141.113,0.000
6867.000,-101.074,-3.418,-60.059,-143.066,0.000
6871.000,-105.469,-2.441,-58.594,-145.996,0.000
6875.000,-105.957,0.000,-58.105,-139.160,0.000
6879.000,-103.027,3.418,-60.059,-137.207,0.000
6883.000,-119.141,9.277,-64.941,-139.648,0.000
6887.000,-122.559,11.230,-64.941,-137.207,0.000
6890.000,-116.699,17.578,-62.012,-134.277,0.000
6894.000,-107.422,24.902,-61.035,-134.766,0.000
6898.000,-106.934,22.949,-64.941,-129.883,0.000
6902.000,-102.051,25.391,-64.453,-126.953,0.000
6906.000,-91.797,23.926,-63.477,-131.836,0.000
6910.000,-80.566,16.602,-66.895,-122.070,0.000
6914.000,-64.453,19.043,-63.477,-107.422,0.000
6918.000,-66.895,20.020,-62.988,-114.258,0.000
6922.000,-56.641,18.066,-66.406,-110.840,0.000
6926.000,-39.062,21.973,-62.988,-84.473,0.000
6929.000,-48.340,18.066,-66.895,-86.914,0.000
6933.000,-50.781,16.113,-70.312,-84.473,0.000
6937.000,-38.086,20.508,-64.941,-67.383,0.000
6941.000,-30.762,20.020,-58.594,-66.406,0.000
6945.000,-28.320,17.578,-53.223,-68.359,0.000
6949.000,-36.133,14.648,-56.152,-70.312,0.000
6953.000,-41.016,8.789,-58.105,-64.941,0.000
6957.000,-38.086,6.348,-49.805,-57.617,0.000
6961.000,-32.715,2.441,-43.457,-59.570,0.000
6965.000,-34.668,0.488,-43.945,-56.152,0.000
6969.000,-41.504,3.906,-41.016,-52.246,0.000
6972.000,-37.598,0.488,-41.016,-50.781,0.000
6976.000,-28.320,-0.977,-45.410,-54.688,0.000
6980.000,-28.320,-5.371,-48.340,-54.199,0.000
6984.000,-35.156,-5.859,-45.410,-45.898,0.000
6988.000,-31.738,-1.953,-37.598,-40.039,0.000
6992.000,-26.855,-0.977,-33.203,-39.551,0.000
6996.000,-22.461,-1.953,-34.180,-30.762,0.000
7000.000,-18.066,-3.906,-27.344,-23.438,0.000
7004.000,-23.926,-3.418,-29.297,-24.902,0.000
7008.000,-26.367,-11.230,-37.109,-24.414,0.000
7012.000,-20.996,-17.578,-35.156,-14.648,0.000
7015.000,-20.020,-17.090,-31.738,-8.789,0.000
7019.000,-21.484,-15.625,-28.809,-2.441,0.000
7023.000,-14.648,-13.184,-26.367,-3.906,0.000
7027.000,-5.371,-12.207,-29.785,-21.484,0.000
7031.000,-9.277,-15.137,-26.367,-28.320,0.000
7035.000,-16.602,-12.695,-21.973,-18.066,0.000
7039.000,-20.996,-11.230,-23.438,-16.602,0.000
7043.000,-23.438,-14.648,-19.043,-15.625,0.000
7047.000,-22.461,-17.578,-18.066,-13.672,0.000
7051.000,-31.250,-21.484,-19.043,-7.812,0.000
7054.000,-36.621,-20.996,-18.066,-4.883,0.000
7058.000,-26.367,-18.555,-18.066,-2.930,0.000
7062.000,-21.484,-15.625,-17.090,0.977,0.000
7066.000,-28.320,-18.555,-20.020,-7.324,0.000
7070.000,-33.203,-21.484,-22.949,-19.043,0.000
7074.000,-31.738,-23.438,-20.996,-25.879,0.000
7078.000,-25.391,-22.461,-19.043,-18.555,0.000
7082.000,-21.973,-15.137,-20.508,-20.020,0.000
7086.000,-25.391,-15.625,-24.902,-27.832,0.000
7090.000,-28.320,-21.484,-28.320,-28.809,0.000
7094.000,-29.785,-21.973,-29.785,-33.691,0.000
7097.000,-33.691,-19.043,-32.227,-41.992,0.000
7101.000,-37.598,-14.648,-30.762,-44.922,0.000
7105.000,-39.062,-14.160,-22.949,-37.598,0.000
7109.000,-34.180,-23.438,-28.809,-39.551,0.000
7113.000,-37.598,-33.203,-39.062,-60.547,0.000
7117.000,-47.852,-35.156,-35.156,-66.895,0.000
7121.000,-48.340,-31.738,-32.227,-58.105,0.000
7125.000,-45.410,-29.297,-31.250,-48.828,0.000
7129.000,-43.945,-24.902,-29.785,-42.480,0.000
7133.000,-44.922,-28.320,-30.273,-43.945,0.000
7136.000,-51.758,-25.879,-24.414,-36.133,0.000
7140.000,-54.199,-25.391,-21.484,-24.414,0.000
7144.000,-41.504,-27.832,-26.367,-28.320,0.000
7148.000,-34.668,-26.855,-24.902,-37.109,0.000
7152.000,-37.598,-25.879,-21.484,-43.457,0.000
7156.000,-35.156,-26.367,-23.438,-39.062,0.000
7160.000,-30.762,-25.879,-23.438,-32.715,0.000
7164.000,-42.480,-25.879,-20.508,-40.039,0.000
7168.000,-53.711,-28.320,-21.484,-40.039,0.000
7172.000,-52.246,-31.250,-15.625,-29.297,0.000
7176.000,-45.410,-26.855,-14.160,-33.691,0.000
7179.000,-47.363,-25.391,-21.973,-40.039,0.000
7183.000,-51.758,-24.902,-18.555,-32.715,0.000
7187.000,-57.617,-24.902,-18.555,-36.133,0.000
7191.000,-57.129,-29.297,-22.949,-50.781,0.000
7195.000,-46.387,-28.809,-21.973,-41.992,0.000
7199.000,-41.992,-24.902,-23.438,-21.973,0.000
7203.000,-43.945,-28.809,-21.484,-24.902,0.000
7207.000,-43.457,-29.297,-20.508,-35.645,0.000
7211.000,-30.762,-26.367,-21.973,-16.113,0.000
7215.000,-23.438,-23.926,-20.996,-13.184,0.000
7219.000,-24.414,-22.461,-19.531,-26.855,0.000
7222.000,-4.883,-20.508,-21.484,-19.531,0.000
7226.000,16.602,-15.137,-20.020,-6.836,0.000
7230.000,0.488,-15.137,-14.160,0.977,0.000
7234.000,-32.227,-21.484,-14.160,-21.973,0.000
7238.000,-37.598,-26.855,-11.719,-19.043,0.000
7242.000,-21.973,-32.227,-10.254,8.301,0.000
7246.000,-4.395,-35.156,-5.859,5.371,0.000
7250.000,-20.508,-42.969,-1.465,-10.742,0.000
7254.000,-27.832,-45.410,1.953,-4.395,0.000
7258.000,-3.906,-37.598,8.301,3.418,0.000
7261.000,-3.906,-41.016,7.324,-0.488,0.000
7265.000,-15.137,-46.387,1.465,-10.254,0.000
7269.000,-16.113,-52.246,6.348,-13.184,0.000
7273.000,-15.625,-60.059,11.230,14.160,0.000
7277.000,-15.137,-61.523,10.742,42.480,0.000
7281.000,-20.996,-65.430,9.766,31.738,0.000
7285.000,-28.809,-70.801,12.207,20.996,0.000
7289.000,-15.625,-71.777,19.043,34.180,0.000
7293.000,-10.254,-67.871,16.602,22.949,0.000
7297.000,-17.090,-70.312,13.184,12.207,0.000
7301.000,-24.414,-78.613,15.137,11.719,0.000
7304.000,-19.043,-77.148,15.625,20.020,0.000
7308.000,-3.418,-75.684,14.648,26.367,0.000
7312.000,4.395,-73.730,19.531,22.949,0.000
7316.000,4.395,-69.336,25.879,35.645,0.000
7320.000,-5.859,-73.242,27.832,35.645,0.000
7324.000,-11.230,-74.707,21.973,19.043,0.000
7328.000,0.488,-69.824,20.508,28.809,0.000
7332.000,-6.348,-71.289,24.902,33.203,0.000
7336.000,-23.438,-74.707,12.695,10.742,0.000
7340.000,-18.066,-72.754,6.836,12.207,0.000
7344.000,-9.277,-65.918,17.578,30.762,0.000
7347.000,-7.812,-61.523,21.973,37.109,0.000
7351.000,-13.184,-61.035,20.020,41.016,0.000
7355.000,-19.043,-60.547,18.555,50.293,0.000
