timestamp,TP9,AF7,AF8,TP10,Right AUX
0.000,-49.805,-27.344,-26.367,-32.715,0.000
4.000,-51.270,-29.785,-29.297,-41.992,0.000
8.000,-41.016,-27.832,-26.855,-40.527,0.000
12.000,-30.762,-28.320,-26.367,-28.809,0.000
16.000,-28.809,-26.855,-27.344,-26.855,0.000
20.000,-36.133,-21.973,-24.902,-27.832,0.000
23.000,-36.621,-22.461,-18.555,-22.461,0.000
27.000,-32.227,-21.484,-21.484,-16.602,0.000
31.000,-29.297,-18.555,-23.926,-20.996,0.000
35.000,-29.785,-24.414,-26.855,-30.762,0.000
39.000,-25.391,-29.297,-33.203,-38.574,0.000
43.000,-24.902,-26.855,-34.180,-37.598,0.000
47.000,-22.949,-24.414,-31.250,-33.691,0.000
51.000,-19.043,-25.391,-29.297,-34.180,0.000
55.000,-11.230,-24.902,-34.180,-33.203,0.000
59.000,6.836,-20.996,-30.762,-28.320,0.000
62.000,16.602,-22.461,-23.438,-17.090,0.000
66.000,-10.742,-27.344,-23.926,-12.207,0.000
70.000,-52.246,-27.832,-23.438,-12.207,0.000
74.000,-62.988,-22.461,-24.902,-12.695,0.000
78.000,-42.480,-21.973,-25.879,-19.043,0.000
82.000,-34.180,-28.320,-27.832,-13.184,0.000
86.000,-28.320,-26.367,-29.297,-13.184,0.000
90.000,-23.926,-17.090,-26.855,-16.602,0.000
94.000,-21.973,-15.137,-23.438,-11.719,0.000
98.000,-13.184,-18.066,-22.461,-21.973,0.000
102.000,-21.484,-21.973,-19.531,-18.066,0.000
105.000,-34.180,-20.508,-20.020,-4.883,0.000
109.000,-35.156,-16.602,-23.926,-11.719,0.000
113.000,-54.199,-20.996,-24.902,-32.715,0.000
117.000,-46.875,-26.855,-24.902,-32.715,0.000
121.000,-15.137,-18.066,-22.949,-20.996,0.000
125.000,-13.672,-18.555,-23.926,-33.203,0.000
129.000,-27.832,-27.344,-23.438,-36.133,0.000
133.000,-48.828,-27.344,-23.438,-27.344,0.000
137.000,-55.664,-29.297,-23.926,-31.738,0.000
141.000,-37.109,-33.203,-25.391,-28.809,0.000
145.000,-19.043,-34.180,-31.738,-33.203,0.000
148.000,-30.273,-29.785,-29.297,-32.715,0.000
152.000,-31.250,-27.344,-27.832,-31.250,0.000
156.000,-39.551,-26.855,-32.715,-41.504,0.000
160.000,-41.992,-25.879,-31.250,-35.645,0.000
164.000,-30.273,-24.414,-26.855,-31.250,0.000
168.000,-45.410,-24.902,-29.785,-34.668,0.000
172.000,-44.434,-27.832,-31.250,-30.762,0.000
176.000,-32.715,-26.855,-29.785,-26.367,0.000
180.000,-25.391,-25.391,-30.762,-32.227,0.000
184.000,-24.902,-26.855,-26.855,-37.598,0.000
187.000,-35.645,-27.832,-21.973,-33.203,0.000
191.000,-34.180,-27.344,-20.508,-32.227,0.000
195.000,-32.715,-29.297,-22.949,-29.785,0.000
199.000,-31.250,-29.297,-19.531,-24.414,0.000
203.000,-36.133,-30.762,-16.113,-27.344,0.000
207.000,-36.133,-34.180,-16.602,-35.156,0.000
211.000,-34.668,-33.203,-19.043,-32.227,0.000
215.000,-39.062,-36.621,-22.461,-30.273,0.000
219.000,-31.738,-41.504,-24.414,-31.250,0.000
223.000,-28.809,-29.297,-23.926,-20.508,0.000
227.000,-33.691,-31.738,-31.250,-26.367,0.000
230.000,-43.945,-38.086,-34.668,-30.273,0.000
234.000,-48.828,-32.715,-27.344,-27.344,0.000
238.000,-46.387,-26.855,-24.902,-33.203,0.000
242.000,-41.016,-21.973,-23.926,-30.273,0.000
246.000,-25.879,-25.879,-20.508,-31.738,0.000
250.000,-32.715,-35.645,-20.020,-29.297,0.000
254.000,-37.109,-36.133,-23.438,-29.785,0.000
258.000,-38.086,-31.250,-21.973,-33.203,0.000
262.000,-41.504,-30.762,-20.508,-29.297,0.000
266.000,-32.227,-32.227,-23.438,-27.344,0.000
270.000,-49.316,-34.180,-26.855,-34.180,0.000
273.000,-55.664,-31.250,-23.926,-34.668,0.000
277.000,-42.480,-28.809,-15.137,-27.344,0.000
281.000,-42.480,-25.879,-17.090,-22.949,0.000
285.000,-27.832,-27.344,-24.902,-18.066,0.000
289.000,-3.906,-24.414,-22.949,0.977,0.000
293.000,-25.879,-24.414,-21.973,-10.742,0.000
297.000,-48.828,-34.180,-27.344,-39.062,0.000
301.000,-49.316,-38.574,-29.297,-28.320,0.000
305.000,-33.691,-33.203,-25.879,-13.184,0.000
309.000,-13.672,-29.297,-23.438,-8.301,0.000
312.000,-11.719,-32.715,-29.297,-7.324,0.000
316.000,-13.184,-29.297,-33.203,-10.254,0.000
320.000,-16.602,-26.855,-29.785,-11.719,0.000
324.000,-3.418,-28.320,-29.785,-10.254,0.000
328.000,15.137,-24.414,-28.320,-1.953,0.000
332.000,9.766,-21.484,-26.367,3.418,0.000
336.000,1.953,-18.555,-23.438,6.348,0.000
340.000,3.418,-16.113,-20.020,6.348,0.000
344.000,16.602,-14.160,-20.996,14.648,0.000
348.000,22.949,-15.625,-19.531,13.184,0.000
352.000,23.438,-15.137,-17.090,3.906,0.000
355.000,22.461,-17.578,-20.996,3.418,0.000
359.000,14.160,-24.414,-24.902,-8.789,0.000
363.000,4.395,-23.926,-22.949,-11.230,0.000
367.000,-12.207,-25.391,-18.066,-1.465,0.000
371.000,-24.414,-23.438,-14.648,-3.906,0.000
375.000,-16.113,-22.461,-15.137,1.465,0.000
379.000,-9.277,-25.879,-19.043,4.395,0.000
383.000,-5.371,-18.066,-19.531,2.930,0.000
387.000,-1.953,-15.137,-20.508,-6.836,0.000
391.000,1.465,-20.508,-26.367,-8.301,0.000
394.000,0.977,-16.113,-30.273,3.418,0.000
398.000,-22.949,-18.066,-26.367,1.465,0.000
402.000,-38.574,-17.578,-21.973,1.465,0.000
406.000,-35.645,-18.066,-23.438,-9.277,0.000
410.000,-22.949,-19.531,-19.531,-11.719,0.000
414.000,-6.836,-17.578,-17.090,-4.395,0.000
418.000,-10.742,-26.367,-20.996,-7.324,0.000
422.000,-27.344,-32.227,-24.902,-14.160,0.000
426.000,-24.414,-25.391,-28.320,-18.066,0.000
430.000,-15.137,-19.043,-27.832,-18.555,0.000
434.000,-36.133,-19.043,-24.414,-23.926,0.000
437.000,-50.293,-18.555,-19.531,-22.461,0.000
441.000,-38.574,-20.508,-24.414,-35.156,0.000
445.000,-26.855,-21.973,-30.762,-40.039,0.000
449.000,-33.203,-22.461,-29.297,-30.762,0.000
453.000,-61.523,-24.902,-24.414,-26.855,0.000
457.000,-61.523,-23.926,-20.996,-26.855,0.000
461.000,-40.039,-22.461,-21.973,-23.926,0.000
465.000,-29.785,-18.066,-25.391,-27.832,0.000
469.000,-26.855,-20.508,-25.879,-40.039,0.000
473.000,-22.949,-24.902,-25.391,-43.945,0.000
477.000,-18.555,-25.391,-27.832,-39.062,0.000
480.000,-15.137,-26.855,-28.320,-38.574,0.000
484.000,-11.230,-30.762,-24.902,-34.668,0.000
488.000,-18.555,-36.621,-26.855,-30.273,0.000
492.000,-37.109,-33.203,-26.855,-33.691,0.000
496.000,-47.852,-34.180,-27.832,-35.156,0.000
500.000,-41.504,-39.551,-31.738,-26.367,0.000
504.000,-32.715,-35.156,-30.273,-20.508,0.000
508.000,-10.742,-28.809,-28.809,-27.344,0.000
512.000,-0.977,-24.902,-25.879,-29.297,0.000
516.000,-25.391,-28.320,-19.043,-27.832,0.000
519.000,-34.180,-28.320,-17.578,-18.066,0.000
523.000,-28.320,-23.926,-18.066,-14.160,0.000
527.000,-25.391,-27.832,-21.484,-20.508,0.000
531.000,-36.621,-25.879,-23.926,-16.113,0.000
535.000,-56.152,-29.297,-26.367,-15.625,0.000
539.000,-44.922,-29.785,-23.438,-17.578,0.000
543.000,-43.945,-28.320,-23.438,-22.461,0.000
547.000,-37.109,-25.879,-27.344,-29.785,0.000
551.000,-25.391,-13.184,-20.996,-27.832,0.000
555.000,-35.156,-11.719,-18.066,-32.227,0.000
559.000,-32.715,-18.555,-11.719,-31.250,0.000
562.000,-12.695,-17.578,-7.812,-20.996,0.000
566.000,-14.648,-18.555,-12.207,-22.949,0.000
570.000,-29.297,-19.043,-12.207,-20.508,0.000
574.000,-13.672,-18.066,-11.230,-14.648,0.000
578.000,-11.230,-16.602,-13.672,-16.113,0.000
582.000,-20.996,-16.113,-18.066,-14.160,0.000
586.000,-15.625,-19.531,-19.043,-19.531,0.000
590.000,-16.602,-20.020,-17.090,-24.902,0.000
594.000,-6.348,-19.531,-13.672,-23.438,0.000
598.000,-20.508,-25.879,-18.555,-24.902,0.000
602.000,-43.457,-23.926,-25.879,-28.809,0.000
605.000,-26.367,-17.578,-23.438,-30.273,0.000
609.000,-8.301,-18.555,-21.484,-27.344,0.000
613.000,1.953,-21.484,-24.414,-29.297,0.000
617.000,-11.230,-18.066,-27.344,-25.879,0.000
621.000,-28.320,-19.043,-25.391,-23.438,0.000
625.000,-26.855,-20.020,-20.508,-23.438,0.000
629.000,-27.832,-20.508,-19.043,-21.484,0.000
633.000,-33.203,-26.855,-20.508,-28.320,0.000
637.000,-31.738,-25.391,-22.949,-40.039,0.000
641.000,-34.180,-27.344,-25.879,-39.551,0.000
644.000,-35.156,-24.414,-29.297,-30.762,0.000
648.000,-22.949,-18.555,-30.273,-33.203,0.000
652.000,-18.555,-20.508,-25.391,-31.250,0.000
656.000,-21.973,-23.926,-27.832,-26.855,0.000
660.000,-21.484,-35.645,-31.738,-36.133,0.000
664.000,-20.996,-35.156,-26.855,-39.062,0.000
668.000,-31.738,-27.832,-23.438,-40.527,0.000
672.000,-29.785,-25.391,-22.461,-36.621,0.000
676.000,-22.461,-26.367,-20.508,-32.715,0.000
680.000,-19.531,-28.320,-20.996,-33.691,0.000
684.000,-27.832,-26.855,-21.484,-29.785,0.000
687.000,-28.320,-21.484,-20.020,-26.855,0.000
691.000,-18.066,-25.391,-25.879,-23.438,0.000
695.000,-16.113,-31.250,-29.297,-28.809,0.000
699.000,-15.625,-24.414,-26.367,-30.762,0.000
703.000,-26.367,-24.902,-25.879,-30.273,0.000
707.000,-31.738,-28.320,-23.438,-28.809,0.000
711.000,-29.785,-28.320,-22.949,-24.902,0.000
715.000,-36.621,-27.344,-19.043,-22.461,0.000
719.000,-41.992,-23.926,-19.531,-31.250,0.000
723.000,-36.621,-27.832,-24.414,-34.180,0.000
726.000,-27.832,-31.250,-23.926,-29.785,0.000
730.000,-19.043,-28.320,-23.926,-29.785,0.000
734.000,-14.648,-27.832,-28.320,-27.344,0.000
738.000,-24.902,-27.344,-27.344,-19.531,0.000
742.000,-24.902,-28.809,-22.461,-8.789,0.000
746.000,-13.672,-25.391,-21.484,-7.812,0.000
750.000,-22.949,-22.461,-20.508,-9.766,0.000
754.000,-25.879,-20.996,-21.973,-5.371,0.000
758.000,-17.578,-20.996,-21.973,-1.953,0.000
762.000,-7.812,-25.879,-20.508,-9.766,0.000
766.000,-7.812,-27.344,-21.973,-7.324,0.000
769.000,-16.602,-19.043,-20.508,-4.883,0.000
773.000,-18.066,-20.508,-19.531,-11.230,0.000
777.000,-9.766,-32.227,-20.508,-5.371,0.000
781.000,9.277,-30.273,-21.973,-0.488,0.000
785.000,16.113,-17.090,-20.020,-0.488,0.000
789.000,-6.348,-13.184,-15.137,1.465,0.000
793.000,-25.391,-25.879,-17.578,-10.742,0.000
797.000,-27.344,-36.133,-21.484,-33.691,0.000
801.000,-22.461,-29.297,-25.879,-32.715,0.000
805.000,-29.297,-34.668,-29.785,-20.996,0.000
809.000,-45.410,-30.762,-24.902,-27.832,0.000
812.000,-29.297,-31.738,-20.508,-30.762,0.000
816.000,-20.996,-52.246,-21.973,-34.668,0.000
820.000,-38.574,-54.688,-20.996,-46.875,0.000
824.000,-52.734,-38.574,-12.695,-46.387,0.000
828.000,-73.242,-24.414,-18.555,-49.316,0.000
832.000,-85.938,-34.180,-26.855,-59.082,0.000
836.000,-77.148,-34.180,-19.531,-54.688,0.000
840.000,-74.219,-27.344,-20.996,-61.035,0.000
844.000,-68.848,-41.016,-27.344,-69.336,0.000
848.000,-64.941,-55.664,-21.484,-64.941,0.000
851.000,-81.055,-38.086,-18.066,-70.312,0.000
855.000,-67.871,-14.648,-19.531,-62.500,0.000
859.000,-43.457,-27.832,-16.602,-51.270,0.000
863.000,-41.504,-39.062,-23.438,-45.410,0.000
867.000,-58.594,-34.180,-23.438,-49.316,0.000
871.000,-65.918,-28.809,-19.531,-64.453,0.000
875.000,-59.570,-38.086,-28.809,-57.617,0.000
879.000,-63.477,-33.203,-29.785,-35.645,0.000
883.000,-65.430,-27.344,-26.367,-38.086,0.000
887.000,-53.223,-29.297,-25.879,-39.551,0.000
891.000,-32.227,-24.414,-22.461,-28.809,0.000
894.000,-37.598,-22.949,-26.855,-25.391,0.000
898.000,-36.621,-24.414,-29.785,-31.250,0.000
902.000,-31.738,-27.344,-24.414,-31.250,0.000
906.000,-39.551,-29.297,-26.855,-20.996,0.000
910.000,-31.738,-27.832,-31.250,-14.160,0.000
914.000,-28.320,-28.809,-33.691,-14.648,0.000
918.000,-20.996,-24.902,-31.738,-11.230,0.000
922.000,-17.578,-23.926,-29.297,-4.883,0.000
926.000,-13.184,-29.785,-27.832,-3.418,0.000
930.000,-10.254,-22.949,-22.461,-2.930,0.000
934.000,-24.902,-23.926,-23.926,-9.766,0.000
937.000,-27.832,-33.691,-25.879,-5.859,0.000
941.000,-34.180,-28.320,-21.973,5.371,0.000
945.000,-38.574,-23.438,-23.438,7.324,0.000
949.000,-41.504,-24.902,-25.391,0.488,0.000
953.000,-35.156,-25.391,-25.879,-8.301,0.000
957.000,-29.297,-21.484,-28.320,-4.395,0.000
961.000,-21.484,-16.602,-27.832,-6.348,0.000
965.000,-7.812,-19.531,-27.344,-3.418,0.000
969.000,-23.926,-24.414,-26.367,5.371,0.000
973.000,-32.715,-23.438,-26.855,1.953,0.000
976.000,-14.648,-21.973,-29.297,-6.836,0.000
980.000,-5.371,-21.973,-26.855,-11.230,0.000
984.000,-9.277,-26.367,-22.949,-4.883,0.000
988.000,-16.113,-28.809,-22.949,-2.930,0.000
992.000,-21.973,-31.738,-28.809,-11.719,0.000
996.000,-6.836,-28.320,-26.855,-15.137,0.000
1000.000,-11.719,-28.809,-22.949,-14.648,0.000
1004.000,-30.762,-34.180,-29.297,-24.414,0.000
1008.000,-27.344,-31.250,-31.250,-28.320,0.000
1012.000,-14.160,-27.832,-29.785,-30.762,0.000
1016.000,0.488,-26.367,-27.832,-25.879,0.000
1019.000,-18.066,-24.414,-28.320,-23.438,0.000
1023.000,-39.551,-29.297,-28.320,-29.297,0.000
1027.000,-28.809,-30.762,-23.926,-25.391,0.000
1031.000,-30.762,-25.391,-24.414,-22.461,0.000
1035.000,-39.551,-20.508,-29.297,-22.949,0.000
1039.000,-31.738,-21.973,-30.762,-22.949,0.000
1043.000,-31.738,-25.879,-29.785,-17.578,0.000
1047.000,-29.297,-23.926,-28.809,-17.578,0.000
1051.000,-33.691,-31.250,-28.320,-21.484,0.000
1055.000,-42.969,-39.062,-31.738,-18.555,0.000
1058.000,-28.809,-27.344,-29.785,-15.625,0.000
1062.000,-10.742,-21.484,-28.320,-19.531,0.000
1066.000,-13.672,-28.320,-33.691,-32.715,0.000
1070.000,-42.969,-28.320,-34.180,-40.039,0.000
1074.000,-47.363,-23.926,-30.762,-36.621,0.000
1078.000,-28.320,-24.414,-32.227,-36.621,0.000
1082.000,-15.625,-25.391,-36.133,-32.715,0.000
1086.000,-6.348,-28.809,-27.344,-20.508,0.000
1090.000,-7.812,-26.367,-20.020,-24.902,0.000
1094.000,-12.207,-22.461,-29.297,-42.969,0.000
1098.000,-18.555,-29.785,-32.715,-48.340,0.000
1101.000,-35.156,-30.273,-32.715,-44.434,0.000
1105.000,-18.066,-27.832,-34.668,-20.020,0.000
1109.000,10.742,-19.531,-35.645,-19.531,0.000
1113.000,6.348,-21.484,-31.250,-34.668,0.000
1117.000,-14.648,-30.762,-23.926,-18.066,0.000
1121.000,-52.734,-25.879,-23.926,-17.090,0.000
1125.000,-57.617,-23.438,-25.879,-25.391,0.000
1129.000,-22.949,-22.949,-21.973,-17.578,0.000
1133.000,-19.531,-20.508,-26.855,-16.602,0.000
1137.000,-17.090,-18.066,-29.297,-13.184,0.000
1141.000,-10.254,-19.043,-24.902,-7.812,0.000
1144.000,-10.742,-24.414,-27.832,-16.113,0.000
1148.000,-8.301,-23.438,-27.344,-12.695,0.000
1152.000,-21.484,-22.949,-27.832,-9.277,0.000
1156.000,-20.508,-23.438,-27.832,-17.090,0.000
1160.000,-7.324,-20.508,-24.902,-19.531,0.000
1164.000,-1.465,-21.484,-20.508,-18.066,0.000
1168.000,-7.812,-20.020,-20.020,-6.348,0.000
1172.000,-15.137,-13.184,-19.531,1.465,0.000
1176.000,-15.137,-11.719,-23.438,-2.441,0.000
1180.000,-14.160,-16.113,-23.438,0.977,0.000
1183.000,-13.184,-17.090,-27.832,-6.836,0.000
1187.000,-24.902,-21.484,-36.621,-22.461,0.000
1191.000,-29.297,-27.832,-33.203,-27.832,0.000
1195.000,-24.902,-23.438,-27.832,-21.973,0.000
1199.000,-27.344,-24.414,-28.320,-21.484,0.000
1203.000,-27.344,-27.344,-28.320,-26.367,0.000
1207.000,-15.625,-23.438,-26.855,-17.090,0.000
1211.000,-5.371,-28.809,-29.785,-19.043,0.000
1215.000,3.906,-29.785,-31.250,-30.273,0.000
1219.000,8.789,-25.391,-25.879,-31.250,0.000
1223.000,-15.137,-27.344,-23.926,-26.367,0.000
1226.000,-35.156,-27.832,-25.391,-20.996,0.000
1230.000,-40.527,-29.785,-23.926,-21.484,0.000
1234.000,-41.016,-32.227,-21.973,-22.949,0.000
1238.000,-42.969,-28.320,-20.020,-24.414,0.000
1242.000,-40.527,-28.320,-19.043,-20.020,0.000
1246.000,-32.715,-34.180,-22.949,-23.438,0.000
1250.000,-16.602,-29.297,-24.414,-32.227,0.000
1254.000,-23.926,-32.715,-24.414,-29.785,0.000
1258.000,-26.855,-41.016,-28.320,-29.785,0.000
1262.000,-27.344,-32.227,-29.297,-23.926,0.000
1266.000,-47.852,-22.461,-26.367,-9.766,0.000
1269.000,-43.457,-18.066,-22.949,-11.230,0.000
1273.000,-59.082,-24.414,-26.855,-35.156,0.000
1277.000,-70.312,-31.250,-34.180,-49.805,0.000
1281.000,-46.387,-28.809,-32.715,-33.691,0.000
1285.000,-40.527,-26.855,-28.809,-35.645,0.000
1289.000,-46.875,-29.785,-31.250,-46.875,0.000
1293.000,-47.852,-35.156,-39.551,-54.688,0.000
1297.000,-42.480,-33.203,-35.156,-54.199,0.000
1301.000,-34.180,-27.832,-27.344,-41.504,0.000
1305.000,-31.250,-32.715,-30.273,-40.039,0.000
1308.000,-32.227,-31.250,-30.762,-35.645,0.000
1312.000,-36.621,-32.715,-26.367,-32.715,0.000
1316.000,-36.133,-36.621,-22.461,-31.738,0.000
1320.000,-31.250,-28.809,-23.438,-32.227,0.000
1324.000,-34.180,-31.250,-24.414,-30.762,0.000
1328.000,-35.645,-32.227,-24.414,-30.273,0.000
1332.000,-34.180,-25.391,-28.809,-26.855,0.000
1336.000,-39.062,-23.926,-28.320,-17.090,0.000
1340.000,-44.922,-31.738,-23.926,-20.508,0.000
1344.000,-32.227,-29.785,-23.926,-16.113,0.000
1348.000,-8.789,-26.367,-23.438,-14.648,0.000
1351.000,-19.043,-29.297,-24.414,-28.809,0.000
1355.000,-40.527,-30.273,-24.414,-27.832,0.000
1359.000,-40.527,-25.879,-19.043,-20.020,0.000
1363.000,-44.434,-21.484,-18.066,-26.855,0.000
1367.000,-47.852,-24.414,-21.484,-31.738,0.000
1371.000,-37.109,-27.344,-23.438,-38.086,0.000
1375.000,-23.438,-29.297,-20.508,-37.109,0.000
1379.000,-24.902,-28.320,-17.578,-26.855,0.000
1383.000,-23.438,-22.461,-16.113,-33.203,0.000
1387.000,-30.762,-19.531,-14.160,-33.691,0.000
1390.000,-41.016,-14.160,-12.207,-13.184,0.000
1394.000,-24.902,-16.113,-13.672,-15.625,0.000
1398.000,-18.555,-23.926,-17.578,-38.086,0.000
1402.000,-8.789,-20.020,-17.090,-35.156,0.000
1406.000,-9.277,-17.090,-15.137,-23.926,0.000
1410.000,-24.414,-18.555,-15.137,-27.344,0.000
1414.000,-15.625,-19.043,-14.648,-34.180,0.000
1418.000,-13.672,-17.578,-18.066,-39.062,0.000
1422.000,-36.621,-17.578,-19.043,-41.016,0.000
1426.000,-31.250,-20.020,-22.949,-40.527,0.000
1430.000,-15.625,-20.508,-27.344,-38.086,0.000
1433.000,-20.020,-21.484,-22.949,-35.156,0.000
1437.000,-36.133,-22.949,-20.508,-31.738,0.000
1441.000,-35.645,-21.973,-18.066,-31.738,0.000
1445.000,-26.367,-17.090,-16.602,-34.668,0.000
1449.000,-26.855,-15.137,-21.484,-37.109,0.000
1453.000,-32.715,-14.648,-25.391,-35.156,0.000
1457.000,-35.156,-16.602,-27.344,-31.250,0.000
1461.000,-16.602,-18.555,-24.414,-28.320,0.000
1465.000,-4.395,-19.531,-21.973,-29.297,0.000
1469.000,-14.160,-24.414,-23.438,-34.668,0.000
1473.000,-27.832,-33.691,-22.949,-34.180,0.000
1476.000,-34.668,-28.320,-26.367,-31.738,0.000
1480.000,-38.086,-23.438,-25.391,-17.090,0.000
1484.000,-33.691,-29.297,-21.484,-7.324,0.000
1488.000,-29.297,-26.855,-26.855,-21.484,0.000
1492.000,-14.648,-20.996,-28.809,-26.855,0.000
1496.000,-9.277,-20.508,-25.879,-21.973,0.000
1500.000,-24.902,-19.531,-30.273,-26.855,0.000
1504.000,-20.508,-14.160,-29.785,-29.785,0.000
1508.000,-8.301,-13.672,-24.414,-24.902,0.000
1512.000,-10.742,-25.879,-30.762,-23.438,0.000
1515.000,-20.996,-27.344,-30.762,-21.973,0.000
1519.000,-25.879,-24.414,-23.438,-21.484,0.000
1523.000,-18.066,-25.879,-20.020,-23.926,0.000
1527.000,-13.672,-25.879,-19.043,-16.602,0.000
1531.000,-16.602,-29.785,-20.996,-18.555,0.000
1535.000,-30.762,-27.832,-18.555,-16.602,0.000
1539.000,-36.621,-23.438,-16.602,-10.254,0.000
1543.000,-27.832,-26.855,-20.020,-12.207,0.000
1547.000,-17.090,-29.297,-20.508,-11.230,0.000
1551.000,-13.184,-25.879,-19.043,-13.672,0.000
1555.000,-16.113,-22.461,-19.531,-7.324,0.000
1558.000,-21.973,-28.809,-23.926,-4.883,0.000
1562.000,-24.902,-34.668,-23.926,-10.254,0.000
1566.000,-28.320,-28.809,-16.602,-11.230,0.000
1570.000,-32.715,-24.902,-20.020,-3.906,0.000
1574.000,-2.930,-21.484,-25.879,3.418,0.000
1578.000,17.578,-29.785,-21.973,5.859,0.000
1582.000,-13.184,-34.180,-21.484,-11.230,0.000
1586.000,-41.016,-31.250,-24.414,-36.621,0.000
1590.000,-4.883,-30.273,-22.949,-29.785,0.000
1594.000,14.160,-27.832,-20.020,-21.973,0.000
1598.000,-19.531,-29.785,-18.555,-26.367,0.000
1601.000,-57.617,-37.598,-21.484,-32.227,0.000
1605.000,-79.102,-55.664,-26.367,-49.316,0.000
1609.000,-69.336,-58.594,-30.273,-46.875,0.000
1613.000,-69.824,-40.039,-27.344,-41.016,0.000
1617.000,-83.008,-41.016,-20.508,-57.617,0.000
1621.000,-79.590,-39.551,-21.484,-75.684,0.000
1625.000,-79.590,-27.344,-23.438,-84.961,0.000
1629.000,-75.195,-36.133,-20.996,-79.102,0.000
1633.000,-65.430,-39.551,-27.832,-79.102,0.000
1637.000,-78.613,-34.180,-35.156,-83.496,0.000
1640.000,-84.961,-38.574,-28.320,-77.148,0.000
1644.000,-72.266,-34.668,-22.949,-68.359,0.000
1648.000,-67.383,-30.273,-20.020,-62.012,0.000
1652.000,-68.359,-37.598,-20.508,-66.895,0.000
1656.000,-66.895,-34.180,-23.438,-60.059,0.000
1660.000,-64.941,-34.668,-26.855,-46.387,0.000
1664.000,-58.594,-35.645,-27.832,-40.039,0.000
1668.000,-71.777,-31.250,-26.855,-34.668,0.000
1672.000,-67.871,-36.133,-24.902,-27.344,0.000
1676.000,-47.852,-41.016,-20.996,-29.297,0.000
1680.000,-39.551,-29.297,-21.484,-26.367,0.000
1683.000,-32.715,-24.902,-25.391,-20.996,0.000
1687.000,-27.344,-29.785,-24.414,-20.508,0.000
1691.000,-22.949,-29.785,-22.949,-21.973,0.000
1695.000,-28.320,-31.250,-23.926,-27.344,0.000
1699.000,-24.902,-30.762,-25.391,-18.555,0.000
1703.000,-28.320,-31.738,-26.855,-14.160,0.000
1707.000,-38.086,-28.320,-25.391,-21.973,0.000
1711.000,-31.250,-26.855,-25.879,-20.996,0.000
1715.000,-18.066,-24.902,-28.809,-11.719,0.000
1719.000,-13.184,-19.531,-28.809,-9.277,0.000
1722.000,-21.973,-20.996,-28.320,-15.137,0.000
1726.000,-21.484,-20.020,-29.297,-18.066,0.000
1730.000,-18.555,-21.484,-31.250,-22.461,0.000
1734.000,-17.578,-22.949,-33.203,-18.555,0.000
1738.000,-16.602,-23.438,-25.879,-6.348,0.000
1742.000,-18.066,-27.344,-21.484,-10.742,0.000
1746.000,-7.812,-25.391,-23.926,-14.160,0.000
1750.000,-9.277,-23.926,-23.438,-12.207,0.000
1754.000,-18.066,-23.926,-27.344,-25.391,0.000
1758.000,-13.672,-24.902,-31.250,-25.879,0.000
1762.000,-15.137,-23.438,-26.855,-14.160,0.000
1765.000,-31.738,-21.484,-26.367,-16.602,0.000
1769.000,-36.621,-26.367,-28.809,-18.066,0.000
1773.000,-29.297,-31.738,-24.902,-13.184,0.000
1777.000,-28.320,-30.762,-23.926,-10.742,0.000
1781.000,-39.551,-28.809,-26.855,-12.695,0.000
1785.000,-45.410,-27.344,-27.344,-24.414,0.000
1789.000,-36.133,-27.344,-31.250,-29.785,0.000
1793.000,-21.484,-26.367,-36.133,-20.508,0.000
1797.000,-20.020,-31.250,-29.785,-17.090,0.000
1801.000,-31.250,-27.832,-26.855,-17.090,0.000
1805.000,-33.691,-19.531,-25.391,-16.113,0.000
1808.000,-27.832,-17.578,-26.855,-15.137,0.000
1812.000,-24.414,-20.996,-32.227,-17.090,0.000
1816.000,-24.902,-22.949,-27.344,-22.949,0.000
1820.000,-27.832,-23.438,-22.949,-23.926,0.000
1824.000,-15.625,-19.531,-21.973,-20.508,0.000
1828.000,-0.977,-17.578,-26.367,-18.555,0.000
1832.000,-4.395,-29.297,-31.250,-20.508,0.000
1836.000,-8.789,-27.344,-29.785,-24.902,0.000
1840.000,-1.465,-17.578,-30.762,-17.090,0.000
1844.000,4.883,-13.184,-25.879,7.324,0.000
1847.000,-3.418,-13.672,-20.020,19.531,0.000
1851.000,-22.949,-20.020,-16.602,9.766,0.000
1855.000,-46.387,-22.949,-21.973,-12.207,0.000
1859.000,-46.875,-25.879,-33.691,-25.879,0.000
1863.000,-41.992,-25.391,-29.785,-20.020,0.000
1867.000,-34.668,-29.785,-27.832,-20.508,0.000
1871.000,-29.785,-32.715,-30.762,-21.484,0.000
1875.000,-26.855,-29.785,-38.574,-17.578,0.000
1879.000,-7.324,-28.809,-36.133,-10.742,0.000
1883.000,-14.160,-28.809,-31.738,-11.230,0.000
1887.000,-24.902,-30.762,-29.297,-8.789,0.000
1890.000,-18.066,-24.414,-24.902,-0.488,0.000
1894.000,-7.324,-17.578,-26.367,6.836,0.000
1898.000,2.930,-25.391,-31.738,0.488,0.000
1902.000,0.977,-25.391,-29.297,-12.207,0.000
1906.000,-3.906,-20.020,-25.879,-16.113,0.000
1910.000,-4.883,-22.949,-32.715,-20.508,0.000
1914.000,0.000,-22.949,-34.668,-11.719,0.000
1918.000,-9.277,-21.484,-27.832,-5.371,0.000
1922.000,-9.766,-26.367,-33.691,-15.137,0.000
1926.000,4.883,-17.578,-36.133,-17.578,0.000
1930.000,4.395,-10.742,-35.156,-19.531,0.000
1933.000,-2.930,-17.578,-32.227,-18.066,0.000
1937.000,-26.855,-20.508,-23.926,-16.113,0.000
1941.000,-39.551,-21.973,-29.297,-16.602,0.000
1945.000,-27.832,-23.926,-33.691,-16.602,0.000
1949.000,-31.250,-25.391,-33.203,-15.137,0.000
1953.000,-32.715,-22.461,-28.320,-12.695,0.000
1957.000,-19.043,-20.020,-28.809,-15.625,0.000
1961.000,-9.277,-18.555,-29.297,-17.578,0.000
1965.000,-28.809,-14.160,-26.855,-12.695,0.000
1969.000,-41.504,-13.184,-27.344,-9.766,0.000
1972.000,-39.062,-15.625,-25.391,-19.043,0.000
1976.000,-35.156,-19.531,-28.320,-21.484,0.000
1980.000,-32.227,-21.484,-33.691,-16.602,0.000
1984.000,-22.949,-16.602,-32.227,-18.555,0.000
1988.000,-28.320,-15.137,-29.785,-23.438,0.000
1992.000,-41.504,-20.508,-31.250,-23.926,0.000
1996.000,-38.574,-23.926,-33.203,-28.809,0.000
2000.000,-33.691,-20.996,-30.273,-29.785,0.000
2004.000,-33.691,-21.973,-26.367,-26.855,0.000
2008.000,-33.691,-28.320,-30.762,-29.297,0.000
2012.000,-28.809,-33.691,-30.762,-29.785,0.000
2015.000,-38.574,-31.738,-28.320,-25.879,0.000
2019.000,-56.152,-31.738,-26.855,-32.715,0.000
2023.000,-48.340,-38.574,-24.414,-30.273,0.000
2027.000,-38.574,-38.086,-25.391,-23.438,0.000
2031.000,-24.414,-25.879,-22.461,-24.902,0.000
2035.000,-15.137,-21.973,-19.043,-25.391,0.000
2039.000,-35.645,-26.855,-18.066,-25.879,0.000
2043.000,-51.270,-29.785,-18.066,-29.785,0.000
2047.000,-38.574,-26.855,-20.508,-33.203,0.000
2051.000,-22.949,-19.043,-18.555,-23.926,0.000
2054.000,-47.363,-20.996,-15.625,-19.531,0.000
2058.000,-50.293,-23.438,-20.508,-24.414,0.000
2062.000,-22.949,-19.531,-21.973,-20.508,0.000
2066.000,-33.203,-25.879,-18.555,-16.113,0.000
2070.000,-39.551,-27.344,-21.973,-18.066,0.000
2074.000,-28.320,-21.484,-22.949,-17.578,0.000
2078.000,-36.133,-26.367,-22.461,-22.461,0.000
2082.000,-47.852,-28.809,-22.461,-24.902,0.000
2086.000,-53.711,-31.738,-22.461,-28.809,0.000
2090.000,-51.270,-31.250,-26.855,-42.480,0.000
2094.000,-38.086,-32.227,-22.949,-40.039,0.000
2097.000,-28.320,-31.738,-17.090,-32.715,0.000
2101.000,-42.969,-26.855,-21.973,-44.434,0.000
2105.000,-61.523,-23.438,-24.414,-37.109,0.000
2109.000,-53.223,-20.996,-25.879,-25.879,0.000
2113.000,-41.992,-14.648,-24.902,-27.344,0.000
2117.000,-45.410,-15.137,-24.902,-32.715,0.000
2121.000,-41.016,-25.879,-28.320,-31.738,0.000
2125.000,-38.086,-24.902,-26.367,-28.320,0.000
2129.000,-25.879,-19.531,-23.926,-35.645,0.000
2133.000,-20.508,-19.043,-19.531,-38.574,0.000
2137.000,-33.203,-14.648,-19.531,-40.039,0.000
2140.000,-28.809,-11.719,-20.996,-27.832,0.000
2144.000,-22.949,-20.508,-21.484,-25.879,0.000
2148.000,-26.855,-21.484,-22.949,-33.203,0.000
2152.000,-33.203,-14.648,-21.973,-23.438,0.000
2156.000,-37.109,-18.066,-22.949,-12.695,0.000
2160.000,-40.527,-25.391,-24.414,-18.555,0.000
2164.000,-41.992,-29.785,-22.949,-20.020,0.000
2168.000,-37.598,-27.832,-20.996,-13.672,0.000
2172.000,-40.039,-23.926,-27.832,-17.578,0.000
2176.000,-33.691,-24.414,-32.715,-23.438,0.000
2179.000,-31.738,-31.250,-31.250,-30.273,0.000
2183.000,-34.668,-29.785,-28.809,-24.902,0.000
2187.000,-40.527,-19.531,-28.809,-13.184,0.000
2191.000,-35.156,-16.602,-27.832,-18.555,0.000
2195.000,-33.691,-22.461,-21.484,-22.949,0.000
2199.000,-49.805,-26.855,-25.879,-20.996,0.000
2203.000,-39.062,-23.438,-29.785,-22.461,0.000
2207.000,-17.090,-17.090,-23.926,-20.020,0.000
2211.000,-14.648,-19.531,-26.367,-24.902,0.000
2215.000,-29.297,-20.996,-28.320,-20.508,0.000
2219.000,-35.645,-20.020,-25.879,-14.160,0.000
2222.000,-33.203,-22.461,-26.855,-21.484,0.000
2226.000,-42.969,-22.949,-31.738,-21.973,0.000
2230.000,-41.504,-23.926,-30.762,-18.555,0.000
2234.000,-39.062,-21.973,-28.809,-21.484,0.000
2238.000,-42.969,-18.066,-27.344,-24.414,0.000
2242.000,-37.598,-18.066,-23.926,-29.297,0.000
2246.000,-34.668,-22.461,-28.320,-32.227,0.000
2250.000,-34.668,-21.973,-27.344,-28.320,0.000
2254.000,-34.668,-22.949,-24.414,-32.715,0.000
2258.000,-21.484,-16.602,-21.484,-31.250,0.000
2262.000,-12.695,-17.090,-16.602,-35.645,0.000
2265.000,-22.461,-25.391,-14.160,-40.527,0.000
2269.000,-36.621,-24.414,-13.184,-32.715,0.000
2273.000,-35.645,-27.344,-11.230,-27.832,0.000
2277.000,-24.414,-27.344,-14.160,-24.902,0.000
2281.000,-10.742,-21.973,-20.020,-29.297,0.000
2285.000,-14.648,-20.508,-20.020,-32.715,0.000
2289.000,-37.109,-20.020,-16.602,-27.344,0.000
2293.000,-46.875,-22.461,-15.137,-27.344,0.000
2297.000,-29.297,-22.949,-19.043,-25.879,0.000
2301.000,-23.926,-20.996,-15.625,-17.578,0.000
2304.000,-28.809,-22.949,-5.371,-16.602,0.000
2308.000,-25.391,-24.902,-6.348,-18.555,0.000
2312.000,-21.484,-27.832,-8.789,-17.090,0.000
2316.000,-16.113,-26.367,-10.742,-22.461,0.000
2320.000,-19.043,-25.391,-9.277,-20.996,0.000
2324.000,-13.184,-30.273,-9.277,-19.043,0.000
2328.000,-2.441,-26.855,-10.742,-17.578,0.000
2332.000,-18.066,-26.367,-10.254,-19.531,0.000
2336.000,-26.855,-26.367,-7.812,-19.531,0.000
2340.000,-20.508,-24.902,-9.766,-15.137,0.000
2344.000,-10.742,-20.508,-18.555,-21.973,0.000
2347.000,-16.602,-20.020,-19.043,-21.484,0.000
2351.000,-36.621,-25.879,-20.996,-21.973,0.000
2355.000,-36.621,-18.555,-22.461,-20.508,0.000
2359.000,-26.367,-12.207,-23.438,-24.414,0.000
2363.000,-17.090,-10.254,-25.879,-24.414,0.000
2367.000,-10.742,-14.160,-26.855,-17.578,0.000
2371.000,-14.160,-19.531,-34.180,-23.438,0.000
2375.000,-10.742,-13.672,-31.738,-22.949,0.000
2379.000,-6.348,-9.766,-27.344,-15.625,0.000
2383.000,-22.461,-12.695,-29.297,-13.672,0.000
2386.000,-29.297,-15.625,-30.762,-20.020,0.000
2390.000,-24.414,-18.066,-27.832,-21.973,0.000
2394.000,-21.484,-21.973,-28.320,-22.461,0.000
2398.000,-31.250,-23.926,-35.645,-21.484,0.000
2402.000,-37.109,-20.020,-31.738,-15.137,0.000
2406.000,-39.551,-17.090,-22.461,-15.137,0.000
2410.000,-37.598,-17.090,-20.020,-18.555,0.000
2414.000,-34.668,-16.602,-22.949,-16.602,0.000
2418.000,-33.203,-12.207,-27.344,-9.277,0.000
2422.000,-19.531,-16.602,-27.832,0.000,0.000
2426.000,-24.414,-22.949,-23.926,0.000,0.000
2429.000,-35.156,-20.508,-20.020,-16.602,0.000
2433.000,-24.414,-33.203,-24.414,-28.809,0.000
2437.000,-21.973,-31.738,-19.043,-13.672,0.000
2441.000,-41.016,-23.926,-13.672,-14.648,0.000
2445.000,-45.898,-25.391,-9.766,-24.414,0.000
2449.000,-44.922,-28.320,-3.418,-18.555,0.000
2453.000,-47.852,-37.109,-13.184,-25.879,0.000
2457.000,-41.504,-34.180,-17.578,-30.273,0.000
2461.000,-44.922,-37.109,-18.555,-41.992,0.000
2465.000,-49.805,-41.992,-24.414,-55.176,0.000
2469.000,-51.270,-31.738,-18.066,-54.688,0.000
2472.000,-54.199,-25.879,-16.602,-54.688,0.000
2476.000,-44.434,-30.273,-22.949,-55.176,0.000
2480.000,-54.688,-41.992,-23.438,-51.758,0.000
2484.000,-62.988,-38.574,-20.508,-50.781,0.000
2488.000,-52.246,-36.133,-18.066,-52.734,0.000
2492.000,-56.641,-36.621,-21.973,-59.570,0.000
2496.000,-46.387,-31.250,-25.391,-50.781,0.000
2500.000,-39.551,-40.527,-23.438,-50.781,0.000
2504.000,-65.918,-48.340,-21.484,-65.430,0.000
2508.000,-79.102,-40.527,-25.391,-58.105,0.000
2511.000,-80.078,-43.457,-35.156,-62.988,0.000
2515.000,-84.473,-45.898,-30.273,-67.383,0.000
2519.000,-83.496,-40.527,-25.879,-60.059,0.000
2523.000,-87.402,-41.016,-30.762,-64.453,0.000
2527.000,-87.402,-28.320,-24.902,-56.641,0.000
2531.000,-82.031,-22.949,-28.809,-57.617,0.000
2535.000,-83.984,-33.691,-42.969,-72.266,0.000
2539.000,-79.590,-32.227,-42.969,-70.312,0.000
2543.000,-61.035,-29.297,-37.109,-65.918,0.000
2547.000,-61.035,-30.273,-31.250,-56.641,0.000
2551.000,-70.312,-28.809,-25.879,-40.039,0.000
2554.000,-58.594,-28.809,-25.391,-35.645,0.000
2558.000,-41.504,-24.902,-22.461,-31.738,0.000
2562.000,-35.156,-22.461,-18.555,-28.809,0.000
2566.000,-30.762,-23.926,-21.973,-33.691,0.000
2570.000,-22.949,-21.973,-23.926,-33.691,0.000
2574.000,-14.160,-18.066,-23.438,-30.273,0.000
2578.000,-11.230,-19.043,-23.926,-24.902,0.000
2582.000,-16.113,-21.973,-27.344,-24.902,0.000
2586.000,-14.160,-23.438,-27.832,-33.691,0.000
2590.000,-23.438,-26.855,-29.297,-37.109,0.000
2594.000,-27.344,-24.414,-27.832,-21.973,0.000
2597.000,-14.160,-20.996,-29.297,-22.949,0.000
2601.000,-12.695,-25.391,-31.250,-37.109,0.000
2605.000,-8.789,-29.785,-23.926,-27.344,0.000
2609.000,-1.953,-24.902,-23.438,-18.066,0.000
2613.000,-8.789,-24.902,-28.320,-27.344,0.000
2617.000,-39.551,-31.250,-25.879,-25.391,0.000
2621.000,-59.570,-31.738,-25.391,-12.695,0.000
2625.000,-50.781,-32.227,-24.902,-13.672,0.000
2629.000,-44.434,-30.273,-21.484,-19.043,0.000
2633.000,-37.109,-24.414,-20.508,-13.184,0.000
2636.000,-34.180,-24.902,-21.484,-14.648,0.000
2640.000,-43.457,-25.391,-20.996,-15.137,0.000
2644.000,-33.203,-20.508,-17.090,-12.207,0.000
2648.000,-31.250,-23.438,-18.555,-10.254,0.000
2652.000,-47.852,-26.855,-24.902,-10.254,0.000
2656.000,-42.969,-23.926,-22.949,-23.926,0.000
2660.000,-28.809,-21.484,-20.508,-16.113,0.000
2664.000,-20.508,-18.066,-25.879,-1.953,0.000
2668.000,-19.531,-18.555,-24.414,-8.301,0.000
2672.000,-34.668,-20.020,-22.461,-17.578,0.000
2676.000,-26.855,-20.508,-26.367,-19.043,0.000
2679.000,-1.465,-18.555,-28.320,-22.949,0.000
2683.000,-9.277,-20.020,-25.391,-27.344,0.000
2687.000,-22.461,-25.879,-22.949,-37.109,0.000
2691.000,-17.578,-23.926,-21.484,-38.086,0.000
2695.000,-12.207,-22.949,-18.066,-27.832,0.000
2699.000,-17.578,-19.531,-20.508,-26.367,0.000
2703.000,-18.555,-15.625,-27.344,-27.344,0.000
2707.000,-22.949,-15.137,-23.438,-26.855,0.000
2711.000,-27.344,-13.672,-20.996,-29.297,0.000
2715.000,-29.297,-17.090,-21.484,-29.785,0.000
2719.000,-29.297,-16.602,-21.484,-29.785,0.000
2722.000,-17.578,-13.184,-24.902,-24.414,0.000
2726.000,-22.949,-20.020,-23.438,-24.414,0.000
2730.000,-34.180,-24.902,-22.461,-25.879,0.000
2734.000,-39.551,-23.926,-23.926,-21.484,0.000
2738.000,-29.785,-20.508,-25.391,-20.020,0.000
2742.000,-29.785,-20.996,-24.414,-19.043,0.000
2746.000,-34.180,-21.973,-26.367,-11.719,0.000
2750.000,-43.457,-23.926,-26.367,-10.254,0.000
2754.000,-48.340,-23.926,-24.902,-12.207,0.000
2758.000,-42.480,-23.438,-31.250,-15.137,0.000
2761.000,-44.922,-27.344,-32.227,-25.879,0.000
2765.000,-40.039,-22.949,-30.762,-28.809,0.000
2769.000,-25.391,-20.020,-30.762,-26.855,0.000
2773.000,-26.855,-26.855,-26.855,-26.367,0.000
2777.000,-34.668,-30.273,-25.391,-27.832,0.000
2781.000,-23.926,-26.855,-21.484,-25.391,0.000
2785.000,-14.648,-22.949,-20.508,-22.949,0.000
2789.000,-20.996,-24.414,-23.438,-35.156,0.000
2793.000,-22.461,-30.762,-22.949,-46.387,0.000
2797.000,-34.668,-31.250,-19.531,-41.992,0.000
2801.000,-49.805,-28.320,-16.113,-36.621,0.000
2804.000,-35.645,-26.855,-21.484,-29.297,0.000
2808.000,-18.555,-26.367,-25.879,-18.066,0.000
2812.000,-12.695,-28.320,-30.273,-28.809,0.000
2816.000,-30.762,-26.855,-30.273,-49.805,0.000
2820.000,-49.805,-25.879,-23.926,-47.363,0.000
2824.000,-36.133,-24.414,-29.297,-40.527,0.000
2828.000,-11.719,-22.461,-28.320,-39.551,0.000
2832.000,-17.090,-25.391,-26.855,-38.086,0.000
2836.000,-43.945,-28.320,-31.738,-32.227,0.000
2840.000,-56.641,-30.762,-31.738,-22.461,0.000
2843.000,-50.781,-33.203,-33.691,-22.461,0.000
2847.000,-27.832,-29.785,-36.133,-27.344,0.000
2851.000,-15.137,-22.949,-30.273,-32.227,0.000
2855.000,-17.578,-21.484,-26.855,-32.715,0.000
2859.000,-32.227,-22.949,-25.879,-16.602,0.000
2863.000,-38.574,-26.855,-27.832,-10.742,0.000
2867.000,-35.645,-29.297,-31.738,-22.949,0.000
2871.000,-25.391,-26.367,-33.203,-19.043,0.000
2875.000,-5.371,-22.949,-31.738,-18.555,0.000
2879.000,8.301,-19.531,-35.156,-29.785,0.000
2883.000,-1.953,-21.973,-34.180,-26.855,0.000
2886.000,-28.809,-26.855,-31.738,-20.996,0.000
2890.000,-36.621,-27.344,-31.738,-20.508,0.000
2894.000,-22.949,-24.902,-31.738,-18.066,0.000
2898.000,-9.277,-23.438,-33.691,-16.602,0.000
2902.000,-9.277,-21.973,-29.785,-19.531,0.000
2906.000,-7.324,-21.484,-26.367,-19.043,0.000
2910.000,-8.301,-20.996,-32.715,-19.043,0.000
2914.000,-15.137,-24.414,-37.598,-18.555,0.000
2918.000,-26.367,-21.484,-29.297,-19.043,0.000
2922.000,-30.762,-24.902,-26.367,-20.996,0.000
2926.000,-1.465,-25.879,-24.414,-16.113,0.000
2929.000,8.789,-12.695,-20.508,-16.113,0.000
2933.000,-13.672,-11.230,-20.020,-12.207,0.000
2937.000,-26.855,-16.602,-20.508,-9.766,0.000
2941.000,-25.391,-21.973,-22.949,-18.555,0.000
2945.000,-18.066,-26.367,-22.949,-22.461,0.000
2949.000,-21.484,-24.902,-21.484,-18.066,0.000
2953.000,-26.855,-23.438,-18.066,-13.672,0.000
2957.000,-29.297,-28.320,-18.555,-15.625,0.000
2961.000,-14.648,-24.902,-18.066,-20.508,0.000
2965.000,-5.859,-20.996,-21.484,-18.066,0.000
2968.000,-29.785,-24.902,-23.926,-24.414,0.000
2972.000,-39.551,-22.949,-20.508,-27.832,0.000
2976.000,-41.504,-23.926,-21.484,-19.043,0.000
2980.000,-37.109,-24.414,-25.391,-13.672,0.000
2984.000,-20.508,-22.461,-27.344,-13.184,0.000
2988.000,-18.555,-25.391,-24.414,-7.812,0.000
2992.000,-28.320,-29.785,-24.902,-7.324,0.000
2996.000,-29.297,-31.738,-27.832,-13.672,0.000
3000.000,-38.574,-28.320,-28.809,-12.695,0.000
3004.000,-41.504,-24.902,-27.832,-16.602,0.000
3008.000,-30.273,-27.832,-26.367,-16.113,0.000
3011.000,-22.949,-30.273,-25.391,-13.672,0.000
3015.000,-16.602,-27.344,-22.461,-22.461,0.000
3019.000,-16.113,-27.832,-21.484,-30.762,0.000
3023.000,-22.461,-33.691,-27.832,-30.762,0.000
3027.000,-21.973,-31.738,-30.762,-28.320,0.000
3031.000,-17.578,-31.250,-27.344,-35.156,0.000
3035.000,-21.484,-35.645,-28.809,-38.086,0.000
3039.000,-23.438,-29.785,-24.902,-21.973,0.000
3043.000,-28.809,-23.926,-23.438,-25.391,0.000
3047.000,-36.621,-19.043,-24.902,-37.109,0.000
3051.000,-36.133,-22.949,-27.344,-26.855,0.000
3054.000,-18.555,-20.996,-25.391,-19.043,0.000
3058.000,-4.883,-18.555,-25.391,-18.066,0.000
3062.000,-34.180,-20.996,-28.320,-16.113,0.000
3066.000,-71.289,-24.414,-28.320,-19.531,0.000
3070.000,-60.059,-23.926,-26.367,-14.160,0.000
3074.000,-45.410,-19.531,-23.926,-1.953,0.000
3078.000,-34.668,-20.508,-27.832,-11.719,0.000
3082.000,-21.973,-20.020,-27.832,-20.996,0.000
3086.000,-24.414,-21.973,-20.508,-23.926,0.000
3090.000,-30.762,-23.438,-23.926,-34.180,0.000
3093.000,-18.066,-22.461,-27.832,-36.133,0.000
3097.000,-19.043,-25.879,-22.949,-31.250,0.000
3101.000,-29.297,-25.879,-17.578,-31.738,0.000
3105.000,-21.973,-24.902,-19.043,-31.250,0.000
3109.000,-20.996,-25.879,-23.438,-21.973,0.000
3113.000,-18.066,-19.531,-22.461,-23.926,0.000
3117.000,-18.555,-15.625,-23.438,-31.738,0.000
3121.000,-24.902,-20.020,-25.879,-37.109,0.000
3125.000,-29.297,-24.414,-29.297,-34.180,0.000
3129.000,-29.785,-29.785,-29.785,-31.250,0.000
3133.000,-34.668,-24.902,-24.902,-32.715,0.000
3136.000,-46.875,-19.531,-24.902,-37.109,0.000
3140.000,-46.387,-20.508,-24.902,-37.109,0.000
3144.000,-31.250,-22.461,-26.367,-32.715,0.000
3148.000,-11.719,-22.461,-28.809,-28.809,0.000
3152.000,-19.531,-15.625,-28.320,-32.715,0.000
3156.000,-40.039,-20.996,-28.809,-27.832,0.000
3160.000,-45.898,-25.391,-30.762,-16.602,0.000
3164.000,-52.246,-23.438,-31.738,-29.785,0.000
3168.000,-43.945,-23.926,-26.855,-34.668,0.000
3172.000,-31.738,-21.484,-25.391,-27.832,0.000
3175.000,-17.578,-18.066,-26.855,-20.020,0.000
3179.000,0.000,-16.602,-21.973,-24.414,0.000
3183.000,-3.906,-18.555,-21.973,-29.785,0.000
3187.000,-22.949,-19.531,-22.949,-20.508,0.000
3191.000,-42.480,-18.555,-24.414,-9.766,0.000
3195.000,-46.875,-19.531,-25.391,-9.766,0.000
3199.000,-37.109,-23.438,-24.414,-12.207,0.000
3203.000,-28.809,-20.508,-23.926,-13.184,0.000
3207.000,-25.391,-19.531,-25.879,-18.555,0.000
3211.000,-14.160,-23.926,-28.809,-18.555,0.000
3215.000,-9.277,-22.461,-20.996,-15.137,0.000
3218.000,-6.836,-16.602,-17.090,-16.602,0.000
3222.000,-1.465,-22.949,-23.438,-24.902,0.000
3226.000,-3.906,-29.297,-26.367,-32.227,0.000
3230.000,-0.488,-29.297,-22.949,-25.391,0.000
3234.000,6.348,-21.973,-17.578,-12.207,0.000
3238.000,2.441,-17.090,-11.230,-23.438,0.000
3242.000,-26.367,-23.926,-12.695,-36.133,0.000
3246.000,-51.758,-23.438,-13.672,-28.809,0.000
3250.000,-40.527,-19.531,-9.766,-25.879,0.000
3254.000,-38.086,-18.066,-6.836,-29.297,0.000
3258.000,-45.898,-22.461,-7.324,-26.855,0.000
3261.000,-34.180,-27.832,-11.719,-41.016,0.000
3265.000,-48.828,-34.180,-16.602,-45.898,0.000
3269.000,-72.754,-41.504,-15.625,-37.598,0.000
3273.000,-76.172,-43.945,-18.066,-48.340,0.000
3277.000,-62.500,-40.039,-22.949,-56.152,0.000
3281.000,-34.668,-31.738,-27.832,-61.035,0.000
3285.000,-37.598,-27.344,-27.344,-59.570,0.000
3289.000,-65.430,-32.227,-23.438,-62.500,0.000
3293.000,-71.777,-31.250,-25.879,-57.617,0.000
3297.000,-64.453,-31.738,-26.855,-57.129,0.000
3300.000,-64.453,-38.086,-31.738,-71.777,0.000
3304.000,-67.383,-33.203,-28.809,-66.895,0.000
3308.000,-59.082,-28.320,-24.414,-50.293,0.000
3312.000,-53.223,-28.809,-22.949,-52.734,0.000
3316.000,-52.246,-26.855,-18.555,-58.594,0.000
3320.000,-38.086,-24.414,-20.996,-52.246,0.000
3324.000,-43.945,-25.391,-20.020,-43.945,0.000
3328.000,-62.012,-28.320,-20.996,-47.363,0.000
3332.000,-64.941,-29.297,-23.438,-52.734,0.000
3336.000,-64.941,-27.832,-25.879,-48.340,0.000
3340.000,-55.176,-26.367,-25.391,-40.527,0.000
3343.000,-41.504,-27.344,-21.973,-37.598,0.000
3347.000,-41.016,-23.438,-23.438,-31.738,0.000
3351.000,-48.828,-31.250,-29.297,-40.527,0.000
3355.000,-37.598,-36.621,-32.715,-41.992,0.000
3359.000,-30.273,-28.809,-33.203,-33.691,0.000
3363.000,-33.203,-24.902,-30.762,-35.156,0.000
3367.000,-34.668,-19.531,-26.855,-27.832,0.000
3371.000,-32.715,-24.902,-24.902,-27.344,0.000
