timestamp,TP9,AF7,AF8,TP10,Right AUX
0.000,22.949,-9.277,-20.996,14.160,0.000
4.000,14.160,-0.488,-15.625,11.230,0.000
8.000,12.695,-0.977,-13.184,2.930,0.000
12.000,23.438,-4.395,-15.625,-2.930,0.000
16.000,28.320,-8.301,-13.672,3.906,0.000
20.000,6.348,-9.766,-11.230,7.812,0.000
23.000,12.207,-11.230,-11.230,4.395,0.000
27.000,31.250,-16.602,-15.137,1.953,0.000
31.000,15.625,-15.137,-13.672,7.324,0.000
35.000,2.930,-11.230,-10.742,17.090,0.000
39.000,0.000,-15.625,-11.719,15.625,0.000
43.000,11.719,-20.508,-17.578,5.859,0.000
47.000,19.531,-19.531,-19.043,1.465,0.000
51.000,1.465,-20.508,-18.555,2.441,0.000
55.000,-20.508,-21.484,-16.113,3.906,0.000
59.000,-15.137,-22.949,-18.066,12.695,0.000
62.000,23.926,-18.066,-16.602,30.273,0.000
66.000,31.738,-10.254,-10.742,36.621,0.000
70.000,4.883,-14.648,-14.160,10.742,0.000
74.000,-12.207,-10.254,-19.531,-1.953,0.000
78.000,-7.324,-8.789,-27.832,19.043,0.000
82.000,18.066,-12.207,-29.297,35.645,0.000
86.000,25.879,-9.766,-30.273,27.344,0.000
90.000,22.461,-10.742,-36.621,14.160,0.000
94.000,32.715,-9.277,-36.133,16.113,0.000
98.000,46.875,-1.953,-33.203,19.531,0.000
102.000,30.762,-5.371,-40.039,11.230,0.000
105.000,16.113,-8.301,-40.039,19.043,0.000
109.000,21.973,-8.789,-38.574,19.531,0.000
113.000,39.551,-6.348,-39.062,22.949,0.000
117.000,55.176,-0.977,-31.738,29.785,0.000
121.000,51.758,0.000,-24.902,19.043,0.000
125.000,43.945,3.418,-21.484,16.113,0.000
129.000,41.504,3.418,-26.367,19.043,0.000
133.000,43.945,6.836,-30.273,18.066,0.000
137.000,34.180,6.348,-21.973,15.137,0.000
141.000,20.020,5.371,-17.090,26.855,0.000
145.000,21.484,8.301,-18.555,30.762,0.000
148.000,22.949,4.395,-19.531,18.555,0.000
152.000,14.160,0.488,-21.973,22.949,0.000
156.000,14.160,-0.488,-26.367,27.832,0.000
160.000,21.484,1.465,-21.973,21.484,0.000
164.000,23.438,0.488,-14.648,16.113,0.000
168.000,14.160,4.883,-13.672,20.020,0.000
172.000,-5.859,6.836,-13.184,21.973,0.000
176.000,-11.719,-3.418,-13.672,7.812,0.000
180.000,7.324,-0.488,-11.719,16.602,0.000
184.000,6.348,-1.465,-10.254,22.949,0.000
187.000,-6.836,-6.836,-11.719,14.160,0.000
191.000,-2.441,-7.324,-16.602,16.602,0.000
195.000,17.090,-10.742,-18.555,16.602,0.000
199.000,27.344,-13.184,-13.184,15.625,0.000
203.000,19.531,-8.301,-9.277,9.277,0.000
207.000,19.043,-1.465,-5.859,14.648,0.000
211.000,38.574,2.441,-5.859,29.785,0.000
215.000,54.199,1.953,-6.836,31.738,0.000
219.000,37.598,-3.418,-3.906,25.391,0.000
223.000,17.578,-7.812,-4.395,19.043,0.000
227.000,24.902,-6.836,-5.859,19.531,0.000
230.000,28.320,-3.418,-7.324,18.066,0.000
234.000,14.648,-3.906,-4.883,16.602,0.000
238.000,2.930,-4.883,-3.906,18.066,0.000
242.000,4.395,-3.906,-8.301,19.531,0.000
246.000,14.648,1.465,-12.207,24.414,0.000
250.000,15.625,0.488,-16.113,22.949,0.000
254.000,-1.953,-0.977,-13.672,26.367,0.000
258.000,-15.137,0.000,-8.301,38.086,0.000
262.000,8.301,-5.371,-9.766,35.645,0.000
266.000,26.855,-4.883,-11.230,28.320,0.000
269.000,7.812,-5.859,-8.789,24.414,0.000
273.000,-8.789,-7.812,-11.719,21.973,0.000
277.000,12.207,-4.395,-14.648,20.020,0.000
281.000,32.227,-4.395,-13.184,10.742,0.000
285.000,25.879,-6.836,-15.625,6.836,0.000
289.000,26.367,-6.836,-20.020,12.695,0.000
293.000,26.367,-8.789,-20.996,12.207,0.000
297.000,22.461,-13.672,-22.461,6.836,0.000
301.000,6.348,-20.020,-21.484,10.742,0.000
305.000,-16.113,-20.996,-20.996,7.812,0.000
309.000,-3.906,-19.531,-23.926,3.418,0.000
312.000,17.578,-14.648,-23.926,11.719,0.000
316.000,5.859,-11.230,-16.113,14.648,0.000
320.000,-7.324,-11.719,-14.648,10.742,0.000
324.000,2.930,-16.113,-25.391,2.441,0.000
328.000,20.020,-16.602,-27.832,7.812,0.000
332.000,32.715,-16.602,-27.832,3.418,0.000
336.000,22.949,-15.137,-26.367,-4.883,0.000
340.000,-2.930,-13.672,-22.949,11.230,0.000
344.000,-0.488,-13.672,-21.973,15.137,0.000
348.000,21.973,-11.719,-20.020,20.508,0.000
351.000,19.043,-11.719,-14.160,23.438,0.000
355.000,8.789,-1.953,-11.230,11.230,0.000
359.000,16.113,-5.371,-19.531,2.441,0.000
363.000,24.902,-12.695,-23.926,3.906,0.000
367.000,2.930,-11.719,-22.461,-2.441,0.000
371.000,-1.465,-5.859,-19.531,6.836,0.000
375.000,37.109,5.859,-5.859,37.598,0.000
379.000,35.156,-0.977,-1.465,23.438,0.000
383.000,8.789,-3.906,-3.418,-5.371,0.000
387.000,-19.043,-2.930,-5.859,-18.066,0.000
391.000,-30.762,-6.348,-8.301,-24.414,0.000
394.000,-30.762,-10.742,-4.395,-24.902,0.000
398.000,-50.781,-14.160,-8.789,-51.270,0.000
402.000,-54.199,-17.090,-10.254,-70.312,0.000
406.000,-70.801,-27.344,-11.719,-89.844,0.000
410.000,-83.496,-33.691,-16.602,-94.238,0.000
414.000,-60.059,-27.344,-15.137,-78.125,0.000
418.000,-73.242,-26.855,-4.883,-93.262,0.000
422.000,-96.191,-30.273,-7.324,-93.262,0.000
426.000,-84.961,-20.508,-12.207,-81.055,0.000
430.000,-68.848,-13.672,-12.695,-91.309,0.000
434.000,-71.289,-18.066,-9.277,-83.496,0.000
437.000,-81.055,-11.719,-5.371,-66.895,0.000
441.000,-78.125,-14.648,-8.301,-59.082,0.000
445.000,-58.105,-26.367,-8.789,-44.922,0.000
449.000,-48.340,-19.531,-10.742,-45.410,0.000
453.000,-46.875,-12.207,-5.859,-45.410,0.000
457.000,-38.574,-18.066,-5.859,-43.457,0.000
461.000,-23.438,-21.973,-10.254,-45.410,0.000
465.000,4.883,-16.113,-6.348,-29.785,0.000
469.000,5.859,-13.672,-9.766,-27.344,0.000
473.000,-11.719,-16.602,-12.695,-20.020,0.000
476.000,-15.625,-20.020,-14.160,-6.348,0.000
480.000,-9.277,-20.020,-17.090,-13.184,0.000
484.000,-1.953,-20.020,-14.648,-22.949,0.000
488.000,-2.441,-22.949,-11.719,-11.230,0.000
492.000,-3.906,-20.020,-12.695,-5.859,0.000
496.000,-11.719,-21.484,-19.531,-26.855,0.000
500.000,-9.766,-20.020,-20.020,-25.391,0.000
504.000,-2.441,-16.602,-15.137,-16.602,0.000
508.000,-20.996,-35.156,-13.672,-10.254,0.000
512.000,-30.273,-47.852,-12.207,-6.348,0.000
516.000,-17.090,-28.320,-13.184,-13.184,0.000
519.000,-13.184,-12.207,-22.949,-21.484,0.000
523.000,-34.180,-8.301,-21.973,-24.902,0.000
527.000,-44.434,-6.836,-17.578,-23.926,0.000
531.000,-31.738,-19.043,-22.461,-27.832,0.000
535.000,-29.785,-22.461,-21.484,-29.297,0.000
539.000,-34.668,-15.625,-15.625,-21.973,0.000
543.000,-15.625,-21.484,-17.578,-14.160,0.000
547.000,-2.441,-19.043,-20.508,-9.277,0.000
551.000,-20.996,-12.695,-15.625,-28.320,0.000
555.000,-23.926,-13.184,-13.184,-23.438,0.000
558.000,-11.719,-6.348,-13.184,9.277,0.000
562.000,-1.953,-20.996,-12.207,3.418,0.000
566.000,4.883,-27.344,-11.230,-8.789,0.000
570.000,-8.301,-15.137,-15.137,-5.859,0.000
574.000,-14.648,-15.625,-16.602,2.930,0.000
578.000,-9.766,-20.508,-18.555,6.348,0.000
582.000,-0.977,-15.625,-17.090,-1.465,0.000
586.000,1.465,-14.648,-16.602,-2.930,0.000
590.000,-5.371,-14.160,-20.996,8.789,0.000
594.000,5.371,-10.254,-22.949,14.648,0.000
598.000,8.789,-20.020,-20.996,9.766,0.000
601.000,-1.465,-21.484,-21.484,3.906,0.000
605.000,-1.465,-16.602,-24.414,4.395,0.000
609.000,14.160,-17.578,-21.484,-3.418,0.000
613.000,24.414,-10.254,-20.508,-4.395,0.000
617.000,21.973,-5.859,-19.043,6.348,0.000
621.000,18.066,-9.277,-19.531,5.371,0.000
625.000,31.738,-4.883,-20.508,13.672,0.000
629.000,36.621,-5.371,-19.043,19.043,0.000
633.000,30.762,-12.695,-23.926,11.230,0.000
637.000,33.203,-11.230,-25.879,0.977,0.000
641.000,13.672,-11.719,-19.043,-2.930,0.000
644.000,-8.301,-23.438,-20.508,2.441,0.000
648.000,-8.301,-25.879,-19.531,4.883,0.000
652.000,-12.695,-16.113,-12.207,8.789,0.000
656.000,-4.395,-4.395,-3.906,20.996,0.000
660.000,18.066,0.488,-2.441,23.438,0.000
664.000,29.297,1.953,-9.277,17.578,0.000
668.000,20.020,2.441,-11.230,20.020,0.000
672.000,5.371,2.930,-6.348,24.414,0.000
676.000,10.254,5.859,-9.766,22.949,0.000
680.000,20.996,-3.906,-12.207,18.066,0.000
683.000,16.602,-9.277,-16.602,15.137,0.000
687.000,1.953,-5.371,-22.949,12.695,0.000
691.000,2.441,-6.348,-18.555,14.648,0.000
695.000,13.672,-2.930,-13.184,14.648,0.000
699.000,18.066,-0.488,-15.625,12.207,0.000
703.000,15.137,-5.859,-13.672,10.742,0.000
707.000,15.137,-5.859,-12.695,8.789,0.000
711.000,9.766,-7.324,-11.719,2.930,0.000
715.000,18.555,-6.836,-9.766,3.906,0.000
719.000,15.625,-8.301,-9.277,14.160,0.000
723.000,-8.301,-5.859,-3.906,31.250,0.000
726.000,-3.906,-3.906,-3.906,37.598,0.000
730.000,21.484,-1.465,-7.324,29.297,0.000
734.000,28.809,0.000,-1.953,37.109,0.000
738.000,22.461,-1.953,1.465,20.020,0.000
742.000,14.648,4.395,0.000,5.859,0.000
746.000,2.930,4.395,0.000,16.602,0.000
750.000,-1.465,5.371,-2.441,15.625,0.000
754.000,-24.414,2.441,-5.371,4.883,0.000
758.000,-23.926,-6.348,-7.324,3.906,0.000
762.000,-1.953,-7.324,-11.230,7.324,0.000
766.000,12.695,-8.301,-7.324,7.812,0.000
769.000,12.695,-5.859,-7.812,7.812,0.000
773.000,-0.488,-9.766,-13.184,3.906,0.000
777.000,-0.488,-15.625,-14.648,10.254,0.000
781.000,16.113,-14.160,-11.719,31.250,0.000
785.000,22.949,-8.301,-7.324,45.898,0.000
789.000,-15.625,-7.324,-14.160,24.902,0.000
793.000,-29.297,-10.742,-22.949,-0.488,0.000
797.000,-2.930,-8.301,-21.973,1.465,0.000
801.000,3.906,-5.859,-22.949,0.000,0.000
805.000,7.324,-7.812,-28.320,-1.465,0.000
808.000,-10.254,-9.766,-29.785,-8.301,0.000
812.000,-14.648,-4.395,-30.273,-0.488,0.000
816.000,2.930,-7.324,-27.344,4.883,0.000
820.000,3.418,-12.695,-23.438,5.371,0.000
824.000,-1.465,-6.348,-20.020,10.254,0.000
828.000,6.348,-8.301,-26.367,6.836,0.000
832.000,22.949,-5.859,-26.367,8.301,0.000
836.000,-0.488,-4.395,-18.555,12.695,0.000
840.000,-17.090,-5.859,-17.578,8.789,0.000
844.000,-6.836,-2.930,-17.578,-3.418,0.000
848.000,-5.371,-8.789,-20.508,-5.371,0.000
851.000,2.441,-6.836,-22.461,-2.930,0.000
855.000,7.324,-1.953,-19.531,-4.395,0.000
859.000,3.418,3.906,-15.137,-1.953,0.000
863.000,-3.906,7.812,-16.113,-4.395,0.000
867.000,-7.812,2.930,-20.020,-11.719,0.000
871.000,-11.719,5.371,-19.043,-13.672,0.000
875.000,1.953,8.789,-14.648,-1.953,0.000
879.000,2.930,1.953,-15.625,-10.254,0.000
883.000,5.371,2.441,-14.160,-20.508,0.000
887.000,1.953,8.301,-11.230,-8.301,0.000
891.000,-20.996,8.301,-9.766,-4.395,0.000
894.000,-21.484,7.812,-8.789,6.836,0.000
898.000,-16.602,6.836,-7.812,2.930,0.000
902.000,-10.254,4.883,-5.859,-9.766,0.000
906.000,-8.789,3.418,-10.742,-3.418,0.000
910.000,-2.930,3.418,-10.742,-4.395,0.000
914.000,-2.930,2.930,-5.371,-5.371,0.000
918.000,-6.836,0.977,-7.324,0.000,0.000
922.000,-6.348,-1.465,-9.766,0.000,0.000
926.000,-1.953,-5.371,-12.695,-6.836,0.000
930.000,8.789,-6.836,-16.602,-10.254,0.000
933.000,10.742,-4.883,-18.066,-8.789,0.000
937.000,5.371,-7.324,-20.508,-7.324,0.000
941.000,9.277,-10.742,-22.461,-4.883,0.000
945.000,15.625,-12.207,-20.996,0.488,0.000
949.000,13.184,-5.859,-17.578,4.395,0.000
953.000,6.348,-4.395,-15.625,0.000,0.000
957.000,-15.137,-11.719,-15.137,0.977,0.000
961.000,-8.789,-4.883,-13.184,15.137,0.000
965.000,12.207,-3.906,-14.648,22.461,0.000
969.000,1.465,-10.742,-17.090,25.391,0.000
973.000,3.906,-11.230,-14.648,19.043,0.000
976.000,27.344,-7.812,-16.113,15.625,0.000
980.000,26.855,-8.789,-20.020,23.926,0.000
984.000,-0.488,-14.648,-12.695,18.066,0.000
988.000,-10.254,-12.207,-7.324,11.230,0.000
992.000,-5.859,-9.766,-9.766,26.367,0.000
996.000,6.836,-8.789,-13.184,27.832,0.000
1000.000,14.160,-7.812,-14.648,3.906,0.000
1004.000,-2.930,-9.766,-14.160,-1.953,0.000
1008.000,-13.672,-8.301,-14.160,-1.465,0.000
1012.000,10.742,-4.883,-16.602,2.930,0.000
1015.000,22.461,-9.766,-21.484,-1.465,0.000
1019.000,-0.488,-14.648,-26.367,-10.254,0.000
1023.000,-11.719,-9.766,-25.391,-7.324,0.000
1027.000,-1.953,-8.301,-22.949,-4.395,0.000
1031.000,9.766,-6.348,-25.879,-3.418,0.000
1035.000,12.695,-2.930,-21.484,-2.441,0.000
1039.000,-5.371,-4.395,-16.602,-0.488,0.000
1043.000,-5.371,-6.836,-16.113,-8.789,0.000
1047.000,30.762,-6.836,-17.090,8.789,0.000
1051.000,35.645,-3.418,-17.578,34.668,0.000
1055.000,0.977,4.883,-15.137,6.348,0.000
1058.000,-17.090,4.883,-20.020,-3.418,0.000
1062.000,-12.207,-4.395,-29.297,11.719,0.000
1066.000,9.277,-2.930,-24.902,14.648,0.000
1070.000,12.695,1.465,-26.855,12.207,0.000
1074.000,-3.418,0.488,-31.250,0.000,0.000
1078.000,17.090,6.348,-29.297,-0.488,0.000
1082.000,21.973,9.277,-31.738,-4.883,0.000
1086.000,3.906,13.184,-29.785,-14.160,0.000
1090.000,-6.348,10.254,-31.738,-14.648,0.000
1094.000,3.418,8.301,-37.109,-4.395,0.000
1097.000,33.203,10.742,-32.227,-1.465,0.000
1101.000,26.367,11.230,-30.762,-23.438,0.000
1105.000,7.324,12.695,-32.227,-36.621,0.000
1109.000,14.160,13.672,-25.879,-25.879,0.000
1113.000,17.090,12.695,-22.949,-2.930,0.000
1117.000,9.766,11.230,-25.879,5.859,0.000
1121.000,-13.672,5.859,-26.855,-3.418,0.000
1125.000,-27.832,-4.395,-25.879,-1.465,0.000
1129.000,-7.324,-4.883,-26.367,1.953,0.000
1133.000,6.836,1.953,-23.438,10.742,0.000
1137.000,-0.977,-2.930,-17.578,10.254,0.000
1140.000,1.465,-6.836,-10.254,8.789,0.000
1144.000,17.090,-5.371,-6.836,14.648,0.000
1148.000,19.043,-4.883,-9.766,15.137,0.000
1152.000,-1.953,-5.371,-9.277,9.766,0.000
1156.000,-20.508,-7.812,-9.766,8.789,0.000
1160.000,2.930,-2.930,-8.301,11.719,0.000
1164.000,34.668,-0.977,-10.254,6.348,0.000
1168.000,22.461,-2.930,-10.742,8.789,0.000
1172.000,2.930,-5.859,-12.207,16.602,0.000
1176.000,7.324,-1.465,-14.160,20.996,0.000
1180.000,25.879,4.395,-14.160,28.809,0.000
1183.000,45.898,7.324,-15.625,24.414,0.000
1187.000,35.156,7.812,-13.184,16.602,0.000
1191.000,23.438,7.324,-11.230,18.066,0.000
1195.000,34.668,2.441,-14.160,22.949,0.000
1199.000,48.340,0.488,-13.672,26.367,0.000
1203.000,46.387,0.977,-10.254,29.785,0.000
1207.000,22.461,-1.465,-8.789,40.039,0.000
1211.000,12.695,-3.418,-9.277,42.480,0.000
1215.000,20.020,-2.441,-10.254,35.645,0.000
1219.000,16.602,-4.883,-13.672,32.715,0.000
1222.000,12.207,-4.883,-17.090,31.250,0.000
1226.000,19.043,1.465,-13.672,30.762,0.000
1230.000,28.809,1.953,-7.812,39.062,0.000
1234.000,39.062,1.465,-6.836,41.016,0.000
1238.000,41.992,9.277,-6.348,37.598,0.000
1242.000,24.902,3.418,-2.441,41.016,0.000
1246.000,21.484,-3.906,-1.465,42.969,0.000
1250.000,32.227,3.906,-3.418,43.457,0.000
1254.000,18.066,0.977,-6.348,35.645,0.000
1258.000,29.785,-1.465,-5.371,49.316,0.000
1262.000,60.059,-1.953,3.906,71.289,0.000
1265.000,34.668,-4.395,1.465,42.969,0.000
1269.000,18.066,-1.465,-6.348,23.438,0.000
1273.000,24.414,-6.836,-1.465,26.367,0.000
1277.000,22.461,-18.066,-0.488,22.949,0.000
1281.000,12.695,-17.090,-9.277,15.137,0.000
1285.000,-7.324,-15.137,-16.602,0.000,0.000
1289.000,-17.090,-31.250,-9.766,-10.742,0.000
1293.000,-25.879,-37.109,-8.301,-2.441,0.000
1297.000,-36.621,-33.203,-7.812,-11.719,0.000
1301.000,-46.875,-26.855,-1.953,-21.484,0.000
1304.000,-46.875,-35.156,-5.859,-6.836,0.000
1308.000,-70.312,-49.316,-18.555,-38.574,0.000
1312.000,-91.309,-51.270,-25.391,-61.523,0.000
1316.000,-69.824,-46.875,-18.555,-43.457,0.000
1320.000,-70.312,-35.645,-15.625,-49.316,0.000
1324.000,-87.891,-46.387,-12.207,-66.406,0.000
1328.000,-86.426,-56.641,-10.254,-69.824,0.000
1332.000,-68.359,-30.762,-9.277,-55.664,0.000
1336.000,-78.125,-32.227,0.977,-48.828,0.000
1340.000,-105.957,-52.246,-6.348,-55.664,0.000
1344.000,-97.168,-38.086,-12.695,-54.688,0.000
1347.000,-81.055,-28.320,2.441,-56.641,0.000
1351.000,-73.730,-40.039,7.324,-55.176,0.000
1355.000,-88.379,-41.016,2.441,-63.477,0.000
1359.000,-93.262,-37.109,-0.488,-62.988,0.000
1363.000,-62.988,-39.551,-4.395,-49.316,0.000
1367.000,-59.082,-35.156,-8.789,-50.781,0.000
1371.000,-75.195,-37.598,-6.836,-53.711,0.000
1375.000,-87.402,-42.969,-4.883,-48.828,0.000
1379.000,-64.453,-39.551,-5.371,-41.992,0.000
1383.000,-42.969,-35.156,-10.254,-37.598,0.000
1387.000,-56.152,-31.250,-9.277,-39.551,0.000
1390.000,-47.852,-27.344,-7.324,-42.969,0.000
1394.000,-25.879,-25.391,-11.719,-25.879,0.000
1398.000,-13.672,-20.996,-11.230,-16.602,0.000
1402.000,-25.391,-20.508,-9.277,-16.602,0.000
1406.000,-60.547,-25.879,-6.348,-6.836,0.000
1410.000,-50.293,-25.879,-7.324,-8.301,0.000
1414.000,-24.902,-23.926,-16.113,-7.812,0.000
1418.000,-21.484,-15.625,-14.648,-6.348,0.000
1422.000,-29.785,-12.207,-12.207,-9.766,0.000
1426.000,-23.438,-18.066,-15.137,-9.277,0.000
1429.000,2.441,-14.648,-18.066,-0.488,0.000
1433.000,14.648,-13.184,-17.090,5.371,0.000
1437.000,-12.695,-14.160,-8.301,0.977,0.000
1441.000,-32.227,-14.648,-1.465,6.836,0.000
1445.000,-11.230,-15.625,1.465,14.648,0.000
1449.000,-6.348,-17.090,0.488,0.000,0.000
1453.000,-19.531,-11.230,-3.418,-9.277,0.000
1457.000,-25.879,-8.301,-8.789,2.441,0.000
1461.000,-20.996,-8.301,-10.254,2.930,0.000
1465.000,-12.207,-6.836,-9.766,-0.977,0.000
1469.000,-13.184,-5.371,-10.742,2.930,0.000
1472.000,-18.066,-7.812,-9.766,3.906,0.000
1476.000,-11.230,-9.766,-8.789,7.812,0.000
1480.000,-3.906,-7.812,-15.137,10.742,0.000
1484.000,-5.859,-9.277,-15.625,13.672,0.000
1488.000,-0.977,-9.277,-13.672,13.184,0.000
1492.000,-3.418,-3.418,-12.695,7.812,0.000
1496.000,-3.906,-3.418,-11.230,10.742,0.000
1500.000,15.625,-4.395,-18.066,9.766,0.000
1504.000,11.230,1.953,-17.578,9.766,0.000
1508.000,-23.438,6.836,-10.254,14.160,0.000
1511.000,-18.555,3.906,-13.184,10.742,0.000
1515.000,4.883,-5.371,-10.254,5.371,0.000
1519.000,-5.371,0.000,-5.371,4.883,0.000
1523.000,-14.160,8.301,-7.812,10.742,0.000
1527.000,-10.742,0.000,-4.883,8.789,0.000
1531.000,1.465,-0.488,-8.301,6.348,0.000
1535.000,2.930,-0.977,-11.230,5.859,0.000
1539.000,-21.973,-12.695,-15.625,-4.883,0.000
1543.000,-18.066,-12.695,-21.973,-14.160,0.000
1547.000,0.977,-12.207,-25.391,-9.766,0.000
1551.000,-7.324,-20.996,-27.832,-0.977,0.000
1554.000,-24.414,-23.926,-30.273,4.395,0.000
1558.000,-36.133,-19.531,-28.809,13.184,0.000
1562.000,-32.715,-16.113,-21.973,10.742,0.000
1566.000,-19.531,-15.625,-16.113,0.488,0.000
1570.000,-27.344,-19.043,-15.625,-10.254,0.000
1574.000,-20.996,-18.555,-16.113,-7.324,0.000
1578.000,-2.441,-12.695,-8.789,9.766,0.000
1582.000,-0.488,-13.672,-9.277,13.672,0.000
1586.000,-18.555,-13.184,-11.230,2.930,0.000
1590.000,-38.086,-9.277,-9.766,7.324,0.000
1594.000,-30.762,-8.301,-12.695,6.348,0.000
1597.000,-10.254,-8.301,-13.184,4.883,0.000
1601.000,-2.930,-7.324,-14.160,3.418,0.000
1605.000,-20.996,-10.742,-19.043,-3.418,0.000
1609.000,-25.391,-10.254,-19.043,-3.418,0.000
1613.000,-3.906,-1.953,-14.160,-4.395,0.000
1617.000,-15.137,4.883,-11.719,-4.883,0.000
1621.000,-46.875,3.418,-11.719,-11.230,0.000
1625.000,-41.016,-2.441,-14.160,-7.324,0.000
1629.000,-19.043,-1.953,-17.090,-10.742,0.000
1633.000,-18.066,3.418,-9.277,-20.996,0.000
1636.000,-36.133,6.836,-7.812,-18.066,0.000
1640.000,-44.922,5.371,-8.789,-21.973,0.000
1644.000,-31.250,4.395,-6.836,-26.855,0.000
1648.000,-25.879,4.883,-13.184,-32.227,0.000
1652.000,-36.621,3.906,-14.648,-36.621,0.000
1656.000,-46.387,0.488,-9.277,-20.508,0.000
1660.000,-50.781,-7.812,-9.277,-20.020,0.000
1664.000,-39.062,-8.301,-17.578,-38.574,0.000
1668.000,-31.738,-4.395,-20.020,-29.785,0.000
1672.000,-46.387,-1.953,-17.090,-20.508,0.000
1676.000,-58.105,1.953,-17.090,-30.273,0.000
1679.000,-29.785,3.906,-13.184,-22.949,0.000
1683.000,-9.277,6.348,-6.348,-10.742,0.000
1687.000,-19.531,3.906,-8.789,-7.324,0.000
1691.000,-25.391,1.465,-10.254,-6.836,0.000
1695.000,-19.531,-1.465,-9.766,-11.230,0.000
1699.000,-18.555,-0.488,-11.230,-18.066,0.000
1703.000,-24.414,0.488,-10.742,-14.160,0.000
1707.000,-33.691,-2.930,-7.812,-5.859,0.000
1711.000,-26.855,-3.906,-6.348,-6.348,0.000
1715.000,-10.742,-4.395,-8.301,-0.977,0.000
1718.000,-16.113,-4.395,-7.324,2.441,0.000
1722.000,-25.879,-3.418,-7.324,-2.441,0.000
1726.000,-18.066,-0.977,-2.930,10.742,0.000
1730.000,4.395,1.953,0.488,21.484,0.000
1734.000,15.137,2.441,3.418,15.137,0.000
1738.000,16.113,2.441,1.953,4.395,0.000
1742.000,12.207,0.488,-2.930,9.766,0.000
1746.000,5.859,0.977,-1.953,12.207,0.000
1750.000,0.977,5.371,-3.906,10.742,0.000
1754.000,-0.977,6.836,-8.301,3.418,0.000
1758.000,-0.488,-0.977,-12.695,-4.883,0.000
1761.000,3.906,-3.906,-20.020,0.977,0.000
1765.000,4.395,-4.395,-18.066,-2.441,0.000
1769.000,-11.230,-7.812,-8.301,-1.465,0.000
1773.000,-32.227,-12.207,-6.836,2.441,0.000
1777.000,-31.738,-7.324,-9.766,5.371,0.000
1781.000,-15.625,-4.883,-13.672,10.254,0.000
1785.000,-19.531,-10.254,-13.184,7.324,0.000
1789.000,-30.762,-13.672,-9.277,-0.488,0.000
1793.000,-30.273,-16.602,-9.277,-1.465,0.000
1797.000,-13.672,-11.230,-11.230,6.836,0.000
1801.000,-2.930,-13.184,-8.789,11.719,0.000
1804.000,-21.484,-16.113,-6.836,7.812,0.000
1808.000,-20.508,-11.719,-9.766,4.395,0.000
1812.000,-3.906,-12.207,-13.672,2.441,0.000
1816.000,-8.789,-8.789,-13.672,7.324,0.000
1820.000,-20.508,-12.695,-8.789,7.324,0.000
1824.000,-21.973,-13.184,-12.207,1.953,0.000
1828.000,-25.879,-11.719,-16.113,5.859,0.000
1832.000,-19.531,-12.695,-10.254,11.719,0.000
1836.000,-14.648,-11.230,-5.859,6.348,0.000
1840.000,-20.996,-14.160,-7.812,-3.418,0.000
1843.000,-14.160,-13.184,-11.719,5.859,0.000
1847.000,-0.488,-11.719,-13.184,18.066,0.000
1851.000,-11.719,-12.207,-11.230,19.043,0.000
1855.000,-32.715,-13.672,-11.230,9.766,0.000
1859.000,-23.926,-18.066,-10.254,0.488,0.000
1863.000,2.441,-14.648,-14.160,-2.441,0.000
1867.000,10.742,-7.812,-10.742,6.348,0.000
1871.000,-8.301,-10.254,-9.277,0.000,0.000
1875.000,-22.949,-18.555,-21.973,-7.324,0.000
1879.000,-9.277,-22.461,-22.949,-7.812,0.000
1883.000,2.930,-19.531,-15.625,-3.418,0.000
1886.000,6.348,-17.090,-18.066,-1.465,0.000
1890.000,5.859,-15.625,-23.926,-2.441,0.000
1894.000,-6.836,-13.672,-23.926,6.348,0.000
1898.000,-1.465,-14.160,-23.438,13.672,0.000
1902.000,8.789,-13.184,-20.996,17.578,0.000
1906.000,2.441,-6.836,-14.160,16.113,0.000
1910.000,7.812,-6.836,-10.742,8.301,0.000
1914.000,24.414,-7.812,-12.207,13.184,0.000
1918.000,30.762,-8.789,-9.766,8.301,0.000
1922.000,2.930,-8.789,-8.301,-3.418,0.000
1926.000,-1.465,-9.766,-5.371,12.207,0.000
1929.000,8.301,-8.301,-9.277,24.414,0.000
1933.000,6.348,-12.695,-15.625,25.391,0.000
1937.000,4.395,-14.160,-14.160,29.297,0.000
1941.000,7.324,-9.277,-12.207,36.621,0.000
1945.000,21.484,-12.695,-16.602,37.109,0.000
1949.000,34.180,-12.695,-18.066,32.227,0.000
1953.000,32.715,-11.719,-10.254,36.133,0.000
1957.000,25.879,-13.184,-6.348,30.762,0.000
1961.000,28.320,-7.812,-10.742,16.113,0.000
1965.000,23.926,-4.883,-18.555,24.902,0.000
1968.000,20.996,-13.672,-16.602,39.551,0.000
1972.000,16.113,-19.531,-14.160,33.691,0.000
1976.000,11.230,-20.508,-23.926,29.785,0.000
1980.000,32.715,-20.996,-25.391,28.809,0.000
1984.000,35.645,-18.555,-22.949,26.367,0.000
1988.000,12.207,-16.113,-20.996,23.438,0.000
1992.000,21.973,-13.672,-21.484,30.762,0.000
1996.000,58.105,-10.742,-21.973,57.129,0.000
2000.000,56.152,-8.301,-20.996,37.109,0.000
2004.000,27.344,-12.695,-23.438,-3.418,0.000
2008.000,24.414,-15.137,-20.508,-7.812,0.000
2011.000,29.785,-12.207,-20.996,-8.789,0.000
2015.000,30.762,-15.625,-23.438,-6.836,0.000
2019.000,-0.977,-26.367,-23.438,-12.695,0.000
2023.000,-33.203,-27.344,-21.973,-13.672,0.000
2027.000,-33.203,-22.461,-26.855,-4.395,0.000
2031.000,-21.484,-22.461,-20.020,-16.113,0.000
2035.000,-12.695,-16.602,-7.324,-27.832,0.000
2039.000,-18.066,-12.695,-9.766,-33.691,0.000
2043.000,-16.113,-18.066,-12.695,-25.391,0.000
2047.000,-9.766,-16.602,-3.906,-8.789,0.000
2050.000,-34.180,-21.484,-7.324,-30.762,0.000
2054.000,-58.594,-28.320,-20.508,-46.387,0.000
2058.000,-45.898,-23.438,-15.137,-24.902,0.000
2062.000,-37.109,-13.672,0.977,-16.113,0.000
2066.000,-26.367,-10.254,12.207,-16.113,0.000
2070.000,-15.137,-10.254,4.883,-11.230,0.000
2074.000,-24.414,-14.160,-15.137,-14.648,0.000
2078.000,-32.715,-29.785,-26.367,-31.738,0.000
2082.000,-24.902,-21.484,-29.785,-51.758,0.000
2086.000,-27.832,-19.043,-27.344,-43.945,0.000
2090.000,-37.109,-20.020,-15.625,-41.016,0.000
2093.000,-32.227,-13.184,-17.090,-48.340,0.000
2097.000,-19.043,-11.719,-18.555,-34.668,0.000
2101.000,-6.348,-4.883,-11.719,-26.367,0.000
2105.000,-25.879,-1.953,-15.137,-29.297,0.000
2109.000,-43.457,-13.672,-18.555,-36.621,0.000
2113.000,-20.020,-16.602,-14.160,-23.926,0.000
2117.000,2.441,-5.859,-12.695,-11.719,0.000
2121.000,-0.977,-3.906,-3.418,-16.602,0.000
2125.000,-21.484,-4.395,0.488,-0.977,0.000
2129.000,-6.348,-2.930,-3.418,-0.488,0.000
2132.000,17.578,0.977,-2.930,-5.371,0.000
2136.000,14.648,2.930,0.488,6.348,0.000
2140.000,0.000,2.441,-1.953,7.812,0.000
2144.000,-6.348,-4.395,0.977,12.695,0.000
2148.000,-2.930,-8.301,2.441,20.508,0.000
2152.000,-5.859,-10.254,-3.906,18.066,0.000
2156.000,-6.348,-8.301,-0.977,18.555,0.000
2160.000,3.906,-6.348,-3.906,27.344,0.000
2164.000,7.324,-12.695,-7.812,29.297,0.000
2168.000,16.113,-12.695,-0.977,21.973,0.000
2172.000,20.996,-4.883,4.883,19.531,0.000
2175.000,15.137,-2.930,0.000,20.508,0.000
2179.000,20.508,-10.742,-2.930,18.555,0.000
2183.000,14.160,-12.695,-8.789,16.113,0.000
2187.000,-8.789,-10.742,-7.812,15.625,0.000
2191.000,-1.953,-11.230,-2.930,16.113,0.000
2195.000,12.207,-11.230,-5.371,10.742,0.000
2199.000,13.672,-9.766,-9.277,8.789,0.000
2203.000,18.066,-8.301,-5.371,3.418,0.000
2207.000,26.855,-11.719,-3.418,-4.883,0.000
2211.000,21.484,-11.230,-6.836,-5.859,0.000
2215.000,15.137,-12.207,-8.301,6.348,0.000
2218.000,6.836,-12.695,-4.395,13.184,0.000
2222.000,4.395,-6.836,-1.953,8.301,0.000
2226.000,19.043,-2.930,1.953,16.113,0.000
2230.000,39.062,0.488,4.395,29.297,0.000
2234.000,48.828,8.301,8.301,38.574,0.000
2238.000,18.066,4.395,9.277,43.457,0.000
2242.000,0.488,-5.371,1.465,43.457,0.000
2246.000,13.672,-2.930,-0.977,44.922,0.000
2250.000,23.438,3.906,4.395,44.434,0.000
2254.000,14.160,7.812,9.277,37.109,0.000
2257.000,-4.883,5.371,8.301,39.062,0.000
2261.000,-2.930,6.836,0.977,42.480,0.000
2265.000,20.020,9.766,-2.441,45.898,0.000
2269.000,26.855,11.230,-0.977,42.480,0.000
2273.000,20.508,10.742,-6.836,28.809,0.000
2277.000,20.020,-0.977,-10.254,25.879,0.000
2281.000,10.254,-1.465,-7.812,38.574,0.000
2285.000,-0.488,6.348,-9.277,33.691,0.000
2289.000,0.488,7.324,-8.301,27.344,0.000
2293.000,11.719,6.348,-3.906,30.273,0.000
2297.000,26.855,8.301,-3.906,23.438,0.000
2300.000,16.113,4.395,-8.301,14.648,0.000
2304.000,9.766,5.371,-8.301,12.695,0.000
2308.000,19.043,12.207,-8.301,14.648,0.000
2312.000,14.160,6.348,-9.766,14.160,0.000
2316.000,21.484,0.000,-11.230,18.066,0.000
2320.000,7.324,-1.465,-9.277,12.207,0.000
2324.000,-19.531,-3.418,-7.812,10.254,0.000
2328.000,-5.859,-4.883,-5.371,13.672,0.000
2332.000,2.441,-3.906,-1.465,9.277,0.000
2336.000,-9.277,-4.395,-5.859,3.418,0.000
2339.000,-21.973,-8.789,-7.812,3.906,0.000
2343.000,-16.602,-6.836,-8.301,6.348,0.000
2347.000,11.719,-0.977,-1.953,18.066,0.000
2351.000,42.480,3.418,3.418,43.457,0.000
2355.000,20.508,4.395,-7.324,19.043,0.000
2359.000,-17.578,2.441,-13.184,-18.555,0.000
2363.000,-13.184,3.906,-12.695,-9.277,0.000
2367.000,-12.695,-3.906,-17.090,1.465,0.000
2371.000,-13.184,-11.230,-16.602,2.930,0.000
2375.000,-12.207,-5.371,-19.531,3.906,0.000
2379.000,-8.301,-1.465,-25.391,-2.930,0.000
2382.000,0.977,-2.441,-24.414,-9.766,0.000
2386.000,-2.441,-3.906,-27.832,-14.648,0.000
2390.000,-21.484,-4.883,-29.297,-28.320,0.000
2394.000,-31.250,-6.836,-31.738,-27.832,0.000
2398.000,-27.344,-11.230,-34.180,-18.066,0.000
2402.000,-22.461,-13.184,-30.273,-11.230,0.000
2406.000,-33.691,-14.160,-28.320,-18.066,0.000
2410.000,-27.344,-19.043,-26.367,-20.508,0.000
2414.000,-12.695,-19.531,-28.809,-19.043,0.000
2418.000,-9.277,-18.066,-28.320,-16.113,0.000
2422.000,-17.090,-15.137,-24.902,-15.625,0.000
2425.000,-18.066,-12.207,-29.297,-20.996,0.000
2429.000,-13.184,-12.695,-30.273,-23.926,0.000
2433.000,-25.879,-15.137,-25.391,-36.133,0.000
2437.000,-34.668,-13.672,-21.484,-39.062,0.000
2441.000,-26.367,-12.207,-20.996,-33.691,0.000
2445.000,-0.977,-16.113,-20.996,-21.973,0.000
2449.000,-9.277,-19.531,-21.484,-10.742,0.000
2453.000,-56.641,-19.531,-26.367,-27.344,0.000
2457.000,-64.941,-19.043,-22.949,-41.992,0.000
2461.000,-44.922,-19.043,-23.438,-33.691,0.000
2464.000,-20.508,-18.555,-21.484,-13.184,0.000
2468.000,-12.695,-20.996,-17.578,-8.301,0.000
2472.000,-18.555,-23.926,-23.438,-22.461,0.000
2476.000,-12.695,-24.414,-21.973,-19.531,0.000
2480.000,0.000,-20.996,-17.578,-6.348,0.000
2484.000,-3.418,-15.137,-23.926,-1.465,0.000
2488.000,-26.367,-17.090,-22.461,1.465,0.000
2492.000,-29.785,-20.508,-19.043,12.695,0.000
2496.000,-8.301,-19.531,-27.344,20.996,0.000
2500.000,6.348,-22.949,-34.180,14.160,0.000
2504.000,-3.418,-21.484,-29.297,1.953,0.000
2507.000,-2.930,-14.160,-20.996,7.812,0.000
2511.000,17.090,-6.836,-20.020,27.832,0.000
2515.000,31.738,-7.324,-18.555,19.531,0.000
2519.000,43.457,-2.441,-9.277,15.137,0.000
2523.000,21.484,2.930,-8.301,19.531,0.000
2527.000,2.930,0.000,-12.207,12.695,0.000
2531.000,14.648,-0.488,-14.160,0.977,0.000
2535.000,24.902,-4.883,-17.090,0.488,0.000
2539.000,19.043,-3.418,-15.625,-3.906,0.000
2543.000,2.441,-3.418,-15.137,-7.812,0.000
2546.000,10.742,-2.930,-13.672,8.301,0.000
2550.000,30.273,7.324,-5.371,21.973,0.000
2554.000,28.809,6.836,0.000,22.461,0.000
2558.000,0.488,4.883,-3.418,20.020,0.000
2562.000,-12.207,4.395,-3.418,19.043,0.000
2566.000,7.812,7.812,-3.418,18.066,0.000
2570.000,9.277,11.719,-3.418,3.418,0.000
2574.000,3.906,8.301,-6.348,-10.742,0.000
2578.000,23.926,8.789,-9.766,-4.395,0.000
2582.000,18.555,4.395,-8.789,9.766,0.000
2586.000,-6.836,1.465,-0.977,15.625,0.000
2589.000,-1.953,1.953,0.000,20.996,0.000
2593.000,4.883,-1.953,-1.465,16.113,0.000
2597.000,23.438,-2.441,-4.883,20.996,0.000
2601.000,23.438,-6.348,-10.254,11.719,0.000
2605.000,4.883,-5.371,-11.230,-11.230,0.000
2609.000,1.953,-2.441,-10.254,8.301,0.000
2613.000,4.883,-2.930,-5.859,22.461,0.000
2617.000,11.230,-5.371,-7.324,8.789,0.000
2621.000,16.113,-3.418,-14.160,-2.441,0.000
2625.000,6.348,-1.465,-10.742,6.348,0.000
2629.000,8.301,0.488,-9.766,19.531,0.000
2632.000,21.484,4.395,-15.625,18.555,0.000
2636.000,16.113,3.906,-16.602,13.672,0.000
2640.000,5.371,2.930,-16.602,3.418,0.000
2644.000,19.531,1.953,-14.648,2.441,0.000
2648.000,35.156,-2.441,-13.672,13.672,0.000
2652.000,21.484,-7.812,-11.230,6.836,0.000
2656.000,1.953,-8.789,-9.277,1.953,0.000
2660.000,5.371,-6.348,-9.766,13.672,0.000
2664.000,22.461,-5.859,-9.766,14.648,0.000
2668.000,17.090,-6.836,-12.207,7.324,0.000
2671.000,5.859,-4.883,-11.719,5.371,0.000
2675.000,0.488,-6.348,-18.066,6.348,0.000
2679.000,9.277,-7.324,-19.043,-0.977,0.000
2683.000,16.602,-2.930,-16.602,1.465,0.000
2687.000,1.465,-5.371,-15.625,7.324,0.000
2691.000,-2.441,-8.301,-13.672,-7.324,0.000
2695.000,12.695,-4.395,-14.160,0.000,0.000
2699.000,19.531,0.488,-9.766,7.324,0.000
2703.000,6.836,3.906,-5.859,5.371,0.000
2707.000,-10.742,-3.418,-3.906,6.836,0.000
2711.000,-14.648,-8.789,-5.859,2.930,0.000
2714.000,-3.418,-6.348,-9.277,9.277,0.000
2718.000,14.160,-3.418,-5.859,13.184,0.000
2722.000,3.906,-3.418,-9.277,1.953,0.000
2726.000,-9.277,-6.836,-19.043,-8.301,0.000
2730.000,-2.930,-9.277,-16.602,-16.602,0.000
2734.000,14.648,-5.859,-10.742,-13.672,0.000
2738.000,4.395,-0.488,-6.836,-3.418,0.000
2742.000,-20.020,-2.441,-7.812,-4.883,0.000
2746.000,-9.277,-6.348,-9.766,-0.977,0.000
2750.000,6.836,-5.859,-6.836,5.859,0.000
2754.000,0.488,-9.766,-11.230,-0.977,0.000
2757.000,-4.395,-12.207,-15.137,-3.418,0.000
2761.000,-7.812,-14.648,-16.113,-9.766,0.000
2765.000,-5.859,-16.602,-14.648,-5.371,0.000
2769.000,-6.348,-15.137,-8.789,13.672,0.000
2773.000,-18.066,-11.230,-6.348,13.184,0.000
2777.000,-20.020,-10.254,-9.766,3.418,0.000
2781.000,-9.277,-8.789,-10.254,11.230,0.000
2785.000,-5.859,-9.277,-5.371,18.555,0.000
2789.000,5.371,-5.371,-2.441,22.461,0.000
2793.000,32.715,-3.418,-2.930,41.016,0.000
2796.000,44.922,-7.324,0.000,41.504,0.000
2800.000,6.348,-16.602,-3.418,15.625,0.000
2804.000,-38.574,-20.020,-4.395,10.254,0.000
2808.000,-33.691,-22.949,0.977,13.672,0.000
2812.000,-23.438,-28.809,-1.953,2.930,0.000
2816.000,-20.020,-24.414,-7.812,-9.277,0.000
2820.000,-31.738,-17.578,-12.207,-13.672,0.000
2824.000,-41.504,-29.785,-18.066,-31.738,0.000
2828.000,-25.391,-33.203,-19.531,-28.320,0.000
2832.000,-34.180,-27.832,-13.672,-22.461,0.000
2836.000,-73.242,-32.715,-8.301,-44.922,0.000
2839.000,-90.332,-31.250,-9.766,-36.621,0.000
2843.000,-79.590,-25.879,-9.766,-27.832,0.000
2847.000,-62.500,-23.926,-8.789,-32.227,0.000
2851.000,-49.805,-21.973,-8.301,-23.438,0.000
2855.000,-54.199,-26.367,-3.906,-29.785,0.000
2859.000,-66.406,-27.344,-6.836,-44.434,0.000
2863.000,-51.270,-20.020,-7.324,-35.645,0.000
2867.000,-33.691,-14.648,-5.371,-26.367,0.000
2871.000,-46.387,-13.184,-7.812,-39.551,0.000
2875.000,-53.223,-14.648,-12.695,-40.039,0.000
2878.000,-41.504,-18.555,-15.137,-33.691,0.000
2882.000,-28.320,-21.973,-16.113,-25.391,0.000
2886.000,-30.762,-25.391,-11.230,-17.578,0.000
2890.000,-24.414,-26.855,-9.277,-25.879,0.000
2894.000,-0.488,-21.973,-9.277,-17.578,0.000
2898.000,-0.977,-16.602,-4.395,-8.789,0.000
2902.000,-32.715,-18.066,-12.207,-6.836,0.000
2906.000,-34.180,-21.484,-20.508,-1.953,0.000
2910.000,-12.695,-22.949,-15.625,0.000,0.000
2914.000,6.836,-20.996,-17.090,5.859,0.000
2918.000,-15.625,-22.461,-17.578,10.254,0.000
2921.000,-35.156,-24.414,-14.648,4.395,0.000
2925.000,-5.371,-17.578,-18.555,5.859,0.000
2929.000,0.488,-15.137,-11.230,18.555,0.000
2933.000,12.207,-13.672,-12.207,15.137,0.000
2937.000,6.348,-12.695,-18.066,-1.465,0.000
2941.000,-26.367,-15.137,-17.578,0.488,0.000
2945.000,-41.992,-12.695,-20.020,6.836,0.000
2949.000,-40.039,-15.625,-23.438,0.977,0.000
2953.000,-25.879,-15.625,-20.020,0.977,0.000
2957.000,-24.902,-12.695,-18.066,3.906,0.000
2961.000,-5.859,-12.695,-16.113,9.766,0.000
2964.000,20.508,-7.324,-8.301,20.996,0.000
2968.000,11.719,-9.277,-3.906,15.625,0.000
2972.000,-19.043,-10.254,-4.883,5.371,0.000
2976.000,-27.832,-9.277,-7.324,4.395,0.000
2980.000,-11.230,-6.348,-12.207,-6.836,0.000
2984.000,-12.695,-5.371,-6.836,-1.953,0.000
2988.000,-26.367,-12.695,2.441,3.906,0.000
2992.000,-15.137,-15.137,0.488,3.906,0.000
2996.000,-1.953,-13.672,-0.488,-0.977,0.000
3000.000,-8.301,-11.719,-1.953,-20.508,0.000
3003.000,-21.973,-10.254,-3.418,-19.043,0.000
3007.000,-32.227,-7.812,4.395,-10.254,0.000
3011.000,-21.973,-4.395,0.977,-14.648,0.000
3015.000,-13.672,-10.254,-4.395,-1.465,0.000
3019.000,-25.879,-11.230,-1.465,-1.953,0.000
3023.000,-34.180,-9.766,-4.883,-14.648,0.000
3027.000,-35.156,-12.695,-11.719,-4.883,0.000
3031.000,-16.113,-11.719,-12.695,4.395,0.000
3035.000,-20.996,-9.766,-7.812,-0.488,0.000
3039.000,-31.250,-6.836,-7.812,-7.324,0.000
3043.000,-13.184,-4.395,-5.371,10.254,0.000
3046.000,-7.812,-5.859,-1.953,26.855,0.000
3050.000,-5.859,-5.859,-3.418,31.250,0.000
3054.000,-16.602,-6.836,-4.883,18.066,0.000
3058.000,-20.020,-5.859,-3.418,11.719,0.000
3062.000,-12.207,-11.719,-1.953,20.996,0.000
3066.000,-15.137,-10.742,-2.441,19.531,0.000
3070.000,-14.648,-0.488,4.395,11.719,0.000
3074.000,-13.184,2.441,9.277,-2.441,0.000
3078.000,5.859,0.977,9.766,0.977,0.000
3082.000,24.902,2.441,11.719,7.812,0.000
3085.000,2.930,3.906,15.137,-2.930,0.000
3089.000,-16.602,-0.488,15.137,-6.836,0.000
3093.000,0.000,1.465,12.695,-1.465,0.000
3097.000,16.602,1.953,8.301,1.953,0.000
3101.000,4.395,-5.371,3.418,-11.230,0.000
3105.000,-16.113,0.000,5.371,-6.836,0.000
3109.000,-12.207,2.441,4.395,-3.418,0.000
3113.000,13.672,3.418,3.418,-12.695,0.000
3117.000,12.695,-0.488,4.883,-6.836,0.000
3121.000,-3.906,-6.836,5.859,2.930,0.000
3125.000,-1.953,-2.441,7.324,2.441,0.000
3128.000,-12.695,-0.488,0.977,-0.488,0.000
3132.000,-10.254,-0.977,-1.465,0.488,0.000
3136.000,15.137,4.883,1.953,-1.465,0.000
3140.000,-10.742,3.418,-0.977,-5.371,0.000
3144.000,-58.105,-2.930,1.465,-3.906,0.000
3148.000,-44.922,-2.930,2.930,-5.859,0.000
3152.000,-33.203,-6.836,0.488,-7.812,0.000
3156.000,-41.504,-3.906,0.488,-6.836,0.000
3160.000,-28.320,-3.906,-0.977,-7.812,0.000
3164.000,-5.371,-3.906,3.906,-2.930,0.000
3168.000,17.578,4.395,3.418,1.953,0.000
3171.000,14.648,1.953,-1.465,-0.488,0.000
3175.000,-13.184,-2.930,0.000,-1.953,0.000
3179.000,-16.113,-3.906,-0.488,1.465,0.000
3183.000,-9.766,-6.348,2.930,6.836,0.000
3187.000,-26.855,-8.301,5.371,2.930,0.000
3191.000,-29.785,-8.301,0.977,5.371,0.000
3195.000,-4.883,-6.348,3.906,14.160,0.000
3199.000,20.996,-7.324,4.395,30.762,0.000
3203.000,16.113,-8.301,-0.977,15.625,0.000
3207.000,-26.367,-9.766,-4.883,-22.949,0.000
3210.000,-49.316,-14.648,-8.301,-17.090,0.000
3214.000,-26.367,-12.695,-7.812,-1.953,0.000
3218.000,-9.766,-4.883,-4.883,4.883,0.000
3222.000,-38.574,-7.812,-9.766,-7.324,0.000
3226.000,-32.715,-7.324,-14.160,-16.113,0.000
3230.000,-8.301,-3.906,-14.648,-3.418,0.000
3234.000,-6.836,-5.371,-14.648,-2.441,0.000
3238.000,-12.207,-0.488,-9.277,-6.836,0.000
3242.000,-10.742,-3.418,-10.254,-7.812,0.000
3246.000,12.207,-6.836,-20.020,-6.348,0.000
3250.000,4.395,-4.883,-16.113,-3.906,0.000
3253.000,-31.738,-4.395,0.488,-0.488,0.000
3257.000,-43.945,-2.441,2.441,1.465,0.000
3261.000,-19.531,-4.883,-7.812,-6.348,0.000
3265.000,-11.230,-5.371,-11.719,-14.160,0.000
3269.000,-10.742,1.953,-14.160,-20.020,0.000
3273.000,-6.836,-1.465,-18.066,-6.836,0.000
3277.000,-20.020,-5.859,-21.484,2.930,0.000
3281.000,-13.672,-8.301,-21.484,-5.859,0.000
3285.000,8.301,-5.859,-14.160,2.441,0.000
3289.000,-1.465,-1.953,-7.812,-0.488,0.000
3292.000,-11.719,-4.395,-12.695,-12.695,0.000
3296.000,-7.812,-7.324,-12.207,-6.348,0.000
3300.000,-9.766,-3.906,-7.812,-8.789,0.000
3304.000,-17.090,1.465,-10.254,-26.367,0.000
3308.000,-28.809,-6.348,-13.672,-26.367,0.000
3312.000,-20.508,-11.230,-13.672,-10.254,0.000
3316.000,-5.859,-11.719,-13.184,-6.348,0.000
3320.000,-10.254,-15.625,-14.648,-9.766,0.000
3324.000,-25.879,-20.508,-16.113,-12.207,0.000
3328.000,-20.020,-14.648,-14.160,-9.277,0.000
3332.000,7.324,-4.395,-13.184,-3.418,0.000
3335.000,17.578,0.000,-14.160,-7.324,0.000
3339.000,4.883,-0.977,-7.812,-12.695,0.000
3343.000,-6.348,-1.953,-0.977,-5.859,0.000
3347.000,-1.953,-1.465,-1.465,5.371,0.000
3351.000,-7.812,-8.301,-7.812,5.859,0.000
3355.000,-17.090,-10.254,-7.812,1.953,0.000
3359.000,-13.672,-10.254,-4.883,-7.324,0.000
3363.000,-3.906,-10.742,-6.348,0.000,0.000
3367.000,9.766,-7.812,-5.859,5.371,0.000
3371.000,-4.883,-13.184,-4.395,-5.371,0.000
