timestamp,TP9,AF7,AF8,TP10,Right AUX
0.000,-49.805,56.152,-345.703,-10.742,0.000
4.000,-54.199,92.285,-405.762,-65.918,0.000
8.000,-29.297,-104.492,-451.660,-75.684,0.000
12.000,-28.320,49.316,-329.590,-17.578,0.000
16.000,-59.570,233.398,-334.473,-6.836,0.000
19.000,-64.453,-150.391,-491.699,-60.547,0.000
23.000,-38.574,-321.289,-483.398,-60.547,0.000
27.000,-27.344,-574.707,-495.117,-11.719,0.000
31.000,-51.758,-331.055,-395.020,-6.836,0.000
35.000,-64.941,360.840,-289.551,-54.688,0.000
39.000,-46.875,58.594,-436.035,-70.312,0.000
43.000,-32.715,-172.852,-406.738,-35.645,0.000
47.000,-33.691,230.957,-269.043,-10.742,0.000
51.000,-33.691,379.883,-311.035,-32.227,0.000
55.000,-20.508,-73.242,-481.445,-64.453,0.000
59.000,-22.461,-146.973,-442.871,-43.457,0.000
63.000,-43.457,258.789,-309.570,1.953,0.000
66.000,-55.664,91.309,-395.020,-3.418,0.000
70.000,-53.711,-515.137,-577.637,-42.969,0.000
74.000,-37.598,-677.734,-606.445,-50.293,0.000
78.000,-31.250,148.438,-267.578,-11.719,0.000
82.000,-44.922,460.938,-265.625,-0.488,0.000
86.000,-45.898,-45.410,-449.219,-47.363,0.000
90.000,-26.367,-65.918,-394.531,-71.777,0.000
94.000,-15.137,400.391,-267.090,-16.113,0.000
98.000,-25.391,248.047,-333.008,27.832,0.000
102.000,-37.598,-181.152,-447.754,-28.809,0.000
105.000,-38.086,-59.570,-394.043,-80.078,0.000
109.000,-20.020,257.324,-339.355,-41.504,0.000
113.000,-24.902,90.820,-378.906,8.789,0.000
117.000,-42.969,-377.930,-452.148,-15.137,0.000
121.000,-31.250,-429.688,-474.609,-63.965,0.000
125.000,-17.090,92.773,-334.473,-41.992,0.000
129.000,-20.508,344.238,-328.125,15.137,0.000
133.000,-33.691,-385.742,-474.121,18.555,0.000
137.000,-39.551,-387.695,-406.250,-39.551,0.000
141.000,-20.996,278.809,-322.266,-55.176,0.000
145.000,-14.648,171.875,-365.723,-10.254,0.000
148.000,-33.203,47.363,-396.973,1.465,0.000
152.000,-45.898,88.379,-403.809,-40.039,0.000
156.000,-42.480,-113.770,-448.242,-65.430,0.000
160.000,-27.832,-376.953,-496.582,-10.254,0.000
164.000,-32.715,-489.258,-503.418,26.367,0.000
168.000,-52.246,36.133,-316.406,-26.367,0.000
172.000,-49.805,212.891,-375.000,-67.383,0.000
176.000,-25.391,6.836,-371.094,-26.855,0.000
180.000,-29.297,186.523,-285.156,5.859,0.000
183.000,-50.781,354.004,-314.453,-21.973,0.000
188.000,-49.316,96.191,-421.875,-68.848,0.000
191.000,-27.832,-112.305,-430.176,-51.270,0.000
195.000,-24.902,163.574,-290.039,13.672,0.000
199.000,-46.875,363.770,-290.039,8.789,0.000
203.000,-51.270,60.547,-431.641,-41.992,0.000
207.000,-36.621,-369.629,-490.723,-61.523,0.000
211.000,-35.645,-244.629,-361.816,-34.180,0.000
215.000,-51.270,-20.508,-360.352,-15.625,0.000
219.000,-57.617,-275.391,-482.910,-54.199,0.000
223.000,-34.180,-629.395,-518.555,-79.590,0.000
226.000,-18.555,-180.176,-337.402,-41.016,0.000
230.000,-36.133,482.910,-235.840,-6.348,0.000
234.000,-65.430,154.297,-412.109,-34.180,0.000
238.000,-64.453,-174.805,-493.652,-74.707,0.000
242.000,-41.992,107.422,-343.750,-57.617,0.000
246.000,-44.434,368.164,-266.113,-7.324,0.000
250.000,-62.988,79.590,-409.180,-15.625,0.000
254.000,-56.152,-479.004,-569.336,-60.059,0.000
258.000,-34.180,-222.168,-414.062,-54.688,0.000
262.000,-19.043,395.508,-244.141,8.789,0.000
266.000,-22.461,-188.477,-491.211,24.902,0.000
269.000,-32.715,-773.926,-637.207,-38.086,0.000
273.000,-31.738,-42.480,-350.586,-69.824,0.000
277.000,-31.738,351.074,-290.527,-26.855,0.000
281.000,-45.410,89.844,-369.141,-0.977,0.000
285.000,-46.875,-48.828,-391.602,-49.805,0.000
289.000,-32.715,151.855,-374.023,-78.125,0.000
293.000,-24.902,200.195,-354.004,-25.879,0.000
297.000,-28.809,29.297,-392.578,10.254,0.000
301.000,-38.574,-282.227,-455.078,-22.949,0.000
305.000,-32.227,-373.535,-458.984,-66.895,0.000
309.000,-18.555,-171.387,-418.945,-49.316,0.000
312.000,-23.438,-474.609,-466.797,-1.465,0.000
316.000,-34.180,-355.469,-405.762,-16.602,0.000
320.000,-31.250,144.531,-376.953,-70.801,0.000
324.000,-8.789,-121.582,-471.191,-69.336,0.000
328.000,0.488,43.945,-352.539,-18.555,0.000
332.000,-18.066,392.090,-278.320,-10.254,0.000
336.000,-29.297,239.258,-371.094,-49.805,0.000
340.000,-19.531,-100.586,-469.238,-54.199,0.000
344.000,-11.719,-41.504,-434.570,1.465,0.000
348.000,-29.785,14.160,-389.160,14.648,0.000
352.000,-48.340,-20.508,-373.535,-47.852,0.000
355.000,-34.180,-379.883,-534.668,-83.984,0.000
359.000,-19.043,-648.926,-559.570,-39.062,0.000
363.000,-23.926,188.477,-252.441,2.441,0.000
367.000,-31.738,363.281,-336.426,-24.414,0.000
371.000,-30.273,-181.152,-464.844,-64.453,0.000
375.000,-25.391,-109.863,-373.535,-47.363,0.000
379.000,-34.180,208.496,-293.457,1.465,0.000
383.000,-42.480,130.859,-367.676,1.953,0.000
387.000,-42.969,-44.922,-444.336,-49.316,0.000
391.000,-33.203,-34.180,-405.762,-57.617,0.000
395.000,-24.902,4.883,-388.184,-4.883,0.000
398.000,-43.457,-46.875,-377.441,5.371,0.000
402.000,-49.316,-596.191,-566.895,-43.457,0.000
406.000,-39.062,-467.773,-487.305,-61.523,0.000
410.000,-36.133,395.996,-250.488,-16.113,0.000
414.000,-41.992,271.973,-343.750,2.441,0.000
418.000,-52.246,-32.715,-439.453,-47.363,0.000
422.000,-44.434,86.914,-390.625,-88.379,0.000
426.000,-30.762,232.422,-326.172,-48.828,0.000
430.000,-39.551,48.828,-414.551,-1.465,0.000
434.000,-64.453,-266.113,-508.301,-22.949,0.000
437.000,-68.848,-185.059,-471.191,-71.777,0.000
441.000,-49.316,-46.875,-409.180,-83.008,0.000
445.000,-55.664,-291.504,-502.441,-54.688,0.000
449.000,-88.867,-572.754,-559.570,-64.941,0.000
453.000,-103.027,-51.270,-353.027,-115.723,0.000
457.000,-96.191,312.988,-347.168,-123.535,0.000
461.000,-101.074,136.719,-336.426,-74.707,0.000
465.000,-124.023,219.238,-287.598,-59.082,0.000
469.000,-135.742,239.258,-354.004,-125.488,0.000
473.000,-125.000,84.473,-416.992,-172.852,0.000
477.000,-114.746,51.758,-362.793,-134.277,0.000
480.000,-121.094,225.098,-268.555,-93.262,0.000
484.000,-137.207,222.656,-374.023,-139.648,0.000
488.000,-135.742,-194.336,-486.816,-182.129,0.000
492.000,-114.746,-692.871,-570.801,-134.766,0.000
496.000,-117.676,-641.113,-558.105,-81.055,0.000
500.000,-126.465,-52.734,-395.996,-104.980,0.000
504.000,-118.164,-51.270,-450.195,-146.484,0.000
508.000,-89.355,-154.297,-442.871,-123.535,0.000
512.000,-76.660,278.809,-270.996,-74.219,0.000
516.000,-102.539,445.801,-270.996,-57.129,0.000
519.000,-96.191,-21.973,-459.961,-94.238,0.000
523.000,-64.453,-279.297,-496.094,-93.262,0.000
527.000,-48.340,186.523,-288.574,-31.738,0.000
531.000,-61.035,410.156,-264.160,-18.066,0.000
535.000,-66.406,-324.707,-563.477,-59.570,0.000
539.000,-52.734,-684.570,-616.699,-80.566,0.000
543.000,-35.156,117.676,-289.062,-37.109,0.000
547.000,-28.809,208.008,-329.590,11.719,0.000
551.000,-44.922,-279.297,-437.988,-17.578,0.000
554.000,-42.969,-203.613,-405.273,-59.082,0.000
558.000,-22.461,270.508,-313.965,-26.367,0.000
563.000,-23.926,370.117,-296.387,15.137,0.000
566.000,-39.551,72.754,-377.930,-6.836,0.000
570.000,-36.133,-3.418,-381.348,-49.805,0.000
574.000,-11.719,239.258,-330.566,-40.039,0.000
578.000,0.977,246.094,-325.684,19.531,0.000
582.000,-19.531,-204.102,-441.895,22.949,0.000
586.000,-24.902,-474.121,-507.812,-32.715,0.000
590.000,-2.930,-329.102,-433.594,-28.809,0.000
594.000,15.137,4.395,-334.473,32.227,0.000
598.000,4.395,31.738,-336.914,34.668,0.000
601.000,-11.719,-203.125,-412.598,-27.344,0.000
605.000,1.465,-92.285,-412.598,-58.594,0.000
610.000,20.996,56.152,-384.277,-10.742,0.000
613.000,6.348,-140.137,-411.621,38.574,0.000
617.000,-15.137,17.578,-358.887,7.324,0.000
621.000,-15.625,125.000,-381.348,-39.551,0.000
625.000,13.184,-9.766,-428.223,-15.137,0.000
629.000,19.043,-223.633,-448.730,41.016,0.000
633.000,-9.766,-45.410,-339.844,42.969,0.000
637.000,0.488,136.719,-375.488,-11.230,0.000
641.000,32.227,-253.418,-466.797,-19.531,0.000
645.000,38.086,-116.211,-350.098,44.922,0.000
648.000,12.207,362.793,-276.367,50.293,0.000
652.000,-1.465,223.633,-419.434,-20.020,0.000
656.000,13.672,-401.855,-548.828,-42.969,0.000
660.000,18.555,-380.859,-410.645,17.090,0.000
664.000,-5.371,339.844,-260.254,43.945,0.000
668.000,-20.508,240.234,-399.414,-9.766,0.000
672.000,-5.859,-305.664,-545.410,-39.551,0.000
676.000,4.883,-311.523,-443.359,-6.348,0.000
680.000,-2.930,-16.113,-371.582,18.066,0.000
684.000,-17.578,-143.066,-452.637,-5.371,0.000
688.000,-14.648,-314.453,-467.285,-38.574,0.000
691.000,0.000,11.230,-365.234,-20.996,0.000
695.000,-9.277,383.301,-310.059,13.672,0.000
699.000,-28.320,268.066,-364.746,5.371,0.000
703.000,-25.391,-695.801,-684.082,-48.340,0.000
707.000,-22.461,-630.859,-577.148,-66.406,0.000
711.000,-25.879,369.141,-238.770,-14.648,0.000
715.000,-33.203,74.707,-423.340,12.695,0.000
719.000,-40.527,-172.852,-500.000,-44.434,0.000
723.000,-24.414,-113.281,-451.172,-59.082,0.000
727.000,-2.441,-78.125,-397.461,-2.930,0.000
731.000,-9.766,-180.176,-430.664,11.230,0.000
734.000,-24.414,-219.727,-484.863,-32.715,0.000
738.000,-15.625,158.203,-355.957,-65.430,0.000
742.000,-0.488,464.355,-232.422,-28.320,0.000
746.000,-0.977,-43.945,-420.410,29.297,0.000
750.000,-20.508,-462.891,-526.855,12.695,0.000
754.000,-28.320,119.141,-327.148,-50.293,0.000
758.000,2.441,181.152,-362.305,-41.992,0.000
762.000,1.953,160.645,-332.031,18.066,0.000
766.000,-26.855,195.801,-320.312,14.160,0.000
770.000,-27.832,-124.023,-444.824,-34.668,0.000
774.000,-10.742,-271.484,-452.148,-30.762,0.000
777.000,0.488,-446.777,-454.590,25.391,0.000
781.000,-17.090,-323.242,-378.906,36.621,0.000
785.000,-36.133,149.902,-330.566,-41.016,0.000
789.000,-33.203,16.602,-468.262,-79.590,0.000
793.000,-21.484,-311.035,-465.332,-27.832,0.000
797.000,-29.785,90.332,-299.805,4.395,0.000
801.000,-43.457,402.344,-342.773,-33.203,0.000
805.000,-21.484,-85.938,-505.371,-61.035,0.000
809.000,3.906,-82.031,-430.176,-13.672,0.000
813.000,-10.742,383.301,-300.293,37.598,0.000
816.000,-35.156,122.559,-411.133,-1.953,0.000
820.000,-39.062,-444.824,-555.664,-72.754,0.000
824.000,-20.996,-405.762,-555.664,-64.941,0.000
828.000,-7.324,58.105,-370.605,-2.930,0.000
832.000,-24.414,352.539,-290.527,6.836,0.000
836.000,-39.062,-309.082,-555.664,-31.738,0.000
840.000,-21.973,-682.129,-612.793,-32.227,0.000
844.000,-9.277,224.609,-266.602,9.277,0.000
848.000,-27.832,394.531,-285.645,23.438,0.000
852.000,-40.039,-59.082,-437.500,-32.227,0.000
856.000,-20.020,-15.137,-360.352,-60.547,0.000
859.000,-2.441,233.887,-316.406,-17.090,0.000
863.000,-14.160,43.457,-389.648,23.438,0.000
867.000,-34.180,-381.348,-449.707,5.371,0.000
871.000,-38.574,-416.016,-428.223,-50.781,0.000
875.000,-21.973,214.355,-286.133,-33.203,0.000
879.000,-17.090,338.867,-310.547,17.578,0.000
883.000,-34.180,-340.820,-442.871,3.418,0.000
887.000,-30.273,-284.180,-397.461,-50.781,0.000
891.000,-25.879,257.812,-315.918,-57.129,0.000
895.000,-30.273,186.523,-355.957,-16.113,0.000
898.000,-45.410,3.906,-410.645,-8.789,0.000
902.000,-49.805,111.816,-360.840,-57.129,0.000
906.000,-25.879,147.461,-389.160,-79.102,0.000
910.000,-15.137,-222.168,-491.699,-26.367,0.000
914.000,-31.738,-321.777,-481.934,5.859,0.000
918.000,-49.316,18.555,-376.953,-35.645,0.000
922.000,-46.875,200.684,-347.168,-83.008,0.000
926.000,-30.273,-194.824,-453.613,-49.316,0.000
930.000,-32.715,-391.602,-481.445,6.348,0.000
934.000,-55.176,236.816,-293.945,-13.184,0.000
938.000,-48.340,-11.719,-433.105,-62.500,0.000
942.000,-28.320,-248.047,-450.195,-46.387,0.000
945.000,-27.832,149.414,-290.039,-0.488,0.000
949.000,-41.992,339.355,-300.781,-9.277,0.000
953.000,-43.457,58.105,-429.199,-53.223,0.000
957.000,-19.531,-344.238,-504.395,-48.828,0.000
961.000,-21.484,-316.406,-412.598,7.324,0.000
965.000,-38.574,-80.078,-344.238,13.184,0.000
969.000,-41.992,-21.973,-416.016,-42.480,0.000
973.000,-34.668,-483.887,-506.836,-58.594,0.000
977.000,-26.855,-214.355,-341.797,-2.441,0.000
980.000,-35.645,458.984,-257.812,28.809,0.000
985.000,-48.340,80.566,-426.758,-18.555,0.000
988.000,-38.086,-194.824,-481.934,-69.824,0.000
992.000,-16.113,136.230,-360.840,-42.480,0.000
996.000,-17.578,126.465,-365.723,4.883,0.000
1000.000,-30.273,-204.102,-494.141,-16.113,0.000
1004.000,-40.039,-462.402,-559.570,-59.570,0.000
1008.000,-31.250,-173.828,-386.230,-56.641,0.000
1012.000,-25.879,441.406,-236.816,-13.184,0.000
1016.000,-43.457,-44.922,-448.730,-10.254,0.000
1020.000,-51.758,-729.004,-617.676,-61.523,0.000
1023.000,-34.180,-20.996,-336.426,-73.242,0.000
1027.000,-20.020,379.395,-288.574,-22.461,0.000
1031.000,-36.133,88.867,-366.699,7.812,0.000
1035.000,-46.387,-21.484,-394.043,-44.922,0.000
1039.000,-34.668,142.578,-365.234,-83.496,0.000
1043.000,-25.391,251.953,-297.363,-31.738,0.000
1047.000,-31.738,159.180,-344.238,2.441,0.000
1051.000,-44.922,-160.156,-439.453,-35.156,0.000
1055.000,-41.016,-349.121,-504.883,-75.195,0.000
1059.000,-27.344,-165.527,-441.895,-39.062,0.000
1063.000,-29.297,-502.930,-504.395,15.137,0.000
1066.000,-37.109,-457.031,-470.215,-13.672,0.000
1070.000,-40.527,145.996,-372.070,-72.266,0.000
1074.000,-20.020,19.531,-436.035,-62.988,0.000
1078.000,-14.160,18.555,-378.906,5.371,0.000
1082.000,-41.992,264.160,-307.129,16.602,0.000
1086.000,-52.246,151.855,-354.980,-54.199,0.000
1090.000,-28.809,-104.980,-442.383,-81.543,0.000
1094.000,-17.578,-43.945,-435.547,-23.438,0.000
1098.000,-25.391,10.254,-384.766,16.113,0.000
1102.000,-31.738,-212.402,-438.965,-22.461,0.000
1106.000,-41.992,-602.051,-584.473,-60.059,0.000
1109.000,-33.691,-654.297,-541.016,-26.855,0.000
1113.000,-37.598,190.918,-249.023,6.348,0.000
1117.000,-51.758,355.957,-334.473,-23.926,0.000
1121.000,-34.668,-146.484,-453.125,-64.453,0.000
1125.000,-15.137,-33.691,-362.305,-43.457,0.000
1129.000,-26.855,404.297,-274.902,5.859,0.000
1133.000,-42.480,257.324,-354.980,10.742,0.000
1137.000,-41.992,-115.234,-450.684,-42.969,0.000
1141.000,-32.715,-55.176,-398.926,-60.059,0.000
1145.000,-26.367,37.598,-367.188,-4.883,0.000
1149.000,-41.992,-75.195,-380.371,14.648,0.000
1152.000,-46.875,-616.211,-566.406,-38.086,0.000
1156.000,-28.320,-441.895,-490.234,-64.453,0.000
1160.000,-14.648,312.988,-290.039,-14.648,0.000
1164.000,-29.785,72.754,-392.090,16.602,0.000
1168.000,-53.223,-113.281,-427.246,-37.109,0.000
1172.000,-41.016,74.219,-382.812,-80.566,0.000
1176.000,-14.160,350.098,-286.621,-27.344,0.000
1180.000,-19.531,196.289,-357.422,18.555,0.000
1184.000,-45.898,-57.617,-440.918,-19.043,0.000
1188.000,-45.410,18.066,-423.340,-57.617,0.000
1191.000,-22.949,-52.734,-414.551,-29.785,0.000
1195.000,-21.973,-338.379,-510.254,26.855,0.000
1199.000,-44.434,-622.070,-587.891,16.602,0.000
1203.000,-50.781,-123.535,-380.371,-53.223,0.000
1207.000,-27.344,220.703,-356.934,-58.594,0.000
1211.000,-10.254,113.281,-322.266,7.812,0.000
1215.000,-23.438,97.168,-323.730,26.367,0.000
1219.000,-42.480,-47.852,-415.039,-31.738,0.000
1223.000,-35.645,-87.891,-431.152,-59.570,0.000
1227.000,-21.973,27.344,-367.676,-5.859,0.000
1231.000,-36.133,206.055,-286.133,30.273,0.000
1234.000,-43.945,210.449,-371.582,-9.766,0.000
1238.000,-26.855,-100.586,-461.914,-61.523,0.000
1242.000,-14.648,-677.734,-572.754,-24.902,0.000
1246.000,-23.926,-550.781,-461.426,22.949,0.000
1250.000,-42.480,222.656,-294.922,-6.836,0.000
1254.000,-41.504,-9.277,-459.961,-46.387,0.000
1258.000,-22.949,-125.488,-415.039,-24.902,0.000
1262.000,-17.578,305.176,-269.531,20.020,0.000
1266.000,-34.180,433.594,-288.086,-7.812,0.000
1270.000,-35.156,-4.883,-453.613,-66.406,0.000
1274.000,-20.508,-410.645,-562.988,-64.453,0.000
1277.000,-26.367,37.598,-329.102,-13.184,0.000
1281.000,-42.480,415.527,-268.066,-2.441,0.000
1285.000,-39.551,-263.672,-583.008,-46.387,0.000
1289.000,-28.809,-677.246,-641.113,-66.895,0.000
1293.000,-30.273,117.188,-316.895,-6.836,0.000
1297.000,-36.621,500.000,-284.180,36.133,0.000
1301.000,-43.945,-40.039,-421.875,-15.137,0.000
1305.000,-35.645,-233.398,-438.965,-58.594,0.000
1309.000,-10.742,159.668,-353.027,-24.414,0.000
1313.000,-10.254,290.039,-341.797,18.066,0.000
1317.000,-37.598,-5.371,-419.922,-6.348,0.000
1320.000,-42.480,-165.527,-418.457,-64.941,0.000
1324.000,-24.414,138.184,-335.938,-66.406,0.000
1328.000,-23.926,266.113,-310.547,0.000,0.000
1332.000,-42.480,-163.574,-425.293,8.789,0.000
1336.000,-44.434,-497.070,-494.629,-50.293,0.000
1340.000,-19.531,-355.469,-459.961,-58.105,0.000
1344.000,-23.926,-68.359,-369.629,-11.230,0.000
1348.000,-50.781,-455.566,-453.613,8.301,0.000
1352.000,-58.105,-461.426,-444.824,-33.691,0.000
1356.000,-41.992,192.383,-340.332,-67.383,0.000
1360.000,-21.484,177.246,-360.840,-35.645,0.000
1363.000,-27.832,109.375,-374.023,9.766,0.000
1367.000,-51.270,188.477,-355.469,-21.973,0.000
1371.000,-46.387,173.828,-377.441,-85.938,0.000
1375.000,-23.438,-15.625,-428.223,-62.500,0.000
1379.000,-35.156,-218.262,-449.219,0.000,0.000
1383.000,-53.711,-104.980,-395.020,-17.090,0.000
1387.000,-52.734,-93.262,-408.203,-64.453,0.000
1391.000,-25.879,-479.492,-558.594,-47.852,0.000
1395.000,-1.465,-540.527,-507.812,17.090,0.000
1399.000,-14.160,152.832,-280.273,32.227,0.000
1402.000,-41.504,158.691,-415.527,-41.016,0.000
1406.000,-43.457,-171.387,-461.426,-74.219,0.000
1410.000,-30.273,134.277,-305.176,-10.742,0.000
1414.000,-39.062,446.777,-272.461,19.531,0.000
1418.000,-62.012,185.059,-404.785,-28.320,0.000
1422.000,-58.105,-210.938,-502.441,-67.383,0.000
1426.000,-39.551,-196.289,-404.785,-32.715,0.000
1430.000,-42.480,-40.039,-334.473,4.883,0.000
1434.000,-53.711,-89.844,-403.809,-25.391,0.000
1438.000,-37.109,-593.262,-580.078,-66.406,0.000
1442.000,-17.090,-562.988,-511.230,-49.316,0.000
1445.000,-24.414,204.102,-294.434,-5.859,0.000
1449.000,-32.227,196.289,-361.328,-2.930,0.000
1453.000,-36.621,-145.020,-472.656,-58.105,0.000
1457.000,-28.320,96.191,-352.051,-60.059,0.000
1461.000,-20.020,402.832,-258.301,7.812,0.000
1465.000,-39.062,174.316,-371.582,30.273,0.000
1469.000,-41.992,-166.992,-509.766,-24.414,0.000
1473.000,-28.809,-250.977,-492.188,-58.105,0.000
1477.000,-27.344,83.008,-287.109,-1.953,0.000
1481.000,-40.039,15.625,-398.438,30.762,0.000
1484.000,-51.758,-610.352,-616.211,-31.250,0.000
1488.000,-42.480,-87.402,-360.840,-86.426,0.000
1492.000,-20.508,362.793,-304.199,-62.012,0.000
1496.000,-16.602,38.574,-391.113,-16.113,0.000
1500.000,-31.738,-172.852,-384.277,-28.320,0.000
1504.000,-31.250,81.055,-335.449,-63.477,0.000
1508.000,-17.578,204.590,-355.957,-35.156,0.000
1512.000,-21.484,135.742,-347.656,13.184,0.000
1516.000,-41.992,25.879,-381.348,-6.348,0.000
1520.000,-42.969,-277.344,-501.465,-69.824,0.000
1524.000,-30.762,-289.551,-474.609,-71.777,0.000
1527.000,-20.996,-525.879,-504.395,-6.836,0.000
1531.000,-37.109,-427.246,-452.148,0.488,0.000
1535.000,-53.223,211.914,-357.422,-48.340,0.000
1539.000,-34.180,106.445,-439.941,-63.477,0.000
1543.000,-20.508,20.020,-397.461,-14.648,0.000
1547.000,-32.715,321.289,-269.531,20.020,0.000
1551.000,-52.246,335.449,-314.453,-41.016,0.000
1555.000,-47.852,-187.012,-481.445,-87.402,0.000
1559.000,-24.414,-139.648,-414.062,-43.457,0.000
1563.000,-25.391,318.848,-289.062,6.836,0.000
1567.000,-45.898,60.547,-379.883,-11.230,0.000
1570.000,-41.992,-496.094,-553.711,-53.711,0.000
1574.000,-28.809,-664.062,-571.777,-51.270,0.000
1578.000,-28.320,132.324,-251.465,-4.395,0.000
1582.000,-34.180,442.383,-288.574,-4.395,0.000
1586.000,-46.875,-69.824,-441.895,-54.199,0.000
1590.000,-41.016,-98.145,-373.535,-72.754,0.000
1594.000,-32.715,327.637,-289.551,-21.484,0.000
1598.000,-48.340,323.730,-353.027,13.184,0.000
1602.000,-57.129,-102.051,-471.680,-38.086,0.000
1606.000,-43.457,-95.215,-426.270,-68.848,0.000
1609.000,-20.508,121.094,-347.168,-19.043,0.000
1613.000,-26.367,16.602,-361.328,10.742,0.000
1617.000,-49.805,-581.543,-592.285,-19.043,0.000
1621.000,-43.945,-790.527,-607.910,-53.223,0.000
1625.000,-26.855,19.531,-322.754,-40.527,0.000
1629.000,-38.086,280.273,-342.773,1.465,0.000
1633.000,-54.199,13.672,-420.410,-12.207,0.000
1637.000,-46.387,30.762,-389.160,-66.895,0.000
1641.000,-29.297,230.957,-332.031,-64.453,0.000
1645.000,-24.414,127.441,-357.422,-6.836,0.000
1649.000,-40.039,-44.434,-414.062,1.465,0.000
1652.000,-45.898,82.520,-356.934,-59.082,0.000
1656.000,-28.320,208.984,-318.848,-72.754,0.000
1660.000,-20.020,-74.707,-462.402,-12.207,0.000
1664.000,-34.180,-549.805,-570.801,17.090,0.000
1668.000,-44.922,-262.207,-406.738,-29.785,0.000
1672.000,-22.949,130.859,-367.188,-74.219,0.000
1676.000,-0.977,1.953,-350.586,-30.273,0.000
1680.000,-21.973,25.391,-308.105,13.672,0.000
1684.000,-43.945,250.000,-328.125,-22.461,0.000
1688.000,-29.297,138.672,-392.578,-64.941,0.000
1692.000,-4.883,-73.730,-419.434,-30.273,0.000
1696.000,-10.742,27.832,-334.473,21.484,0.000
1699.000,-33.203,260.254,-302.246,0.488,0.000
1703.000,-35.645,52.246,-421.387,-47.852,0.000
1707.000,-14.648,-374.023,-493.164,-42.480,0.000
1711.000,-2.930,-349.609,-389.648,9.766,0.000
1715.000,-25.879,-8.789,-331.543,12.695,0.000
1719.000,-36.621,-57.617,-409.668,-45.410,0.000
1723.000,-13.184,-379.395,-454.590,-49.316,0.000
1727.000,-4.883,-19.531,-300.293,6.836,0.000
1731.000,-9.277,456.055,-271.484,22.461,0.000
1735.000,-22.949,99.121,-471.680,-29.785,0.000
1739.000,-26.855,-524.902,-580.566,-58.105,0.000
1742.000,-21.973,-125.000,-360.840,-28.809,0.000
1746.000,-35.156,426.758,-275.391,0.488,0.000
1750.000,-53.223,71.289,-455.566,-15.137,0.000
1754.000,-41.504,-449.707,-596.191,-50.293,0.000
1758.000,-20.020,-234.863,-411.133,-35.156,0.000
1762.000,-24.414,365.234,-248.535,17.578,0.000
1766.000,-41.016,4.395,-420.898,-0.488,0.000
1770.000,-49.316,-356.934,-532.715,-58.594,0.000
1774.000,-43.945,100.098,-378.418,-59.570,0.000
1777.000,-27.832,216.309,-336.914,-9.766,0.000
1782.000,-37.598,-422.363,-545.410,4.883,0.000
1785.000,-55.664,-627.441,-585.449,-40.527,0.000
1789.000,-33.203,94.727,-340.332,-59.570,0.000
1793.000,-19.043,263.672,-299.805,-24.414,0.000
1797.000,-32.715,32.715,-382.812,6.348,0.000
1801.000,-48.340,-251.465,-446.289,-20.508,0.000
1805.000,-42.969,-350.586,-459.961,-51.270,0.000
1809.000,-12.695,-203.613,-405.762,-0.488,0.000
1813.000,-2.930,-99.121,-338.379,32.715,0.000
1817.000,-25.391,76.660,-320.312,-9.766,0.000
1820.000,-31.738,231.934,-348.633,-62.500,0.000
1824.000,-16.602,88.867,-396.484,-50.293,0.000
1828.000,-19.531,-228.027,-409.180,-4.883,0.000
1832.000,-41.016,-147.949,-371.582,-17.578,0.000
1836.000,-40.527,-44.922,-407.715,-63.477,0.000
1840.000,-20.508,-103.027,-438.965,-77.637,0.000
1844.000,-11.719,35.156,-413.574,-17.578,0.000
1848.000,-21.484,-11.719,-396.973,20.508,0.000
1852.000,-35.645,-100.586,-399.414,-28.320,0.000
1856.000,-16.602,-255.859,-491.211,-59.570,0.000
1860.000,-6.348,-232.422,-475.586,2.441,0.000
1863.000,-27.344,351.562,-261.230,23.926,0.000
1867.000,-36.621,377.441,-316.895,-32.715,0.000
1871.000,-34.668,-419.922,-575.684,-68.848,0.000
1875.000,-23.438,-549.316,-531.250,-39.551,0.000
1879.000,-25.391,356.934,-229.492,10.254,0.000
1883.000,-35.156,310.059,-339.844,-16.113,0.000
1887.000,-31.738,-149.414,-463.379,-66.895,0.000
1891.000,-18.066,-219.238,-410.645,-45.898,0.000
1895.000,-13.672,-71.777,-388.672,4.395,0.000
1899.000,-34.180,-135.742,-406.738,0.977,0.000
1903.000,-43.457,-400.391,-477.539,-47.852,0.000
1906.000,-22.461,-253.906,-428.223,-62.012,0.000
1910.000,-13.672,305.664,-258.789,-12.695,0.000
1914.000,-27.832,340.820,-332.520,13.184,0.000
1918.000,-33.203,-353.027,-488.770,-38.086,0.000
1922.000,-20.020,-290.527,-396.484,-78.125,0.000
1926.000,-9.766,319.824,-287.109,-38.574,0.000
1930.000,-23.438,213.867,-358.887,7.324,0.000
1934.000,-36.133,-35.645,-444.336,-14.160,0.000
1938.000,-19.043,104.004,-378.906,-49.805,0.000
1942.000,-7.812,24.902,-379.883,-26.367,0.000
1945.000,-19.531,-311.523,-488.770,20.508,0.000
1949.000,-34.668,-324.707,-489.746,7.812,0.000
1953.000,-32.715,40.039,-362.305,-62.012,0.000
1957.000,-25.391,284.180,-328.613,-71.777,0.000
1961.000,-28.809,-183.594,-476.562,-13.672,0.000
1965.000,-41.504,-460.449,-533.203,0.000,0.000
1969.000,-44.434,115.234,-373.047,-49.805,0.000
1973.000,-15.137,155.762,-436.523,-69.824,0.000
1977.000,-7.324,72.754,-394.531,-17.578,0.000
1981.000,-37.598,153.809,-323.730,2.930,0.000
1985.000,-51.270,119.629,-419.922,-43.945,0.000
1988.000,-33.691,-171.875,-527.832,-67.871,0.000
1992.000,-8.789,-369.629,-468.750,-21.484,0.000
1996.000,-14.648,-143.066,-359.863,11.719,0.000
2000.000,-32.715,37.598,-397.461,-14.160,0.000
2004.000,-25.879,-210.938,-518.555,-61.035,0.000
2008.000,-10.254,-500.000,-484.863,-49.316,0.000
2012.000,-8.789,-64.941,-304.199,13.672,0.000
2016.000,-30.762,402.344,-291.504,2.441,0.000
2020.000,-29.785,-85.938,-484.375,-55.664,0.000
2024.000,-6.348,-215.820,-473.145,-57.129,0.000
2027.000,-7.812,310.547,-274.414,-5.371,0.000
2031.000,-21.973,400.879,-316.406,12.207,0.000
2035.000,-29.297,-335.449,-597.168,-39.551,0.000
2039.000,-21.484,-593.750,-596.680,-60.547,0.000
2043.000,-15.625,175.781,-298.340,-13.184,0.000
2047.000,-29.785,509.277,-256.348,6.836,0.000
2051.000,-44.922,-185.059,-499.023,-40.527,0.000
2055.000,-33.691,-673.828,-609.863,-67.871,0.000
2059.000,-14.648,-67.871,-332.520,-28.809,0.000
2063.000,-18.555,285.645,-288.086,22.949,0.000
2067.000,-34.668,107.910,-387.695,4.883,0.000
2070.000,-27.344,0.977,-391.602,-40.527,0.000
2074.000,-14.648,210.449,-333.984,-30.762,0.000
2078.000,-18.066,315.918,-326.172,-6.348,0.000
2082.000,-34.668,-48.828,-427.734,-9.277,0.000
2086.000,-44.922,-454.590,-482.422,-55.664,0.000
2090.000,-32.227,-260.742,-404.785,-74.707,0.000
2094.000,-32.227,139.648,-309.570,-19.043,0.000
2098.000,-48.340,-200.684,-367.188,5.859,0.000
2102.000,-52.246,-257.324,-374.512,-41.504,0.000
2106.000,-38.574,232.910,-330.078,-75.195,0.000
2110.000,-25.879,222.168,-321.777,-19.043,0.000
2114.000,-34.668,-74.707,-412.598,20.508,0.000
2117.000,-37.109,-152.344,-422.852,-31.250,0.000
2121.000,-30.273,88.867,-351.562,-68.359,0.000
2125.000,-21.973,55.664,-403.809,-26.855,0.000
2129.000,-19.531,-205.566,-452.637,18.066,0.000
2133.000,-43.945,-129.883,-366.211,-18.066,0.000
2137.000,-53.711,183.105,-314.453,-70.801,0.000
2141.000,-29.297,-188.477,-479.980,-55.664,0.000
2145.000,-27.832,-535.645,-519.043,0.977,0.000
2149.000,-47.852,92.773,-281.250,0.000,0.000
2152.000,-49.316,157.227,-382.812,-64.941,0.000
2157.000,-28.809,-159.180,-442.871,-68.848,0.000
2160.000,-15.625,87.402,-290.039,-9.766,0.000
2164.000,-31.250,334.961,-261.719,0.000,0.000
2168.000,-36.133,7.324,-397.949,-41.016,0.000
2172.000,-15.137,-302.734,-491.699,-66.895,0.000
2176.000,-7.812,-254.395,-390.137,-35.156,0.000
2180.000,-27.832,-74.707,-336.914,-9.277,0.000
2184.000,-41.016,-136.230,-404.297,-33.691,0.000
2188.000,-32.227,-677.246,-577.637,-77.637,0.000
2192.000,-24.414,-422.852,-462.402,-61.035,0.000
2195.000,-36.133,441.406,-227.539,-14.648,0.000
2199.000,-46.875,234.375,-384.766,-20.508,0.000
2203.000,-33.691,-236.328,-503.906,-45.410,0.000
2207.000,-13.672,27.344,-371.094,-31.250,0.000
2211.000,-24.902,469.727,-245.605,4.395,0.000
2215.000,-53.711,219.727,-346.191,0.977,0.000
2219.000,-63.477,-133.789,-462.891,-56.152,0.000
2223.000,-40.527,-174.316,-435.547,-68.848,0.000
2227.000,-36.621,-93.750,-350.586,-16.602,0.000
2231.000,-52.734,-234.375,-474.609,6.836,0.000
2235.000,-58.594,-599.609,-592.285,-37.109,0.000
2238.000,-58.105,-78.613,-361.328,-78.613,0.000
2242.000,-32.715,350.586,-290.527,-31.738,0.000
2246.000,-30.273,140.625,-327.637,15.137,0.000
2250.000,-52.734,51.270,-352.539,-22.461,0.000
2254.000,-47.363,147.949,-369.629,-69.336,0.000
2258.000,-24.902,146.484,-376.465,-45.898,0.000
2262.000,-19.043,78.125,-353.027,1.953,0.000
2266.000,-35.156,144.043,-324.219,-9.277,0.000
2270.000,-41.992,-76.660,-444.824,-59.082,0.000
2274.000,-23.438,-218.750,-434.570,-56.641,0.000
2277.000,-20.020,-515.137,-491.211,9.277,0.000
2281.000,-37.598,-597.656,-506.348,40.039,0.000
2285.000,-48.340,-21.973,-369.141,-24.414,0.000
2289.000,-38.574,39.551,-414.551,-60.059,0.000
2293.000,-20.020,38.086,-370.117,-0.488,0.000
2297.000,-25.391,270.020,-287.109,17.578,0.000
2301.000,-36.621,266.602,-338.867,-40.527,0.000
2305.000,-34.180,-51.758,-461.426,-73.730,0.000
2309.000,-23.438,-90.332,-431.641,-42.480,0.000
2313.000,-28.809,231.934,-318.848,1.953,0.000
2317.000,-39.551,-28.320,-397.461,-7.324,0.000
2320.000,-25.391,-506.348,-562.988,-42.969,0.000
2324.000,-16.602,-704.102,-603.027,-23.926,0.000
2328.000,-29.785,-45.898,-314.941,25.879,0.000
2332.000,-46.387,385.254,-291.016,17.578,0.000
2336.000,-35.156,-208.496,-483.887,-44.922,0.000
2340.000,-3.906,-339.844,-446.289,-54.688,0.000
2344.000,-9.766,308.594,-261.719,-6.836,0.000
2348.000,-30.762,422.363,-311.035,5.371,0.000
2352.000,-34.180,-85.938,-465.332,-30.273,0.000
2356.000,-26.855,-91.309,-392.578,-66.895,0.000
2360.000,-15.137,248.535,-334.961,-41.504,0.000
2363.000,-20.020,95.703,-372.559,-5.371,0.000
2367.000,-43.457,-584.961,-574.707,-32.715,0.000
2371.000,-36.133,-739.258,-601.074,-62.012,0.000
2375.000,-14.648,130.371,-300.781,-43.457,0.000
2379.000,-27.344,296.387,-311.035,-8.301,0.000
2383.000,-50.781,10.742,-393.555,-20.508,0.000
2387.000,-47.852,83.008,-381.836,-69.336,0.000
2391.000,-26.367,221.680,-353.027,-60.547,0.000
2395.000,-15.137,38.086,-377.930,-8.301,0.000
2399.000,-33.691,-56.152,-395.020,-6.348,0.000
2402.000,-53.711,103.027,-382.812,-56.152,0.000
2406.000,-41.504,133.789,-380.371,-71.289,0.000
2410.000,-27.832,-240.234,-518.555,-7.324,0.000
2414.000,-36.621,-520.020,-561.523,20.508,0.000
2418.000,-48.340,-74.707,-390.625,-39.551,0.000
2422.000,-35.156,151.367,-408.691,-66.895,0.000
2426.000,-14.160,-50.781,-402.344,-12.695,0.000
2430.000,-24.414,15.137,-353.516,33.691,0.000
2434.000,-43.945,275.879,-354.980,0.000,0.000
2438.000,-33.203,104.980,-452.637,-50.293,0.000
2442.000,-16.602,-62.500,-421.875,-37.109,0.000
2445.000,-16.113,138.672,-317.871,12.695,0.000
2449.000,-34.668,121.094,-381.348,-6.836,0.000
2453.000,-22.949,-251.953,-508.789,-65.918,0.000
2457.000,-7.812,-490.723,-504.395,-54.688,0.000
2461.000,-22.949,-387.207,-426.758,4.883,0.000
2465.000,-32.715,-37.598,-371.094,1.953,0.000
2469.000,-31.250,12.207,-411.133,-58.594,0.000
2473.000,-12.695,-249.023,-468.262,-60.059,0.000
2477.000,2.930,43.945,-323.730,-6.348,0.000
2480.000,-2.441,474.121,-262.695,30.273,0.000
2485.000,-27.344,68.848,-432.617,-12.207,0.000
2488.000,-40.039,-192.871,-474.609,-71.289,0.000
2492.000,-36.133,196.777,-318.848,-42.480,0.000
2496.000,-38.086,439.453,-278.320,4.395,0.000
2500.000,-47.852,43.945,-471.191,-21.973,0.000
2504.000,-52.734,-450.195,-603.516,-69.336,0.000
2508.000,-36.133,-343.262,-472.656,-47.363,0.000
2512.000,-20.996,97.168,-325.195,9.766,0.000
2516.000,-37.598,-93.750,-458.984,-2.930,0.000
2520.000,-53.223,-726.562,-666.016,-48.828,0.000
2524.000,-34.668,-120.605,-360.840,-51.270,0.000
2527.000,-20.020,408.691,-265.625,-13.184,0.000
2531.000,-33.691,150.391,-359.375,1.953,0.000
2535.000,-41.016,-116.211,-434.570,-45.898,0.000
2539.000,-20.508,-60.059,-438.965,-64.941,0.000
2543.000,-9.277,186.523,-331.543,-7.324,0.000
2547.000,-22.461,146.484,-364.746,27.344,0.000
2551.000,-35.156,-175.781,-468.262,-22.461,0.000
2555.000,-32.227,-347.656,-494.629,-66.895,0.000
2559.000,-20.508,-186.035,-389.648,-33.203,0.000
2563.000,-19.531,-511.719,-488.770,16.113,0.000
2567.000,-34.668,-481.445,-485.352,-14.648,0.000
2570.000,-39.062,184.082,-343.750,-66.406,0.000
2574.000,-21.484,104.980,-395.020,-39.062,0.000
2578.000,-24.414,46.387,-366.699,3.906,0.000
2582.000,-50.293,286.133,-301.758,-19.043,0.000
2586.000,-42.480,229.980,-378.906,-69.336,0.000
2590.000,-22.461,-6.348,-437.012,-68.359,0.000
2594.000,-25.879,12.207,-417.480,-6.348,0.000
2598.000,-41.016,-10.254,-397.461,9.277,0.000
2602.000,-48.340,-185.547,-407.715,-52.734,0.000
2606.000,-35.645,-416.992,-550.293,-65.918,0.000
2609.000,-26.367,-555.664,-520.508,-8.301,0.000
2613.000,-37.109,152.832,-233.887,8.789,0.000
2617.000,-50.781,172.363,-354.492,-34.668,0.000
2621.000,-43.945,-276.855,-448.242,-76.660,0.000
2625.000,-20.020,64.453,-298.340,-56.641,0.000
2629.000,-29.785,481.445,-218.750,-6.836,0.000
2633.000,-52.734,309.082,-339.844,-15.137,0.000
2637.000,-47.852,-125.977,-439.453,-59.082,0.000
2641.000,-34.180,3.906,-343.750,-58.105,0.000
2645.000,-35.156,110.840,-352.539,-1.465,0.000
2649.000,-49.316,-47.852,-371.094,6.836,0.000
2652.000,-43.945,-609.863,-555.176,-36.133,0.000
2656.000,-24.414,-495.117,-485.352,-48.340,0.000
2660.000,-27.832,449.219,-202.148,-3.906,0.000
2664.000,-51.758,383.301,-271.973,18.066,0.000
2668.000,-53.711,25.391,-375.000,-35.156,0.000
2672.000,-37.109,-34.668,-409.668,-57.617,0.000
2676.000,-35.156,161.621,-290.039,1.465,0.000
2680.000,-41.016,240.234,-289.551,24.414,0.000
2684.000,-44.922,51.270,-406.738,-36.133,0.000
2688.000,-35.156,53.223,-395.508,-74.707,0.000
2692.000,-26.367,35.645,-344.238,-37.109,0.000
2695.000,-34.180,-109.863,-437.012,10.254,0.000
2699.000,-49.805,-501.465,-537.598,-11.719,0.000
2703.000,-46.387,-87.891,-321.289,-62.500,0.000
2707.000,-28.320,372.070,-277.344,-54.199,0.000
2711.000,-28.320,247.070,-257.324,3.906,0.000
2715.000,-33.203,228.027,-260.254,3.418,0.000
2719.000,-34.668,277.344,-332.520,-60.547,0.000
2723.000,-27.832,250.488,-343.750,-67.871,0.000
2727.000,-16.113,103.027,-340.332,-0.488,0.000
2731.000,-31.250,-35.645,-324.707,14.648,0.000
2734.000,-44.922,84.961,-363.281,-43.945,0.000
2738.000,-36.621,30.762,-382.324,-68.359,0.000
2742.000,-25.391,-511.230,-456.543,-20.508,0.000
2746.000,-40.527,-533.691,-463.867,0.488,0.000
2750.000,-48.340,214.844,-285.645,-39.062,0.000
2754.000,-33.203,206.543,-344.238,-69.336,0.000
2758.000,-10.254,-26.367,-334.961,-46.387,0.000
2762.000,-14.648,327.148,-211.426,0.977,0.000
2766.000,-40.039,550.293,-212.402,-16.602,0.000
2770.000,-35.156,179.688,-354.492,-71.777,0.000
2774.000,-20.508,-40.039,-379.883,-64.453,0.000
2777.000,-16.113,368.164,-202.637,4.395,0.000
2781.000,-36.133,441.895,-223.145,13.184,0.000
2785.000,-49.316,-203.613,-493.652,-35.156,0.000
2789.000,-29.297,-673.340,-554.199,-50.293,0.000
2793.000,-14.648,-70.801,-210.449,1.953,0.000
2797.000,-22.949,547.363,-135.254,22.949,0.000
2801.000,-39.062,51.270,-335.938,-44.922,0.000
2805.000,-24.414,-169.922,-365.723,-68.848,0.000
2809.000,0.977,448.730,-169.434,-16.113,0.000
2813.000,-6.836,580.566,-166.504,15.625,0.000
2817.000,-30.273,112.793,-299.316,-17.578,0.000
2820.000,-33.691,-84.473,-321.289,-58.105,0.000
2824.000,-11.230,284.180,-242.676,-43.457,0.000
2828.000,-14.648,437.012,-230.957,1.465,0.000
2832.000,-41.992,-75.684,-373.535,-7.812,0.000
2836.000,-40.527,-476.562,-423.828,-60.059,0.000
2840.000,-22.461,-257.812,-374.023,-54.688,0.000
2844.000,-20.020,-50.781,-319.824,-0.488,0.000
2848.000,-37.598,-102.051,-317.871,1.465,0.000
2852.000,-44.434,-15.625,-315.918,-51.270,0.000
2855.000,-30.273,209.473,-294.434,-65.918,0.000
2860.000,-11.719,166.504,-288.574,-12.207,0.000
2863.000,-22.949,-102.539,-328.613,7.324,0.000
2867.000,-46.387,50.781,-294.922,-47.852,0.000
2871.000,-30.273,238.281,-291.016,-79.590,0.000
2875.000,2.441,55.664,-350.586,-38.574,0.000
2879.000,-6.836,-111.328,-385.254,5.859,0.000
2883.000,-31.250,-113.770,-345.703,-12.695,0.000
2887.000,-27.832,71.289,-310.547,-62.012,0.000
2891.000,-18.066,-91.309,-411.621,-45.410,0.000
2895.000,-22.461,-210.938,-445.312,2.930,0.000
2898.000,-41.504,1.953,-333.984,1.953,0.000
2902.000,-43.457,142.090,-312.988,-47.363,0.000
2906.000,-26.855,-297.852,-491.699,-54.688,0.000
2910.000,-18.555,-413.086,-468.750,8.789,0.000
2914.000,-31.738,323.730,-234.863,12.207,0.000
2918.000,-41.016,233.398,-353.027,-49.805,0.000
2922.000,-31.250,-119.141,-467.285,-78.125,0.000
2926.000,-19.531,-174.316,-389.160,-19.531,0.000
2930.000,-14.648,-59.082,-316.406,30.762,0.000
2934.000,-30.762,-211.914,-413.574,-10.742,0.000
2938.000,-39.062,-358.398,-450.684,-62.988,0.000
2941.000,-21.973,10.742,-314.941,-29.785,0.000
2945.000,-21.973,467.285,-224.121,20.508,0.000
2949.000,-35.645,220.703,-359.863,-6.836,0.000
2953.000,-30.762,-598.633,-515.137,-58.594,0.000
2957.000,-21.973,-394.531,-388.184,-54.688,0.000
2961.000,-23.926,248.047,-280.762,3.418,0.000
2965.000,-35.156,103.516,-354.492,8.301,0.000
2969.000,-27.832,-242.676,-497.070,-55.664,0.000
2973.000,-2.930,-231.445,-452.637,-68.848,0.000
2977.000,1.953,11.230,-326.660,-15.625,0.000
2981.000,-16.113,-132.812,-424.805,1.953,0.000
2984.000,-28.320,-252.930,-503.418,-43.945,0.000
2988.000,-22.949,83.008,-343.750,-65.918,0.000
2992.000,-15.625,426.270,-222.168,-31.738,0.000
2996.000,-26.367,3.906,-396.484,7.812,0.000
3000.000,-41.504,-485.840,-507.324,-31.738,0.000
3004.000,-39.062,78.125,-306.152,-80.566,0.000
3008.000,-31.250,123.535,-333.008,-34.180,0.000
3012.000,-34.180,22.461,-302.246,12.207,0.000
3016.000,-54.199,92.773,-312.500,-12.695,0.000
3020.000,-52.246,-147.461,-432.129,-66.406,0.000
3024.000,-32.227,-336.914,-420.410,-59.570,0.000
3027.000,-24.414,-260.254,-349.609,0.977,0.000
3031.000,-37.109,75.684,-273.926,2.441,0.000
3035.000,-46.387,234.375,-314.453,-53.711,0.000
3039.000,-31.250,99.121,-376.953,-65.430,0.000
3043.000,-25.391,-298.340,-385.742,-9.277,0.000
3047.000,-40.039,-102.539,-296.387,12.695,0.000
3051.000,-46.875,290.527,-305.176,-41.016,0.000
3055.000,-32.227,-52.246,-437.012,-71.289,0.000
3059.000,-16.113,-39.551,-380.859,-20.508,0.000
3063.000,-21.973,256.348,-284.180,32.227,0.000
3067.000,-38.086,2.441,-388.672,-5.371,0.000
3070.000,-32.715,-515.625,-561.523,-65.430,0.000
3074.000,-9.766,-420.410,-510.254,-41.992,0.000
3078.000,0.977,255.371,-264.160,10.742,0.000
3082.000,-16.113,403.320,-264.648,0.000,0.000
3086.000,-34.180,-312.988,-514.648,-41.992,0.000
3090.000,-24.902,-657.715,-583.984,-44.922,0.000
3094.000,-20.020,240.723,-241.211,-6.348,0.000
3098.000,-30.273,366.699,-301.758,12.207,0.000
3102.000,-39.062,-143.066,-463.379,-37.598,0.000
3106.000,-27.344,-100.098,-403.809,-55.664,0.000
3109.000,-21.484,271.973,-320.312,-7.812,0.000
3113.000,-42.969,82.031,-385.254,10.254,0.000
3117.000,-56.641,-512.207,-524.902,-30.762,0.000
3121.000,-47.852,-596.191,-520.508,-71.289,0.000
3125.000,-35.645,-251.465,-423.340,-41.504,0.000
3129.000,-31.250,-68.848,-423.828,-0.488,0.000
3133.000,-45.898,-436.523,-496.582,-16.602,0.000
3137.000,-51.758,-393.066,-433.105,-66.406,0.000
3141.000,-30.762,285.645,-315.918,-54.199,0.000
3145.000,-24.902,303.711,-351.074,2.930,0.000
3149.000,-41.992,30.273,-447.754,-7.812,0.000
3152.000,-47.363,80.078,-403.809,-51.758,0.000
3156.000,-32.715,214.844,-355.957,-46.875,0.000
3160.000,-19.531,-104.492,-499.512,-4.883,0.000
3164.000,-33.691,-292.480,-524.902,8.789,0.000
3168.000,-45.898,-50.293,-441.895,-45.410,0.000
3172.000,-31.738,42.969,-443.359,-72.754,0.000
3176.000,-19.531,-229.492,-499.512,-13.672,0.000
3180.000,-29.785,-516.113,-553.711,19.043,0.000
3184.000,-47.363,37.598,-375.977,-21.484,0.000
3188.000,-33.203,184.082,-442.871,-61.523,0.000
3192.000,-11.719,-39.551,-453.125,-39.062,0.000
3195.000,-29.297,80.078,-347.168,6.348,0.000
3199.000,-57.129,279.785,-342.773,-12.207,0.000
3203.000,-47.852,118.164,-438.477,-57.129,0.000
3207.000,-23.438,-198.730,-493.164,-38.574,0.000
3211.000,-27.344,-294.434,-434.570,27.832,0.000
3215.000,-48.828,-115.234,-362.793,11.230,0.000
3219.000,-49.805,-41.992,-439.453,-62.012,0.000
3223.000,-32.227,-482.422,-539.551,-63.477,0.000
3227.000,-25.879,-206.055,-372.559,-8.301,0.000
3230.000,-42.969,354.980,-337.402,5.371,0.000
3235.000,-51.270,-121.094,-502.930,-51.758,0.000
3238.000,-39.062,-262.695,-492.676,-83.008,0.000
3242.000,-17.578,209.473,-318.848,-34.668,0.000
3246.000,-23.438,436.035,-270.508,1.465,0.000
3250.000,-53.223,24.414,-456.055,-32.715,0.000
3254.000,-44.434,-510.254,-590.332,-70.312,0.000
3258.000,-20.508,-219.238,-394.043,-35.645,0.000
3262.000,-27.832,433.594,-217.773,4.883,0.000
3266.000,-41.992,-29.297,-475.586,-11.230,0.000
3270.000,-40.527,-727.051,-654.785,-52.246,0.000
3273.000,-21.484,-31.738,-342.773,-63.965,0.000
3277.000,-16.113,434.570,-296.387,-11.719,0.000
3281.000,-45.898,-47.363,-406.250,5.371,0.000
3285.000,-52.734,-211.914,-421.875,-50.781,0.000
3289.000,-26.367,-5.371,-411.621,-65.918,0.000
3293.000,-23.438,117.676,-356.934,-2.441,0.000
3297.000,-43.945,141.602,-356.934,6.836,0.000
3301.000,-50.781,-253.906,-479.980,-32.227,0.000
3305.000,-30.762,-346.191,-475.586,-56.641,0.000
3309.000,-13.184,-49.805,-374.512,-33.203,0.000
3313.000,-27.344,-441.895,-515.137,15.137,0.000
3316.000,-46.387,-479.004,-512.207,-16.602,0.000
3320.000,-40.039,227.539,-372.070,-72.266,0.000
3324.000,-23.926,150.879,-404.785,-48.340,0.000
3328.000,-30.762,112.793,-372.559,3.418,0.000
3332.000,-41.016,239.746,-369.141,-16.602,0.000
3336.000,-38.086,187.988,-395.508,-78.125,0.000
3340.000,-29.297,-9.766,-451.172,-69.824,0.000
3344.000,-20.020,-47.363,-450.684,-11.719,0.000
3348.000,-25.879,-3.418,-399.902,-0.977,0.000
3352.000,-31.250,-217.285,-443.359,-59.570,0.000
3356.000,-17.578,-479.980,-590.820,-79.590,0.000
3359.000,-5.859,-604.980,-571.289,-19.043,0.000
3363.000,-28.320,36.621,-293.457,5.371,0.000
3367.000,-44.922,325.684,-359.375,-38.574,0.000
3371.000,-30.273,-57.129,-454.590,-70.312,0.000
3375.000,-17.090,106.934,-310.547,-24.902,0.000
3379.000,-25.879,401.855,-288.574,21.484,0.000
3383.000,-40.039,79.102,-450.195,-8.789,0.000
3387.000,-30.762,-161.621,-451.660,-51.270,0.000
3391.000,-5.859,-4.395,-365.723,-21.484,0.000
3395.000,-14.160,62.500,-376.465,13.672,0.000
3399.000,-41.016,-89.844,-405.273,-16.113,0.000
3402.000,-42.969,-660.645,-623.535,-55.176,0.000
3406.000,-27.832,-615.723,-528.320,-48.340,0.000
3410.000,-22.949,361.328,-228.516,-5.371,0.000
3414.000,-38.574,364.746,-340.332,6.348,0.000
3418.000,-50.781,-97.168,-447.754,-41.504,0.000
3422.000,-34.668,37.109,-398.438,-66.406,0.000
3426.000,-20.996,411.133,-272.461,-16.113,0.000
3430.000,-31.250,273.926,-321.777,14.648,0.000
3434.000,-45.898,-77.637,-467.285,-27.832,0.000
3438.000,-48.828,-17.090,-436.523,-64.453,0.000
3441.000,-39.551,37.109,-353.027,-31.250,0.000
3445.000,-38.086,-203.125,-489.746,21.484,0.000
3449.000,-41.992,-593.262,-583.496,-0.977,0.000
3453.000,-36.621,-167.480,-363.770,-61.035,0.000
3457.000,-24.414,97.656,-370.605,-38.574,0.000
3461.000,-27.832,-73.242,-328.125,6.836,0.000
3465.000,-45.898,102.051,-269.531,-10.742,0.000
3469.000,-51.270,229.980,-338.867,-64.941,0.000
3473.000,-39.062,183.105,-367.188,-67.871,0.000
3477.000,-28.320,75.195,-333.496,-10.742,0.000
3481.000,-38.086,164.551,-282.227,9.277,0.000
3484.000,-49.805,148.926,-365.723,-46.387,0.000
3488.000,-34.180,-120.605,-441.895,-75.195,0.000
3492.000,-18.555,-636.719,-541.992,-19.043,0.000
3496.000,-35.156,-628.906,-480.957,17.578,0.000
3500.000,-50.293,179.199,-280.273,-23.926,0.000
3504.000,-31.250,131.836,-384.277,-59.082,0.000
3508.000,-20.996,-12.207,-360.840,-26.855,0.000
3512.000,-34.180,154.297,-307.617,13.184,0.000
3516.000,-43.945,163.086,-331.055,-10.254,0.000
3520.000,-39.551,4.883,-417.969,-57.129,0.000
3523.000,-24.414,-90.332,-428.711,-43.457,0.000
3527.000,-5.859,283.203,-267.578,30.273,0.000
3531.000,-10.742,368.652,-284.180,38.086,0.000
3535.000,-17.090,-295.898,-576.172,-36.133,0.000
3539.000,-11.719,-764.160,-647.949,-53.711,0.000
3543.000,-17.578,8.301,-294.922,-11.719,0.000
3547.000,-33.691,441.895,-290.039,12.207,0.000
3551.000,-43.457,-135.254,-488.770,-32.715,0.000
3555.000,-35.156,-266.113,-484.375,-74.219,0.000
3559.000,-20.020,257.812,-319.824,-37.598,0.000
3563.000,-20.020,388.184,-311.035,5.859,0.000
3566.000,-39.062,-74.707,-448.242,-33.691,0.000
3570.000,-27.832,-376.465,-487.793,-69.336,0.000
3574.000,-16.113,112.305,-321.777,-47.852,0.000
3578.000,-18.066,377.930,-293.945,-10.742,0.000
3582.000,-36.621,-173.340,-471.191,-16.602,0.000
3586.000,-43.945,-519.043,-487.793,-71.777,0.000
3590.000,-17.090,-318.848,-437.988,-75.684,0.000
3594.000,-11.230,-104.980,-437.988,-19.531,0.000
3598.000,-31.250,-364.746,-441.895,-7.812,0.000
3602.000,-38.086,-364.746,-419.434,-57.617,0.000
3605.000,-22.461,161.621,-350.098,-59.082,0.000
3610.000,-13.184,233.398,-295.410,1.953,0.000
3613.000,-32.715,91.797,-341.309,25.391,0.000
3617.000,-45.898,140.625,-347.168,-28.809,0.000
3621.000,-24.902,174.805,-350.586,-67.871,0.000
3625.000,-5.371,8.301,-394.531,-12.207,0.000
3629.000,-11.719,-213.379,-434.082,31.250,0.000
3633.000,-28.809,-232.422,-402.832,-26.367,0.000
3637.000,-22.949,76.172,-328.613,-83.984,0.000
3641.000,-5.859,-114.258,-451.660,-42.480,0.000
3645.000,-14.648,-529.297,-520.996,21.973,0.000
3648.000,-40.527,98.145,-269.531,-0.977,0.000
3652.000,-47.363,283.203,-362.305,-59.082,0.000
3656.000,-25.879,-72.754,-443.848,-57.129,0.000
3660.000,-6.348,85.938,-314.941,-6.836,0.000
3664.000,-20.996,393.066,-290.039,4.395,0.000
3668.000,-25.879,184.570,-393.555,-48.828,0.000
3672.000,1.465,-143.066,-470.703,-60.059,0.000
3676.000,7.812,-214.844,-422.852,-4.883,0.000
3680.000,-16.113,-112.793,-378.418,18.066,0.000
3684.000,-29.297,-157.227,-451.172,-24.414,0.000
3688.000,-25.391,-704.590,-619.629,-55.176,0.000
3691.000,-16.602,-427.734,-470.703,-15.137,0.000
3695.000,-16.602,427.734,-248.535,19.531,0.000
3699.000,-40.039,170.898,-397.461,-16.113,0.000
3703.000,-44.922,-148.438,-476.074,-75.684,0.000
3707.000,-17.578,147.461,-345.215,-56.641,0.000
3711.000,-15.137,482.422,-248.047,6.348,0.000
3715.000,-26.855,150.879,-355.469,12.207,0.000
3719.000,-31.250,-219.238,-478.027,-36.621,0.000
3723.000,-23.926,-180.176,-436.523,-46.875,0.000
3727.000,-14.648,-25.879,-325.684,-2.930,0.000
3731.000,-27.344,-126.465,-450.684,6.836,0.000
3734.000,-41.504,-678.711,-634.277,-33.203,0.000
3738.000,-29.785,-379.395,-403.320,-47.852,0.000
3742.000,-13.184,270.508,-263.184,2.441,0.000
3746.000,-24.902,243.652,-282.715,35.156,0.000
3750.000,-33.691,97.168,-322.754,-10.254,0.000
3754.000,-23.926,228.516,-336.426,-61.523,0.000
3758.000,-14.648,302.246,-301.758,-35.156,0.000
3762.000,-20.020,184.570,-320.801,18.555,0.000
3766.000,-39.062,119.141,-349.609,-1.465,0.000
3770.000,-39.062,-180.176,-468.750,-57.129,0.000
3773.000,-22.949,-276.855,-429.688,-43.457,0.000
3777.000,-16.602,-523.926,-475.098,18.066,0.000
3781.000,-30.762,-489.258,-471.680,9.766,0.000
3785.000,-43.945,211.914,-326.172,-69.824,0.000
3789.000,-26.855,140.137,-385.742,-85.449,0.000
3793.000,-13.184,-90.820,-354.004,-26.367,0.000
3797.000,-27.344,133.789,-276.367,-9.277,0.000
3801.000,-45.410,262.695,-353.516,-51.758,0.000
3805.000,-33.691,-166.504,-492.676,-67.871,0.000
3809.000,-13.672,-252.441,-445.801,-22.461,0.000
3813.000,-29.297,189.453,-326.660,8.789,0.000
3816.000,-56.152,86.914,-380.859,-28.809,0.000
3820.000,-46.387,-415.527,-568.359,-61.035,0.000
3824.000,-23.438,-644.043,-578.613,-23.438,0.000
3828.000,-22.461,-7.324,-290.527,15.625,0.000
3832.000,-39.551,386.719,-302.734,-6.836,0.000
3836.000,-41.504,-135.254,-444.824,-59.570,0.000
3840.000,-23.438,-154.297,-388.184,-47.363,0.000
3844.000,-18.555,404.297,-251.953,13.672,0.000
3848.000,-32.227,206.543,-349.121,15.625,0.000
3852.000,-38.086,-266.602,-463.379,-37.109,0.000
3856.000,-21.973,-56.641,-359.375,-53.711,0.000
3859.000,-7.812,293.945,-312.012,-3.418,0.000
3863.000,-22.461,65.918,-364.746,15.137,0.000
3867.000,-48.340,-651.855,-596.191,-27.832,0.000
3871.000,-43.945,-741.211,-606.445,-59.082,0.000
3875.000,-20.996,164.062,-279.785,-27.344,0.000
3879.000,-26.367,355.469,-319.336,8.789,0.000
3883.000,-35.645,-34.180,-413.086,-21.973,0.000
3887.000,-20.996,27.832,-391.602,-58.105,0.000
3891.000,-12.207,379.883,-296.387,-39.551,0.000
3895.000,-20.508,335.938,-308.594,13.184,0.000
3898.000,-39.551,68.359,-383.789,2.441,0.000
3902.000,-43.457,18.555,-390.625,-54.199,0.000
3906.000,-24.414,-83.496,-397.949,-51.758,0.000
3910.000,-13.184,-237.305,-469.727,2.441,0.000
3914.000,-21.973,-559.082,-520.020,18.066,0.000
3918.000,-30.273,-217.285,-360.840,-43.457,0.000
3922.000,-8.789,174.316,-362.793,-64.941,0.000
3926.000,8.789,64.941,-330.566,-2.441,0.000
3930.000,-14.160,122.559,-313.477,23.926,0.000
3933.000,-40.527,222.168,-352.051,-34.180,0.000
3938.000,-26.855,88.379,-409.180,-67.383,0.000
3941.000,-18.555,-64.453,-375.000,-27.344,0.000
3945.000,-36.133,135.742,-280.762,6.348,0.000
3949.000,-53.223,256.348,-312.988,-24.414,0.000
3953.000,-48.828,46.387,-414.062,-62.988,0.000
3957.000,-33.203,-300.293,-476.562,-39.062,0.000
3961.000,-37.598,-286.133,-378.906,11.719,0.000
3965.000,-59.570,-115.723,-374.512,7.324,0.000
3969.000,-62.988,-314.453,-487.793,-49.316,0.000
3973.000,-34.668,-316.895,-431.641,-56.641,0.000
3977.000,-22.461,101.562,-270.996,10.254,0.000
3980.000,-43.945,421.875,-255.371,21.484,0.000
3984.000,-51.758,118.164,-413.574,-42.480,0.000
3988.000,-33.691,-331.055,-462.402,-66.406,0.000
3992.000,-21.484,57.617,-277.344,-17.090,0.000
3996.000,-34.668,435.059,-242.188,14.648,0.000
4000.000,-53.223,35.156,-437.988,-28.809,0.000
4004.000,-45.410,-465.820,-559.570,-70.801,0.000
4008.000,-16.113,-135.742,-356.445,-38.574,0.000
4012.000,-19.043,395.508,-258.789,16.113,0.000
4016.000,-54.688,-212.891,-520.508,-8.789,0.000
4020.000,-52.734,-579.590,-575.684,-73.730,0.000
4023.000,-32.715,90.820,-319.824,-63.965,0.000
4027.000,-34.180,525.879,-212.402,-14.160,0.000
4031.000,-44.434,-145.508,-472.168,-19.531,0.000
4035.000,-52.246,-678.223,-617.188,-77.148,0.000
4039.000,-37.598,103.027,-318.848,-74.219,0.000
4043.000,-27.832,358.398,-299.805,-8.301,0.000
4047.000,-41.992,100.098,-387.695,5.859,0.000
4051.000,-40.527,-316.406,-485.352,-38.574,0.000
4055.000,-23.438,-411.621,-509.766,-56.152,0.000
4059.000,-20.508,-205.078,-422.852,-10.254,0.000
4063.000,-31.250,-171.387,-379.883,21.484,0.000
4066.000,-42.480,-2.441,-343.750,-27.344,0.000
4070.000,-32.715,119.629,-384.277,-72.754,0.000
4074.000,-9.277,-12.207,-397.949,-44.434,0.000
4078.000,-22.949,-292.480,-388.184,17.578,0.000
4082.000,-44.434,-105.957,-344.727,16.113,0.000
4086.000,-38.574,241.699,-350.586,-62.988,0.000
4090.000,-12.695,36.133,-415.039,-71.777,0.000
4094.000,-9.277,21.973,-386.719,-7.324,0.000
4098.000,-36.621,7.324,-409.668,1.465,0.000
4102.000,-42.969,-101.074,-416.504,-48.340,0.000
4106.000,-22.461,-231.445,-510.254,-58.594,0.000
4109.000,-11.230,-231.445,-525.391,-4.883,0.000
4113.000,-26.367,265.137,-300.781,18.066,0.000
4117.000,-42.480,319.336,-346.191,-35.645,0.000
4121.000,-28.320,-354.492,-567.383,-63.477,0.000
4125.000,-10.742,-541.992,-544.434,-24.414,0.000
4129.000,-22.949,80.078,-325.195,-3.418,0.000
4133.000,-38.574,45.410,-412.109,-45.410,0.000
4137.000,-35.156,-119.629,-437.988,-75.684,0.000
4141.000,-19.531,33.203,-363.281,-44.922,0.000
4145.000,-26.855,98.145,-353.516,6.836,0.000
4148.000,-39.551,-149.902,-415.039,-6.348,0.000
4152.000,-38.086,-449.707,-507.324,-77.148,0.000
4156.000,-27.832,-204.590,-395.996,-66.895,0.000
4160.000,-24.414,385.254,-251.465,6.836,0.000
4164.000,-38.086,278.809,-349.121,13.672,0.000
4168.000,-38.086,-452.148,-503.906,-47.363,0.000
4172.000,-25.879,-314.453,-386.719,-58.594,0.000
4176.000,-11.719,390.625,-253.418,-0.977,0.000
4180.000,-25.391,261.230,-328.125,17.578,0.000
4184.000,-41.016,-237.793,-490.234,-33.203,0.000
4188.000,-25.879,-271.973,-500.000,-61.523,0.000
4191.000,-12.207,-31.250,-383.301,-21.484,0.000
4195.000,-19.531,-150.879,-468.262,18.555,0.000
4199.000,-41.992,-278.809,-557.129,-18.555,0.000
4203.000,-43.457,31.738,-404.785,-76.660,0.000
4207.000,-31.738,363.281,-309.570,-50.781,0.000
4211.000,-20.020,-13.184,-431.641,10.742,0.000
4215.000,-38.574,-439.453,-529.785,0.000,0.000
4219.000,-55.176,19.531,-353.516,-55.664,0.000
4223.000,-30.273,143.555,-369.141,-62.500,0.000
4227.000,-24.414,20.508,-373.047,-10.742,0.000
4231.000,-41.016,166.016,-296.875,0.488,0.000
4234.000,-45.898,153.320,-382.324,-46.387,0.000
4238.000,-22.949,-233.398,-492.676,-49.805,0.000
4242.000,-10.254,-344.727,-420.898,-9.766,0.000
4246.000,-21.484,-251.465,-390.625,-0.977,0.000
4250.000,-33.203,-40.527,-400.391,-41.992,0.000
4254.000,-29.297,119.141,-395.020,-72.754,0.000
4258.000,-16.602,-334.473,-408.691,-31.738,0.000
4262.000,-21.973,-134.766,-292.969,8.789,0.000
4266.000,-37.109,369.141,-288.574,-20.996,0.000
4270.000,-22.949,50.293,-413.574,-65.918,0.000
4273.000,1.465,-75.684,-399.414,-44.434,0.000
4277.000,-13.184,288.086,-261.719,15.625,0.000
4281.000,-35.645,375.488,-295.898,1.465,0.000
4285.000,-33.691,-315.430,-549.805,-46.875,0.000
4289.000,-20.020,-515.625,-529.297,-44.434,0.000
4293.000,-14.160,194.336,-277.344,-9.766,0.000
4297.000,-27.344,205.566,-320.312,-2.441,0.000
4301.000,-31.250,-459.961,-559.082,-37.598,0.000
4305.000,-23.926,-606.445,-574.219,-52.246,0.000
4308.000,-24.414,192.383,-258.789,-20.508,0.000
4313.000,-36.621,451.172,-262.207,0.488,0.000
4316.000,-49.805,3.418,-392.090,-34.180,0.000
4320.000,-41.992,-87.402,-389.160,-74.219,0.000
4324.000,-19.531,296.387,-285.156,-41.992,0.000
4328.000,-16.602,416.016,-286.621,17.578,0.000
4332.000,-47.363,-82.520,-437.988,1.465,0.000
4336.000,-51.270,-448.242,-509.766,-63.965,0.000
4340.000,-25.879,-227.539,-405.273,-68.848,0.000
4344.000,-23.926,209.961,-300.293,-10.742,0.000
4348.000,-40.039,-212.402,-424.805,3.906,0.000
4352.000,-44.922,-570.312,-464.844,-48.828,0.000
4355.000,-29.785,-80.078,-381.348,-58.105,0.000
