timestamp,TP9,AF7,AF8,TP10,Right AUX
0.000,-29.297,-25.879,-22.949,-26.367,0.000
4.000,-23.926,-30.273,-22.949,-17.578,0.000
8.000,-22.949,-29.297,-21.973,-8.789,0.000
12.000,-16.113,-21.973,-21.484,-14.160,0.000
16.000,-18.066,-19.043,-21.973,-16.602,0.000
20.000,-22.461,-18.066,-21.973,-18.066,0.000
23.000,-23.438,-18.066,-24.414,-18.555,0.000
27.000,-21.973,-20.508,-27.832,-24.902,0.000
31.000,-26.367,-24.902,-25.391,-25.879,0.000
35.000,-27.344,-24.414,-21.973,-23.926,0.000
39.000,-20.508,-26.855,-22.461,-27.344,0.000
43.000,-0.977,-24.414,-21.973,-29.785,0.000
47.000,7.324,-20.020,-20.996,-25.879,0.000
51.000,-17.090,-24.902,-22.949,-26.855,0.000
55.000,-31.738,-26.367,-22.461,-25.879,0.000
59.000,-13.184,-23.438,-23.926,-18.555,0.000
62.000,-6.348,-21.973,-24.414,-23.438,0.000
66.000,-6.348,-22.461,-24.414,-35.156,0.000
70.000,-12.695,-26.367,-29.785,-36.133,0.000
74.000,-49.805,-26.855,-31.250,-25.391,0.000
78.000,-68.848,-21.484,-25.391,-27.344,0.000
82.000,-70.312,-20.996,-23.438,-30.762,0.000
86.000,-61.523,-26.367,-25.391,-30.273,0.000
90.000,-45.898,-25.391,-29.297,-36.621,0.000
94.000,-39.551,-23.926,-30.762,-35.645,0.000
98.000,-41.992,-23.926,-27.344,-27.344,0.000
102.000,-25.879,-23.926,-25.879,-14.648,0.000
105.000,-1.465,-23.438,-24.414,-0.488,0.000
109.000,-18.555,-20.020,-28.809,-10.254,0.000
113.000,-41.992,-15.137,-32.715,-25.391,0.000
117.000,-37.598,-12.695,-32.715,-28.809,0.000
121.000,-9.277,-10.254,-33.203,-30.273,0.000
125.000,12.695,-5.371,-30.762,-19.531,0.000
129.000,-7.324,-0.977,-35.645,-4.395,0.000
133.000,-40.527,-0.488,-41.016,-13.672,0.000
137.000,-25.391,-1.465,-44.434,-24.414,0.000
141.000,-5.859,-0.977,-48.828,-33.691,0.000
145.000,2.441,3.418,-51.758,-39.062,0.000
148.000,18.555,7.812,-54.199,-26.367,0.000
152.000,19.531,7.324,-54.199,-22.461,0.000
156.000,26.855,11.230,-52.734,-29.785,0.000
160.000,21.484,20.020,-52.734,-29.785,0.000
164.000,5.371,27.832,-51.270,-21.484,0.000
168.000,23.438,33.691,-47.852,-8.301,0.000
172.000,49.316,35.156,-51.270,1.953,0.000
176.000,38.574,36.621,-53.223,-0.977,0.000
180.000,5.859,39.551,-54.199,1.953,0.000
184.000,-7.324,38.574,-56.641,6.348,0.000
187.000,4.883,38.574,-59.082,4.883,0.000
191.000,24.414,36.621,-64.941,1.953,0.000
195.000,37.598,35.645,-64.453,0.000,0.000
199.000,30.762,35.156,-66.406,-5.371,0.000
203.000,20.996,32.227,-66.895,-2.930,0.000
207.000,27.344,34.668,-64.941,1.465,0.000
211.000,30.273,32.715,-68.359,-2.930,0.000
215.000,30.762,29.297,-68.848,6.836,0.000
219.000,19.043,28.809,-62.500,11.230,0.000
223.000,3.906,24.902,-60.059,5.859,0.000
227.000,16.602,25.391,-61.035,5.371,0.000
230.000,28.809,24.414,-62.500,-5.371,0.000
234.000,25.879,19.043,-64.941,-11.230,0.000
238.000,17.090,18.066,-62.012,-12.207,0.000
242.000,28.320,21.484,-61.523,-1.465,0.000
246.000,33.691,17.090,-59.082,5.371,0.000
250.000,24.414,14.648,-57.617,-9.277,0.000
254.000,-4.395,10.742,-58.105,-15.625,0.000
258.000,-15.625,4.883,-51.270,-1.953,0.000
262.000,2.930,8.789,-50.781,18.066,0.000
266.000,-8.301,4.883,-53.223,6.348,0.000
270.000,-16.113,-0.488,-54.199,-13.184,0.000
273.000,-26.367,0.977,-50.781,-10.254,0.000
277.000,-16.113,2.441,-48.828,-3.418,0.000
281.000,-13.184,3.906,-46.875,-2.930,0.000
285.000,-17.090,-0.977,-42.480,-3.418,0.000
289.000,7.812,2.930,-38.574,-0.977,0.000
293.000,11.719,8.789,-39.551,-6.348,0.000
297.000,-2.930,3.906,-38.086,-16.602,0.000
301.000,-13.184,-1.465,-34.180,-12.207,0.000
305.000,-1.465,-3.418,-34.668,-4.883,0.000
309.000,3.906,2.930,-33.691,5.371,0.000
312.000,-5.859,0.977,-36.133,-0.488,0.000
316.000,-4.883,3.906,-41.016,-6.348,0.000
320.000,4.883,7.324,-42.969,-6.348,0.000
324.000,12.695,3.906,-42.480,-12.207,0.000
328.000,6.348,1.953,-38.086,-8.789,0.000
332.000,9.766,8.301,-35.156,-4.395,0.000
336.000,5.859,7.324,-32.227,-11.719,0.000
340.000,1.465,1.953,-34.180,-14.648,0.000
344.000,1.465,3.906,-32.227,-12.207,0.000
348.000,-2.441,-1.465,-32.715,-7.324,0.000
352.000,-0.488,-7.812,-34.180,-1.465,0.000
355.000,-10.254,-9.277,-29.785,-1.953,0.000
359.000,-1.953,-6.348,-25.391,1.953,0.000
363.000,10.254,-1.465,-29.785,5.371,0.000
367.000,-12.207,-1.465,-36.133,-2.930,0.000
371.000,-29.297,-4.883,-30.762,-1.953,0.000
375.000,-20.508,-8.301,-25.391,7.812,0.000
379.000,-10.254,-12.695,-28.809,11.230,0.000
383.000,-6.836,-13.184,-30.762,3.906,0.000
387.000,-11.719,-14.648,-29.297,0.000,0.000
391.000,-8.789,-14.648,-23.926,6.836,0.000
395.000,-0.488,-12.207,-20.508,9.766,0.000
398.000,-11.230,-12.695,-20.508,10.254,0.000
402.000,-23.926,-14.648,-20.996,10.742,0.000
406.000,-9.766,-18.066,-26.855,15.625,0.000
410.000,-12.695,-23.926,-27.344,15.625,0.000
414.000,-24.414,-21.973,-26.367,3.418,0.000
418.000,-9.766,-16.113,-30.762,-0.488,0.000
422.000,-13.672,-20.020,-32.715,0.488,0.000
426.000,-11.230,-28.320,-36.133,-5.859,0.000
430.000,0.000,-24.414,-35.645,-6.836,0.000
434.000,0.488,-18.066,-29.785,-6.348,0.000
437.000,-4.395,-24.902,-26.367,-2.441,0.000
441.000,-3.906,-24.902,-26.855,0.488,0.000
445.000,-6.836,-22.949,-28.320,-5.371,0.000
449.000,-1.953,-26.855,-32.227,-16.113,0.000
453.000,-1.465,-23.926,-29.785,-10.254,0.000
457.000,0.000,-22.949,-28.809,-11.230,0.000
461.000,14.160,-24.902,-28.809,-20.996,0.000
465.000,-10.254,-23.438,-27.832,-19.043,0.000
469.000,-31.250,-28.320,-28.809,-17.090,0.000
473.000,-29.297,-27.344,-31.738,-9.766,0.000
477.000,-31.738,-20.996,-27.832,-6.348,0.000
480.000,-20.996,-24.414,-25.391,-10.254,0.000
484.000,-17.090,-32.227,-29.785,-18.555,0.000
488.000,-25.879,-30.273,-28.320,-17.578,0.000
492.000,-31.250,-27.344,-28.320,-17.090,0.000
496.000,-22.949,-30.273,-25.391,-25.391,0.000
500.000,-27.832,-33.203,-20.020,-26.367,0.000
504.000,-43.945,-36.621,-19.531,-26.855,0.000
508.000,-26.855,-35.645,-14.648,-12.695,0.000
512.000,-16.602,-38.574,-17.578,-4.883,0.000
516.000,-38.086,-41.016,-28.320,-33.691,0.000
520.000,-43.945,-39.062,-29.297,-40.039,0.000
523.000,-38.086,-39.062,-27.344,-35.156,0.000
527.000,-48.828,-37.598,-24.414,-35.645,0.000
531.000,-48.828,-34.668,-18.555,-38.086,0.000
535.000,-47.363,-36.621,-20.508,-49.805,0.000
539.000,-51.270,-40.039,-29.297,-60.547,0.000
543.000,-38.086,-38.574,-28.320,-54.688,0.000
547.000,-44.922,-36.621,-18.555,-56.641,0.000
551.000,-62.012,-39.551,-12.695,-74.707,0.000
555.000,-47.363,-36.621,-14.648,-72.266,0.000
559.000,-53.711,-37.598,-15.625,-64.941,0.000
562.000,-61.523,-40.039,-16.113,-62.988,0.000
566.000,-68.359,-39.551,-18.066,-58.594,0.000
570.000,-78.125,-43.945,-17.090,-52.734,0.000
574.000,-64.941,-45.898,-16.113,-41.504,0.000
578.000,-59.082,-39.551,-15.625,-38.086,0.000
582.000,-47.363,-39.551,-19.043,-40.039,0.000
586.000,-42.969,-39.551,-23.438,-30.273,0.000
590.000,-61.035,-36.133,-22.949,-26.367,0.000
594.000,-70.801,-36.133,-23.926,-31.250,0.000
598.000,-70.312,-36.133,-22.461,-33.203,0.000
602.000,-64.941,-40.527,-23.926,-30.273,0.000
605.000,-50.293,-41.504,-26.855,-20.020,0.000
609.000,-45.410,-36.621,-21.973,-18.066,0.000
613.000,-44.434,-37.109,-22.461,-34.180,0.000
617.000,-42.480,-34.668,-24.414,-38.574,0.000
621.000,-38.086,-30.762,-24.414,-26.367,0.000
625.000,-0.488,-29.297,-27.344,-5.371,0.000
629.000,0.488,-41.016,-21.484,-8.789,0.000
633.000,-38.086,-51.758,-15.625,-31.250,0.000
637.000,-44.434,-45.898,-18.555,-35.645,0.000
641.000,-38.086,-44.922,-14.160,-30.762,0.000
645.000,-46.875,-47.852,-7.324,-30.273,0.000
648.000,-68.848,-57.129,0.977,-42.480,0.000
652.000,-75.195,-66.406,1.953,-36.621,0.000
656.000,-66.895,-69.824,0.488,-31.250,0.000
660.000,-69.336,-78.125,10.254,-37.109,0.000
664.000,-70.312,-81.543,12.695,-35.645,0.000
668.000,-84.961,-83.496,7.812,-51.270,0.000
672.000,-105.469,-89.844,3.418,-47.852,0.000
676.000,-104.492,-88.867,5.859,-29.297,0.000
680.000,-106.445,-87.402,9.766,-37.598,0.000
684.000,-107.422,-90.332,10.254,-46.875,0.000
687.000,-109.863,-89.355,8.301,-43.457,0.000
691.000,-105.957,-90.820,-0.977,-41.992,0.000
695.000,-98.633,-90.332,-7.324,-44.434,0.000
699.000,-101.074,-87.402,-7.324,-54.688,0.000
703.000,-91.797,-83.496,-9.277,-60.547,0.000
707.000,-73.242,-77.637,-8.301,-58.594,0.000
711.000,-75.684,-78.613,-11.719,-60.059,0.000
715.000,-81.543,-78.125,-15.625,-52.734,0.000
719.000,-87.402,-76.172,-14.160,-48.828,0.000
723.000,-90.332,-75.195,-16.602,-53.711,0.000
727.000,-76.660,-67.383,-17.090,-51.758,0.000
730.000,-62.988,-61.035,-16.113,-49.805,0.000
734.000,-54.199,-62.988,-16.602,-52.246,0.000
738.000,-48.828,-64.453,-20.508,-51.758,0.000
742.000,-47.852,-57.617,-19.531,-40.039,0.000
746.000,-59.082,-56.641,-14.160,-30.762,0.000
750.000,-62.500,-58.105,-12.207,-29.297,0.000
754.000,-50.781,-52.246,-12.695,-30.273,0.000
758.000,-43.945,-51.758,-13.184,-30.273,0.000
762.000,-37.598,-52.246,-16.113,-26.367,0.000
766.000,-27.832,-44.922,-16.113,-28.809,0.000
769.000,-39.551,-39.062,-12.207,-30.273,0.000
773.000,-50.293,-43.457,-13.672,-27.832,0.000
777.000,-47.852,-43.945,-13.184,-24.414,0.000
781.000,-49.805,-41.992,-13.184,-22.461,0.000
785.000,-42.480,-44.922,-14.160,-21.973,0.000
789.000,-36.621,-44.922,-16.113,-16.602,0.000
793.000,-26.367,-42.969,-17.578,-22.949,0.000
797.000,-27.832,-41.992,-16.113,-25.391,0.000
801.000,-47.363,-39.062,-19.043,-19.531,0.000
805.000,-39.551,-32.715,-20.508,-20.020,0.000
809.000,-26.855,-29.785,-19.043,-19.043,0.000
812.000,-26.367,-23.926,-16.113,-7.324,0.000
816.000,-28.809,-23.438,-18.066,-4.883,0.000
820.000,-31.250,-24.414,-19.043,-8.789,0.000
824.000,-18.066,-22.949,-17.090,-3.906,0.000
828.000,-23.926,-31.250,-17.090,-6.836,0.000
832.000,-25.879,-35.645,-18.555,-14.160,0.000
836.000,-4.883,-29.785,-22.949,-20.996,0.000
840.000,3.906,-27.832,-23.926,-14.648,0.000
844.000,3.418,-24.414,-23.926,-8.789,0.000
848.000,-43.457,-19.531,-24.414,-5.859,0.000
852.000,-68.848,-21.484,-22.949,-7.324,0.000
855.000,-42.969,-21.484,-22.949,-11.719,0.000
859.000,-27.344,-24.414,-26.367,-14.648,0.000
863.000,-20.508,-28.320,-28.320,-21.973,0.000
867.000,-33.203,-27.344,-25.879,-24.414,0.000
871.000,-41.504,-25.879,-22.461,-16.113,0.000
875.000,-38.574,-26.855,-22.949,-9.277,0.000
879.000,-46.387,-30.762,-28.320,-15.625,0.000
883.000,-49.316,-30.762,-23.926,-28.809,0.000
887.000,-51.758,-30.762,-22.461,-29.297,0.000
891.000,-42.480,-26.855,-26.855,-21.973,0.000
894.000,-27.832,-20.020,-26.367,-26.855,0.000
898.000,-28.320,-22.461,-24.414,-29.297,0.000
902.000,-24.414,-24.414,-24.902,-30.273,0.000
906.000,-26.855,-30.273,-29.297,-34.180,0.000
910.000,-25.879,-33.691,-35.156,-38.086,0.000
914.000,-16.113,-30.762,-31.250,-37.109,0.000
918.000,-35.156,-27.832,-23.438,-32.227,0.000
922.000,-50.293,-33.203,-29.785,-34.180,0.000
926.000,-41.992,-42.969,-32.227,-28.809,0.000
930.000,-22.461,-40.039,-26.855,-27.344,0.000
934.000,-23.438,-35.645,-24.902,-29.785,0.000
937.000,-56.152,-37.109,-24.414,-29.297,0.000
941.000,-61.523,-36.133,-28.320,-32.715,0.000
945.000,-42.969,-38.086,-32.715,-33.203,0.000
949.000,-32.227,-33.691,-26.855,-22.949,0.000
953.000,-11.230,-24.902,-23.438,-0.488,0.000
957.000,0.488,-20.020,-23.438,8.789,0.000
961.000,-40.039,-25.879,-30.762,-26.855,0.000
965.000,-55.176,-22.949,-34.180,-40.039,0.000
969.000,-38.574,-11.719,-30.273,-18.066,0.000
973.000,-27.832,-11.719,-37.598,-16.602,0.000
977.000,-9.766,-11.230,-41.016,-12.207,0.000
980.000,-20.508,-9.277,-41.016,-17.578,0.000
984.000,-22.461,-6.836,-39.551,-19.043,0.000
988.000,-9.277,-4.883,-38.086,-10.254,0.000
992.000,2.930,-1.465,-40.039,-11.230,0.000
996.000,8.789,3.418,-41.992,-10.254,0.000
1000.000,2.441,5.859,-43.945,-7.324,0.000
1004.000,17.578,11.719,-40.039,-4.395,0.000
1008.000,30.762,19.043,-44.434,1.465,0.000
1012.000,27.344,19.531,-47.363,11.230,0.000
1016.000,15.137,16.602,-46.387,8.301,0.000
1019.000,9.766,15.625,-53.223,4.395,0.000
1023.000,25.879,19.531,-51.758,7.324,0.000
1027.000,28.809,20.508,-54.199,0.488,0.000
1031.000,15.137,17.578,-59.570,-14.648,0.000
1035.000,18.066,24.902,-54.688,-4.883,0.000
1039.000,31.738,28.320,-55.176,6.348,0.000
1043.000,35.645,23.438,-53.711,4.883,0.000
1047.000,11.230,20.996,-51.758,-0.488,0.000
1051.000,0.000,15.625,-56.152,-7.812,0.000
1055.000,5.859,18.066,-63.477,-5.371,0.000
1059.000,6.836,18.066,-63.477,19.043,0.000
1062.000,23.438,23.926,-62.988,28.809,0.000
1066.000,29.785,28.320,-58.105,16.113,0.000
1070.000,35.645,28.809,-55.176,7.324,0.000
1074.000,37.598,27.832,-58.594,11.719,0.000
1078.000,36.621,23.926,-57.617,17.090,0.000
1082.000,20.996,24.902,-56.641,13.184,0.000
1086.000,-3.906,20.508,-53.711,-1.953,0.000
1090.000,8.789,15.625,-55.664,-8.301,0.000
1094.000,7.324,13.184,-62.500,-4.883,0.000
1098.000,0.000,12.207,-58.105,-0.488,0.000
1102.000,11.719,15.625,-50.293,7.812,0.000
1105.000,16.113,10.742,-51.270,0.000,0.000
1109.000,9.277,8.301,-45.410,0.977,0.000
1113.000,4.395,11.719,-48.828,-4.395,0.000
1117.000,12.695,9.766,-55.176,-14.648,0.000
1121.000,19.531,5.859,-51.270,-10.742,0.000
1125.000,16.113,7.812,-45.898,-5.371,0.000
1129.000,-9.766,7.812,-43.457,-5.859,0.000
1133.000,-17.090,4.883,-39.062,4.883,0.000
1137.000,0.000,8.301,-40.039,10.742,0.000
1141.000,4.395,7.812,-39.551,7.812,0.000
1144.000,8.301,5.859,-36.133,13.672,0.000
1148.000,-6.348,0.977,-40.039,0.000,0.000
1152.000,-14.648,-3.418,-43.945,-12.695,0.000
1156.000,5.371,-4.883,-40.039,-8.301,0.000
1160.000,5.859,-3.418,-34.180,-4.395,0.000
1164.000,-6.836,-3.906,-33.203,-10.742,0.000
1168.000,-9.766,-6.836,-28.809,-3.906,0.000
1172.000,-6.836,-2.441,-21.973,-7.324,0.000
1176.000,-3.418,-5.859,-22.949,-21.973,0.000
1180.000,-6.836,-12.207,-26.367,-20.508,0.000
1184.000,-8.789,-9.766,-25.879,-23.438,0.000
1187.000,-4.883,-12.207,-27.832,-24.414,0.000
1191.000,-5.859,-14.160,-34.668,-21.484,0.000
1195.000,-20.020,-13.672,-43.945,-34.180,0.000
1199.000,-23.926,-11.230,-41.504,-35.156,0.000
1203.000,-19.043,-11.719,-31.738,-32.715,0.000
1207.000,-12.207,-21.973,-37.109,-33.691,0.000
1211.000,-17.090,-25.391,-41.016,-38.086,0.000
1215.000,-17.578,-22.461,-34.668,-43.457,0.000
1219.000,-20.996,-21.484,-30.273,-39.062,0.000
1223.000,-44.922,-25.391,-33.203,-46.387,0.000
1227.000,-54.199,-25.391,-38.086,-52.734,0.000
1230.000,-49.316,-23.438,-38.574,-45.898,0.000
1234.000,-38.574,-24.902,-35.156,-44.922,0.000
1238.000,-44.922,-27.832,-35.156,-42.969,0.000
1242.000,-57.129,-28.320,-31.738,-43.945,0.000
1246.000,-40.039,-24.414,-27.344,-48.340,0.000
1250.000,-9.766,-20.996,-30.273,-33.691,0.000
1254.000,-24.414,-25.391,-39.062,-27.344,0.000
1258.000,-45.410,-26.855,-37.598,-36.621,0.000
1262.000,-49.805,-27.344,-31.250,-31.738,0.000
1266.000,-51.270,-27.832,-31.250,-22.461,0.000
1269.000,-41.016,-22.461,-30.273,-23.926,0.000
1273.000,-22.461,-20.508,-34.668,-18.066,0.000
1277.000,-14.160,-23.438,-37.598,-8.301,0.000
1281.000,-27.344,-23.438,-33.203,-11.230,0.000
1285.000,-29.785,-22.949,-29.785,-10.742,0.000
1289.000,-20.996,-26.367,-33.691,-8.789,0.000
1293.000,-11.719,-26.855,-34.668,-16.113,0.000
1297.000,-2.930,-22.949,-28.809,-10.254,0.000
1301.000,-5.371,-25.391,-31.250,-6.836,0.000
1305.000,-18.555,-25.391,-29.785,-14.160,0.000
1309.000,-18.555,-23.926,-25.391,-14.648,0.000
1312.000,-13.184,-22.949,-24.414,-11.719,0.000
1316.000,-19.531,-21.484,-21.484,-10.742,0.000
1320.000,-13.184,-18.555,-22.461,-8.789,0.000
1324.000,-5.371,-18.066,-27.344,-4.395,0.000
1328.000,-5.371,-17.578,-23.926,-4.395,0.000
1332.000,3.418,-15.625,-17.090,-11.719,0.000
1336.000,5.859,-19.531,-20.508,-14.648,0.000
1340.000,6.348,-23.438,-20.020,-12.207,0.000
1344.000,-11.230,-27.832,-15.137,-7.812,0.000
1348.000,-37.598,-28.809,-15.625,-9.766,0.000
1351.000,-42.969,-27.344,-12.695,-9.277,0.000
1355.000,-52.246,-25.391,-14.160,-17.090,0.000
1359.000,-45.898,-25.391,-21.973,-22.461,0.000
1363.000,-16.113,-22.461,-19.043,-3.906,0.000
1367.000,-9.277,-25.391,-8.301,6.836,0.000
1371.000,-37.598,-33.691,-4.883,-11.719,0.000
1375.000,-47.363,-34.668,-13.672,-23.926,0.000
1379.000,-46.387,-41.016,-17.578,-25.391,0.000
1383.000,-60.059,-51.270,-9.766,-32.715,0.000
1387.000,-61.035,-55.176,-3.906,-30.762,0.000
1391.000,-66.406,-60.547,-1.465,-47.852,0.000
1394.000,-87.891,-73.730,-2.441,-71.777,0.000
1398.000,-85.938,-76.172,0.977,-68.359,0.000
1402.000,-86.914,-79.102,4.395,-75.195,0.000
1406.000,-101.562,-82.520,4.883,-87.891,0.000
1410.000,-97.168,-81.055,6.836,-90.332,0.000
1414.000,-92.773,-85.938,10.254,-88.379,0.000
1418.000,-85.449,-88.867,14.160,-74.707,0.000
1422.000,-98.145,-89.844,12.207,-87.402,0.000
1426.000,-99.121,-93.262,9.277,-95.215,0.000
1430.000,-90.332,-92.773,9.277,-70.801,0.000
1434.000,-116.211,-93.750,5.859,-68.359,0.000
1437.000,-122.559,-99.121,-0.977,-75.195,0.000
1441.000,-115.723,-99.121,3.906,-72.754,0.000
1445.000,-122.070,-94.727,6.836,-83.984,0.000
1449.000,-133.789,-97.656,4.883,-81.543,0.000
1453.000,-133.301,-100.586,7.324,-69.824,0.000
1457.000,-122.559,-94.727,8.301,-70.801,0.000
1461.000,-115.723,-91.309,6.836,-68.848,0.000
1465.000,-109.375,-90.820,10.254,-56.641,0.000
1469.000,-100.098,-90.820,7.324,-51.758,0.000
1473.000,-86.426,-88.379,3.906,-41.016,0.000
1476.000,-84.473,-91.797,0.977,-29.785,0.000
1480.000,-81.543,-93.262,-5.859,-35.156,0.000
1484.000,-72.754,-84.473,-10.742,-37.109,0.000
1488.000,-57.129,-77.148,-14.160,-30.762,0.000
1492.000,-43.945,-73.730,-9.766,-30.273,0.000
1496.000,-56.641,-71.289,-6.836,-28.809,0.000
1500.000,-76.172,-64.453,-8.301,-23.926,0.000
1504.000,-76.660,-59.570,-10.742,-23.438,0.000
1508.000,-62.500,-55.664,-10.254,-19.043,0.000
1512.000,-49.316,-52.246,-8.789,-12.207,0.000
1516.000,-37.109,-56.152,-12.207,-21.484,0.000
1519.000,-28.809,-53.711,-11.719,-30.762,0.000
1523.000,-26.855,-48.340,-13.184,-26.855,0.000
1527.000,-30.762,-48.828,-18.066,-34.668,0.000
1531.000,-49.805,-49.805,-14.648,-34.180,0.000
1535.000,-52.246,-52.246,-12.695,-31.250,0.000
1539.000,-37.598,-47.363,-13.672,-30.273,0.000
1543.000,-33.203,-42.969,-14.648,-35.645,0.000
1547.000,-58.594,-47.852,-18.066,-35.156,0.000
1551.000,-78.613,-49.316,-20.020,-35.156,0.000
1555.000,-69.336,-55.176,-20.996,-42.969,0.000
1559.000,-53.711,-58.594,-22.949,-42.480,0.000
1562.000,-50.293,-48.340,-16.113,-30.762,0.000
1566.000,-69.336,-47.363,-13.672,-24.414,0.000
1570.000,-74.707,-54.688,-19.043,-30.273,0.000
1574.000,-62.012,-50.293,-22.461,-26.855,0.000
1578.000,-49.316,-43.457,-25.391,-20.996,0.000
1582.000,-59.082,-47.852,-26.855,-32.715,0.000
1586.000,-62.988,-46.387,-30.762,-37.109,0.000
1590.000,-45.898,-42.969,-28.809,-28.809,0.000
1594.000,-33.203,-41.016,-25.391,-31.738,0.000
1598.000,-35.645,-36.621,-28.809,-35.156,0.000
1601.000,-52.246,-40.039,-31.738,-36.133,0.000
1605.000,-48.828,-40.039,-29.785,-36.133,0.000
1609.000,-29.297,-37.598,-29.297,-38.086,0.000
1613.000,-26.367,-38.574,-26.367,-37.598,0.000
1617.000,-24.902,-36.133,-24.902,-33.691,0.000
1621.000,-31.250,-39.551,-29.297,-37.109,0.000
1625.000,-43.457,-40.527,-29.785,-35.645,0.000
1629.000,-33.691,-33.203,-28.809,-35.156,0.000
1633.000,-23.926,-33.691,-31.250,-39.062,0.000
1637.000,-32.715,-34.180,-28.809,-36.133,0.000
1641.000,-40.527,-36.133,-26.367,-20.996,0.000
1644.000,-46.875,-38.086,-29.297,-7.812,0.000
1648.000,-53.711,-36.621,-28.809,-14.160,0.000
1652.000,-54.199,-33.203,-28.320,-21.484,0.000
1656.000,-42.480,-29.297,-29.785,-20.996,0.000
1660.000,-27.344,-25.391,-26.855,-17.090,0.000
1664.000,-24.902,-25.879,-25.391,-19.531,0.000
1668.000,-29.785,-32.227,-26.855,-23.438,0.000
1672.000,-36.133,-28.809,-26.367,-18.066,0.000
1676.000,-31.738,-29.785,-28.320,-13.672,0.000
1680.000,-23.926,-31.738,-22.461,-18.066,0.000
1684.000,-36.133,-32.715,-21.973,-20.020,0.000
1687.000,-30.762,-31.738,-26.855,-14.648,0.000
1691.000,-22.949,-24.902,-25.879,-23.438,0.000
1695.000,-39.551,-28.320,-29.785,-37.598,0.000
1699.000,-41.992,-29.297,-29.297,-31.738,0.000
1703.000,-30.762,-27.344,-26.855,-20.020,0.000
1707.000,-31.250,-34.180,-35.645,-26.855,0.000
1711.000,-23.438,-34.180,-42.969,-39.551,0.000
1715.000,-12.695,-30.273,-35.156,-36.621,0.000
1719.000,-8.789,-28.320,-29.297,-23.926,0.000
1723.000,-25.391,-28.809,-31.250,-19.043,0.000
1726.000,-51.758,-31.738,-26.855,-20.020,0.000
1730.000,-43.945,-33.203,-23.926,-18.066,0.000
1734.000,-28.809,-29.297,-26.855,-17.578,0.000
1738.000,-21.484,-26.367,-29.785,-23.438,0.000
1742.000,-16.113,-30.273,-29.785,-27.344,0.000
1746.000,-24.902,-30.762,-26.855,-26.855,0.000
1750.000,-55.176,-33.691,-25.879,-23.926,0.000
1754.000,-63.477,-34.180,-24.902,-23.438,0.000
1758.000,-49.805,-28.809,-24.902,-22.949,0.000
1762.000,-46.875,-30.762,-27.832,-18.066,0.000
1766.000,-52.734,-37.598,-24.902,-18.555,0.000
1769.000,-44.922,-35.156,-19.531,-21.973,0.000
1773.000,-32.227,-31.738,-16.602,-17.090,0.000
1777.000,-31.250,-32.227,-18.066,-14.648,0.000
1781.000,-45.898,-31.738,-20.508,-25.391,0.000
1785.000,-50.781,-31.738,-21.973,-31.250,0.000
1789.000,-39.551,-28.320,-20.508,-20.996,0.000
1793.000,-36.621,-24.902,-18.066,-15.625,0.000
1797.000,-36.621,-22.461,-16.602,-20.508,0.000
1801.000,-37.109,-22.461,-14.648,-17.578,0.000
1805.000,-26.367,-25.879,-18.066,-10.742,0.000
1809.000,-10.254,-22.949,-17.090,-1.953,0.000
1812.000,-13.184,-18.555,-18.066,-20.508,0.000
1816.000,-31.738,-20.996,-27.344,-41.016,0.000
1820.000,-22.949,-18.066,-31.250,-20.508,0.000
1824.000,-4.395,-17.090,-30.273,-3.906,0.000
1828.000,-21.973,-20.020,-34.668,-9.277,0.000
1832.000,-23.438,-10.254,-38.086,-11.719,0.000
1836.000,-13.184,-3.906,-39.551,-10.254,0.000
1840.000,-3.906,-0.488,-40.039,-5.371,0.000
1844.000,1.953,5.859,-41.016,0.488,0.000
1848.000,-2.441,7.324,-43.457,-0.977,0.000
1851.000,-5.371,4.883,-45.410,-8.301,0.000
1855.000,11.230,11.230,-49.805,-3.906,0.000
1859.000,37.598,19.531,-46.875,0.000,0.000
1863.000,53.711,20.020,-47.852,-1.953,0.000
1867.000,56.152,19.531,-51.270,-2.441,0.000
1871.000,33.203,16.113,-45.898,-4.395,0.000
1875.000,37.598,17.090,-46.875,7.812,0.000
1879.000,31.738,20.020,-48.828,15.625,0.000
1883.000,4.395,16.602,-49.805,7.812,0.000
1887.000,23.926,20.996,-46.875,11.719,0.000
1891.000,40.039,21.973,-47.363,18.555,0.000
1894.000,15.625,17.090,-49.805,12.207,0.000
1898.000,-16.602,18.066,-43.945,10.742,0.000
1902.000,-12.207,18.066,-45.898,17.090,0.000
1906.000,12.695,21.484,-49.805,27.344,0.000
1910.000,17.090,24.902,-49.316,29.785,0.000
1914.000,20.996,24.902,-48.828,30.762,0.000
1918.000,23.926,25.391,-48.340,27.832,0.000
1922.000,13.672,24.414,-47.363,19.531,0.000
1926.000,7.812,18.555,-48.828,17.578,0.000
1930.000,13.672,16.602,-52.246,18.555,0.000
1933.000,14.160,18.555,-49.805,13.672,0.000
1937.000,20.508,19.531,-47.363,7.324,0.000
1941.000,46.875,18.066,-46.387,10.254,0.000
1945.000,48.828,16.113,-50.293,13.184,0.000
1949.000,23.438,13.184,-51.758,4.883,0.000
1953.000,20.996,16.113,-54.199,2.930,0.000
1957.000,21.484,21.484,-52.734,14.160,0.000
1961.000,17.578,20.020,-50.293,5.859,0.000
1965.000,7.324,14.160,-47.363,-1.953,0.000
1969.000,13.184,9.766,-41.992,9.766,0.000
1973.000,29.785,10.254,-44.922,10.742,0.000
1976.000,32.715,9.766,-44.922,0.488,0.000
1980.000,22.949,6.348,-44.922,-6.836,0.000
1984.000,8.301,3.418,-42.969,-3.906,0.000
1988.000,7.812,5.859,-42.480,5.859,0.000
1992.000,6.348,4.883,-43.945,9.277,0.000
1996.000,15.137,4.883,-42.480,4.395,0.000
2000.000,4.883,3.418,-41.504,5.371,0.000
2004.000,0.488,-1.465,-40.527,3.418,0.000
2008.000,7.324,-3.906,-41.504,7.812,0.000
2012.000,4.883,-0.977,-43.457,6.348,0.000
2016.000,-12.695,0.488,-40.527,-12.695,0.000
2019.000,-24.902,-8.301,-38.086,-15.625,0.000
2023.000,-8.301,-6.348,-40.039,-8.301,0.000
2027.000,-13.672,-7.324,-43.457,-15.137,0.000
2031.000,-25.879,-11.719,-41.992,-10.742,0.000
2035.000,-20.508,-8.789,-41.504,-11.719,0.000
2039.000,-10.742,-4.395,-40.039,-20.508,0.000
2043.000,-8.789,-9.766,-37.598,-25.391,0.000
2047.000,-12.695,-15.137,-36.133,-18.555,0.000
2051.000,-13.184,-8.301,-36.621,-5.859,0.000
2055.000,-10.742,-9.277,-37.598,-8.301,0.000
2058.000,6.836,-12.695,-35.645,-8.301,0.000
2062.000,1.953,-14.648,-32.715,-6.836,0.000
2066.000,-23.926,-18.066,-31.250,-4.395,0.000
2070.000,-22.461,-17.090,-32.715,-11.719,0.000
2074.000,-12.695,-17.578,-30.273,-13.184,0.000
2078.000,-6.836,-19.531,-31.738,-13.184,0.000
2082.000,-6.348,-20.508,-37.598,-18.555,0.000
2086.000,-9.277,-20.996,-35.645,-16.602,0.000
2090.000,-20.020,-21.973,-27.344,-17.090,0.000
2094.000,-35.645,-26.855,-28.809,-12.695,0.000
2098.000,-30.762,-28.809,-29.785,-10.254,0.000
2101.000,-27.344,-28.320,-25.879,-9.766,0.000
2105.000,-30.762,-28.320,-29.297,-16.602,0.000
2109.000,-17.090,-23.926,-29.785,-19.531,0.000
2113.000,-10.742,-21.484,-27.832,-17.090,0.000
2117.000,-18.066,-19.043,-29.785,-17.090,0.000
2121.000,-15.137,-18.066,-29.785,-17.578,0.000
2125.000,-12.207,-20.996,-30.762,-23.438,0.000
2129.000,-13.672,-20.020,-35.156,-20.020,0.000
2133.000,-23.926,-21.973,-36.621,-20.020,0.000
2137.000,-22.949,-21.973,-32.227,-19.531,0.000
2141.000,-20.020,-24.902,-32.227,-16.602,0.000
2144.000,-24.902,-32.227,-31.738,-17.090,0.000
2148.000,-18.555,-27.832,-28.809,-16.602,0.000
2152.000,-7.324,-21.484,-32.227,-14.160,0.000
2156.000,1.465,-19.531,-33.203,-13.672,0.000
2160.000,3.906,-22.461,-31.250,-13.672,0.000
2164.000,6.836,-23.926,-27.344,-1.465,0.000
2168.000,1.465,-24.414,-20.508,21.484,0.000
2172.000,-12.207,-33.691,-14.648,17.578,0.000
2176.000,-19.531,-36.621,-12.695,0.977,0.000
2180.000,-21.484,-36.621,-10.254,2.441,0.000
2183.000,-48.828,-49.316,-6.836,-10.742,0.000
2187.000,-66.895,-59.082,-9.766,-32.715,0.000
2191.000,-58.105,-56.641,-6.836,-36.621,0.000
2195.000,-57.617,-61.523,2.930,-52.246,0.000
2199.000,-70.801,-73.730,-0.977,-70.312,0.000
2203.000,-91.309,-78.125,-3.906,-61.035,0.000
2207.000,-114.258,-81.543,-3.418,-62.012,0.000
2211.000,-116.699,-81.055,5.371,-61.035,0.000
2215.000,-119.141,-81.543,8.789,-63.477,0.000
2219.000,-137.207,-87.402,2.441,-82.520,0.000
2223.000,-132.324,-91.797,3.418,-88.379,0.000
2226.000,-121.582,-96.680,7.812,-83.984,0.000
2230.000,-120.117,-101.074,6.836,-83.008,0.000
2234.000,-127.930,-99.121,8.301,-79.590,0.000
2238.000,-131.348,-100.098,12.207,-74.707,0.000
2242.000,-120.605,-103.516,9.277,-72.266,0.000
2246.000,-116.699,-102.051,10.254,-77.148,0.000
2250.000,-119.629,-97.168,16.602,-79.590,0.000
2254.000,-113.770,-97.656,11.719,-78.613,0.000
2258.000,-108.887,-94.727,5.859,-73.730,0.000
2262.000,-105.469,-90.820,5.859,-68.848,0.000
2266.000,-114.746,-90.332,1.953,-70.312,0.000
2269.000,-126.953,-88.379,-0.977,-69.824,0.000
2273.000,-112.793,-88.379,1.465,-61.523,0.000
2277.000,-86.914,-85.449,1.953,-61.035,0.000
2281.000,-74.219,-78.613,-2.441,-61.523,0.000
2285.000,-77.637,-73.730,-7.324,-57.129,0.000
2289.000,-75.195,-74.707,-3.418,-47.363,0.000
2293.000,-65.430,-74.707,2.441,-41.992,0.000
2297.000,-61.523,-72.754,-1.953,-41.504,0.000
2301.000,-72.266,-71.777,-8.301,-40.039,0.000
2305.000,-74.707,-66.895,-7.812,-33.203,0.000
2308.000,-68.848,-62.500,-6.836,-28.809,0.000
2312.000,-73.242,-66.406,-14.648,-34.180,0.000
2316.000,-76.172,-71.289,-18.066,-39.551,0.000
2320.000,-68.848,-65.430,-12.207,-33.203,0.000
2324.000,-59.570,-58.105,-14.648,-22.461,0.000
2328.000,-50.293,-59.082,-17.090,-27.344,0.000
2332.000,-47.363,-54.688,-17.578,-24.902,0.000
2336.000,-44.434,-49.805,-21.484,-26.367,0.000
2340.000,-18.555,-50.293,-22.461,-33.203,0.000
2344.000,-16.602,-50.781,-24.414,-28.320,0.000
2348.000,-47.852,-47.852,-26.367,-30.273,0.000
2351.000,-61.523,-45.410,-24.414,-24.414,0.000
2355.000,-53.223,-41.992,-19.043,-11.719,0.000
2359.000,-47.363,-41.992,-20.996,-15.137,0.000
2363.000,-47.363,-45.898,-24.902,-22.461,0.000
2367.000,-52.734,-42.969,-23.926,-24.414,0.000
2371.000,-51.270,-40.039,-21.973,-25.391,0.000
2375.000,-33.203,-41.016,-17.578,-22.461,0.000
2379.000,-30.273,-41.992,-19.043,-20.996,0.000
2383.000,-43.945,-43.457,-22.949,-32.715,0.000
2387.000,-54.199,-42.480,-20.508,-35.645,0.000
2391.000,-61.523,-37.598,-19.531,-30.762,0.000
2394.000,-55.176,-37.598,-25.879,-27.832,0.000
2398.000,-49.805,-42.480,-27.344,-34.668,0.000
2402.000,-55.664,-43.457,-29.297,-41.504,0.000
2406.000,-55.664,-44.922,-29.297,-36.621,0.000
2410.000,-57.129,-46.387,-23.926,-31.250,0.000
2414.000,-48.340,-41.992,-22.461,-29.785,0.000
2418.000,-36.621,-36.133,-22.461,-34.668,0.000
2422.000,-39.551,-37.109,-26.367,-34.668,0.000
2426.000,-37.109,-41.016,-25.391,-40.527,0.000
2430.000,-43.457,-41.016,-23.438,-53.223,0.000
2433.000,-53.711,-41.992,-23.438,-52.734,0.000
2437.000,-50.781,-38.574,-24.414,-48.828,0.000
2441.000,-39.062,-32.715,-29.297,-44.922,0.000
2445.000,-40.039,-35.645,-27.832,-48.340,0.000
2449.000,-55.176,-37.109,-25.879,-53.711,0.000
2453.000,-60.547,-33.691,-26.855,-47.852,0.000
2457.000,-41.504,-32.227,-25.879,-37.598,0.000
2461.000,-40.039,-28.809,-25.879,-36.621,0.000
2465.000,-47.363,-31.738,-26.855,-37.598,0.000
2469.000,-41.504,-38.086,-25.391,-35.645,0.000
2473.000,-37.109,-38.574,-30.273,-45.898,0.000
2476.000,-37.598,-38.574,-34.668,-50.293,0.000
2480.000,-36.621,-38.086,-32.227,-43.457,0.000
2484.000,-39.062,-32.227,-32.227,-41.504,0.000
2488.000,-43.457,-34.180,-38.574,-42.480,0.000
2492.000,-47.363,-34.668,-34.668,-35.645,0.000
2496.000,-47.363,-32.227,-34.180,-32.715,0.000
2500.000,-29.297,-30.273,-35.645,-30.762,0.000
2504.000,-25.391,-27.344,-34.180,-30.273,0.000
2508.000,-20.020,-28.320,-34.668,-29.785,0.000
2512.000,-16.602,-30.273,-30.273,-24.902,0.000
2516.000,-29.297,-29.785,-28.320,-26.855,0.000
2519.000,-27.344,-27.832,-27.344,-20.996,0.000
2523.000,-12.207,-26.367,-23.926,-13.672,0.000
2527.000,-16.113,-27.344,-24.414,-17.578,0.000
2531.000,-15.625,-25.879,-25.391,-27.832,0.000
2535.000,-9.766,-26.367,-26.367,-25.879,0.000
2539.000,-26.855,-29.785,-29.785,-19.043,0.000
2543.000,-21.484,-32.227,-26.855,-20.996,0.000
2547.000,-7.324,-31.250,-27.344,-24.414,0.000
2551.000,-20.508,-30.762,-31.250,-27.344,0.000
2555.000,-23.438,-30.762,-31.250,-19.531,0.000
2558.000,-21.973,-30.273,-29.297,-9.766,0.000
2562.000,-37.598,-32.715,-27.832,-13.672,0.000
2566.000,-52.734,-33.691,-30.762,-19.531,0.000
2570.000,-43.945,-34.180,-29.297,-20.020,0.000
2574.000,-32.715,-32.227,-22.461,-13.184,0.000
2578.000,-32.715,-25.879,-23.438,-10.254,0.000
2582.000,-2.441,-20.020,-21.484,0.000,0.000
2586.000,4.883,-24.414,-24.414,4.883,0.000
2590.000,-28.320,-25.879,-33.203,-15.625,0.000
2594.000,-36.621,-19.531,-34.180,-27.344,0.000
2598.000,-25.391,-18.066,-32.227,-28.809,0.000
2601.000,-15.137,-9.766,-28.809,-16.602,0.000
2605.000,-32.227,-3.906,-31.250,-11.719,0.000
2609.000,-28.809,-1.953,-32.715,-9.766,0.000
2613.000,-21.484,4.395,-34.180,-7.324,0.000
2617.000,-19.043,7.324,-37.109,-10.742,0.000
2621.000,2.930,7.324,-40.039,-5.371,0.000
2625.000,15.137,9.277,-42.480,-1.953,0.000
2629.000,23.926,13.672,-42.480,-0.977,0.000
2633.000,18.066,17.578,-45.410,-5.371,0.000
2637.000,7.324,19.043,-48.828,-7.812,0.000
2640.000,6.836,20.508,-48.828,-5.371,0.000
2644.000,23.926,24.902,-48.340,-1.953,0.000
2648.000,25.879,27.344,-47.363,-0.977,0.000
2652.000,14.160,28.809,-48.340,-3.418,0.000
2656.000,10.742,31.250,-52.734,-11.230,0.000
2660.000,6.836,32.715,-55.176,-14.648,0.000
2664.000,-7.812,34.180,-53.223,-7.324,0.000
2668.000,-17.090,37.109,-55.664,-14.160,0.000
2672.000,-2.930,40.527,-58.105,-8.789,0.000
2676.000,-3.418,36.133,-60.059,0.977,0.000
2680.000,-3.418,26.855,-63.477,-5.371,0.000
2683.000,5.371,26.855,-64.941,-10.742,0.000
2687.000,3.906,28.320,-62.012,-3.418,0.000
2691.000,27.344,30.762,-54.688,13.672,0.000
2695.000,38.086,29.785,-55.176,11.230,0.000
2699.000,29.297,30.273,-58.105,1.465,0.000
2703.000,42.480,32.715,-55.664,1.465,0.000
2707.000,41.504,30.273,-52.734,7.324,0.000
2711.000,18.555,30.762,-52.246,10.254,0.000
2715.000,24.902,28.809,-48.340,12.207,0.000
2719.000,27.344,26.367,-51.270,9.766,0.000
2723.000,34.180,23.438,-52.734,15.137,0.000
2726.000,39.062,22.949,-54.199,13.184,0.000
2730.000,15.137,26.855,-54.688,5.371,0.000
2734.000,9.277,23.926,-52.246,1.465,0.000
2738.000,20.996,18.555,-52.246,-1.465,0.000
2742.000,34.180,16.113,-57.129,-5.371,0.000
2746.000,8.301,10.742,-52.734,-7.324,0.000
2750.000,-1.953,11.230,-45.898,2.441,0.000
2754.000,6.836,9.277,-42.969,-1.465,0.000
2758.000,0.977,5.371,-41.992,-0.977,0.000
2762.000,25.879,8.301,-42.480,9.766,0.000
2765.000,27.344,12.695,-37.109,14.648,0.000
2769.000,11.230,7.324,-39.062,7.324,0.000
2773.000,7.812,2.930,-44.434,-4.883,0.000
2777.000,-2.441,7.324,-39.551,-2.930,0.000
2781.000,-13.672,7.812,-36.621,-0.977,0.000
2785.000,-10.742,5.371,-36.621,2.441,0.000
2789.000,-4.883,3.906,-37.598,9.766,0.000
2793.000,-5.859,2.441,-38.574,2.441,0.000
2797.000,-16.113,1.953,-34.668,-7.324,0.000
2801.000,-14.648,-0.977,-32.715,-8.301,0.000
2805.000,-7.324,-3.906,-32.227,-12.695,0.000
2808.000,0.000,0.977,-33.691,-8.789,0.000
2812.000,-5.371,-1.465,-39.062,-14.648,0.000
2816.000,-12.695,-4.883,-38.086,-27.832,0.000
2820.000,-11.230,-6.836,-32.227,-26.367,0.000
2824.000,-20.020,-13.184,-34.668,-29.785,0.000
2828.000,-31.250,-12.207,-37.598,-25.391,0.000
2832.000,-30.762,-10.254,-35.156,-19.531,0.000
2836.000,-41.504,-10.254,-32.715,-20.020,0.000
2840.000,-41.016,-13.184,-36.621,-20.508,0.000
2844.000,-30.762,-15.625,-38.086,-18.555,0.000
2848.000,-20.020,-16.113,-38.574,-17.090,0.000
2851.000,-14.160,-19.043,-36.621,-19.531,0.000
2855.000,-17.578,-16.113,-34.668,-7.324,0.000
2859.000,-12.207,-13.672,-33.691,-6.836,0.000
2863.000,1.465,-17.578,-37.598,-29.297,0.000
2867.000,-10.742,-20.508,-37.109,-21.484,0.000
2871.000,-33.691,-22.461,-31.250,-7.812,0.000
2875.000,-35.156,-20.508,-29.785,-14.160,0.000
2879.000,-35.645,-20.020,-31.738,-17.090,0.000
2883.000,-32.715,-21.484,-30.762,-12.695,0.000
2887.000,-23.926,-22.949,-27.832,-9.766,0.000
2890.000,-18.555,-24.902,-26.367,-2.441,0.000
2894.000,-19.043,-24.902,-23.926,-1.465,0.000
2898.000,-19.043,-27.344,-23.926,-5.859,0.000
2902.000,-17.578,-26.367,-24.902,-4.395,0.000
2906.000,-26.367,-28.320,-27.832,-13.672,0.000
2910.000,-43.457,-29.785,-29.297,-25.391,0.000
2914.000,-47.852,-30.762,-27.832,-21.484,0.000
2918.000,-39.062,-32.715,-23.438,-20.508,0.000
2922.000,-24.902,-29.297,-27.344,-21.484,0.000
2926.000,-13.672,-25.879,-25.391,-19.531,0.000
2930.000,-13.672,-22.949,-21.973,-15.137,0.000
2933.000,-28.320,-33.691,-30.273,-17.578,0.000
2937.000,-36.133,-35.156,-28.809,-25.391,0.000
2941.000,-22.949,-24.414,-20.508,-15.137,0.000
2945.000,-20.020,-22.461,-25.879,-7.812,0.000
2949.000,-22.949,-26.367,-29.785,-9.766,0.000
2953.000,-16.602,-25.391,-27.344,-18.066,0.000
2957.000,-16.113,-22.461,-29.785,-24.414,0.000
2961.000,-9.766,-24.902,-30.762,-25.391,0.000
2965.000,0.977,-24.414,-31.738,-29.785,0.000
2969.000,-16.113,-24.414,-27.832,-28.320,0.000
2973.000,-39.551,-28.809,-28.809,-21.484,0.000
2976.000,-41.504,-27.832,-33.203,-19.043,0.000
2980.000,-35.645,-26.367,-32.227,-19.043,0.000
2984.000,-27.344,-23.438,-27.832,-14.648,0.000
2988.000,-27.832,-23.926,-26.855,-14.160,0.000
2992.000,-28.809,-24.902,-29.785,-22.949,0.000
2996.000,-31.738,-23.438,-26.367,-26.367,0.000
3000.000,-30.762,-30.762,-28.809,-24.902,0.000
3004.000,-5.859,-25.879,-28.320,3.906,0.000
3008.000,11.719,-20.020,-9.766,14.160,0.000
3012.000,-17.578,-32.715,-5.859,-13.184,0.000
3015.000,-45.898,-41.992,-16.602,-23.438,0.000
3019.000,-38.574,-47.852,-11.719,-20.508,0.000
3023.000,-38.086,-53.711,-8.789,-32.715,0.000
3027.000,-53.223,-61.035,-12.207,-44.922,0.000
3031.000,-62.500,-64.941,-7.812,-49.316,0.000
3035.000,-76.172,-69.824,-4.395,-55.664,0.000
3039.000,-73.730,-72.754,1.465,-58.594,0.000
3043.000,-67.871,-75.195,10.254,-65.918,0.000
3047.000,-95.703,-84.961,5.371,-87.891,0.000
3051.000,-101.074,-91.309,1.465,-89.355,0.000
3055.000,-88.379,-91.797,8.301,-69.336,0.000
3058.000,-101.074,-91.309,9.277,-81.055,0.000
3062.000,-106.934,-87.402,10.742,-78.613,0.000
3066.000,-106.445,-91.309,14.648,-68.359,0.000
3070.000,-114.258,-102.051,12.695,-79.590,0.000
3074.000,-103.027,-104.004,6.836,-67.383,0.000
3078.000,-104.980,-102.051,5.371,-69.336,0.000
3082.000,-108.398,-101.074,4.395,-68.359,0.000
3086.000,-106.445,-98.633,4.883,-70.801,0.000
3090.000,-96.680,-100.586,4.395,-73.730,0.000
3094.000,-80.566,-100.098,0.977,-66.895,0.000
3098.000,-96.191,-96.191,0.977,-67.871,0.000
3101.000,-120.117,-100.098,5.859,-57.617,0.000
3105.000,-120.117,-104.492,5.371,-52.246,0.000
3109.000,-116.699,-102.539,1.465,-49.805,0.000
3113.000,-114.258,-97.168,-5.371,-45.898,0.000
3117.000,-95.703,-94.727,-9.277,-37.598,0.000
3121.000,-82.520,-93.750,-1.465,-34.180,0.000
3125.000,-67.871,-85.449,0.488,-29.785,0.000
3129.000,-48.340,-76.172,-4.395,-31.738,0.000
3133.000,-63.965,-75.684,-10.254,-34.180,0.000
3137.000,-61.523,-72.754,-13.672,-30.273,0.000
3140.000,-63.477,-68.848,-13.184,-29.785,0.000
3144.000,-84.961,-63.477,-16.113,-22.949,0.000
3148.000,-84.473,-60.059,-16.602,-33.203,0.000
3152.000,-71.289,-60.059,-15.625,-40.527,0.000
3156.000,-72.754,-60.059,-14.648,-32.715,0.000
3160.000,-91.797,-60.059,-14.160,-33.691,0.000
3164.000,-82.520,-58.594,-13.184,-24.414,0.000
3168.000,-66.406,-53.223,-10.254,-14.648,0.000
3172.000,-50.293,-51.758,-9.277,-9.766,0.000
3176.000,-33.691,-51.270,-9.277,-10.254,0.000
3180.000,-40.527,-44.434,-16.113,-32.227,0.000
3183.000,-57.129,-45.898,-16.602,-31.738,0.000
3187.000,-63.965,-53.223,-15.625,-24.902,0.000
3191.000,-66.895,-49.316,-18.066,-31.738,0.000
3195.000,-62.012,-44.434,-18.555,-25.391,0.000
3199.000,-55.176,-44.922,-20.996,-26.367,0.000
3203.000,-48.828,-44.922,-27.832,-27.832,0.000
3207.000,-33.691,-43.945,-24.902,-16.602,0.000
3211.000,-22.949,-43.945,-18.555,-15.137,0.000
3215.000,-30.273,-46.875,-8.301,-20.996,0.000
3219.000,-48.340,-46.875,-2.441,-30.273,0.000
3222.000,-61.523,-53.223,-10.742,-40.039,0.000
3226.000,-62.012,-62.012,-11.230,-37.109,0.000
3230.000,-50.781,-62.500,-13.672,-39.551,0.000
3234.000,-44.922,-57.617,-19.531,-44.922,0.000
3238.000,-37.109,-49.805,-17.578,-37.598,0.000
3242.000,-42.969,-53.711,-19.531,-30.273,0.000
3246.000,-58.105,-54.688,-23.438,-31.738,0.000
3250.000,-65.918,-55.664,-20.508,-30.762,0.000
3254.000,-64.453,-56.152,-25.391,-31.250,0.000
3258.000,-52.246,-48.340,-25.391,-25.879,0.000
3262.000,-48.828,-47.852,-21.484,-15.137,0.000
3265.000,-60.547,-50.781,-24.902,-24.414,0.000
3269.000,-58.105,-49.805,-26.855,-34.180,0.000
3273.000,-56.152,-41.504,-20.020,-23.926,0.000
3277.000,-58.105,-40.527,-19.531,-19.531,0.000
3281.000,-58.594,-44.922,-23.926,-20.508,0.000
3285.000,-58.105,-45.410,-23.438,-18.066,0.000
3289.000,-41.016,-43.945,-23.926,-19.531,0.000
3293.000,-38.574,-43.457,-20.508,-27.832,0.000
3297.000,-49.316,-42.969,-18.066,-32.715,0.000
3301.000,-54.199,-43.457,-24.902,-29.785,0.000
3305.000,-48.828,-42.480,-28.320,-22.461,0.000
3308.000,-39.062,-37.598,-25.879,-27.832,0.000
3312.000,-19.531,-33.203,-20.996,-32.715,0.000
3316.000,-16.602,-34.180,-20.508,-27.832,0.000
3320.000,-28.320,-37.598,-19.531,-29.785,0.000
3324.000,-32.227,-37.109,-20.020,-25.879,0.000
3328.000,-47.363,-35.645,-25.879,-30.762,0.000
3332.000,-52.246,-37.598,-27.832,-36.621,0.000
3336.000,-61.523,-34.180,-25.391,-34.668,0.000
3340.000,-62.500,-31.250,-25.391,-36.133,0.000
3344.000,-55.664,-31.250,-23.438,-33.203,0.000
3347.000,-58.105,-30.762,-20.020,-32.227,0.000
3351.000,-51.270,-29.785,-20.020,-35.156,0.000
3355.000,-50.781,-29.785,-20.508,-35.156,0.000
3359.000,-42.480,-25.879,-15.625,-28.809,0.000
3363.000,-21.973,-24.902,-14.648,-30.273,0.000
3367.000,-30.762,-26.367,-18.555,-37.109,0.000
3371.000,-50.781,-28.320,-21.484,-34.668,0.000
3375.000,-52.734,-25.879,-21.973,-33.691,0.000
3379.000,-43.945,-22.949,-20.508,-31.738,0.000
3383.000,-35.156,-23.438,-23.926,-34.180,0.000
3387.000,-28.320,-20.508,-26.855,-39.551,0.000
3390.000,-23.438,-23.438,-26.855,-42.480,0.000
3394.000,-28.809,-22.949,-25.391,-43.457,0.000
3398.000,-42.969,-23.438,-20.020,-39.062,0.000
3402.000,-49.805,-24.414,-19.531,-41.504,0.000
3406.000,-38.574,-24.414,-24.902,-41.992,0.000
3410.000,-32.227,-26.855,-32.227,-37.109,0.000
3414.000,-24.414,-27.344,-33.691,-37.598,0.000
3418.000,-31.738,-27.832,-30.273,-41.992,0.000
3422.000,-46.387,-28.809,-28.809,-35.645,0.000
3426.000,-32.227,-28.809,-29.297,-34.180,0.000
3430.000,-33.691,-28.809,-28.809,-37.598,0.000
3433.000,-46.387,-28.809,-33.691,-39.551,0.000
3437.000,-52.734,-29.297,-33.691,-41.992,0.000
3441.000,-54.199,-32.715,-33.691,-40.039,0.000
3445.000,-45.410,-35.156,-33.691,-42.480,0.000
3449.000,-45.410,-33.691,-29.785,-38.574,0.000
3453.000,-16.113,-31.250,-28.809,-16.113,0.000
3457.000,-11.230,-29.297,-32.715,-20.508,0.000
3461.000,-55.176,-30.273,-35.645,-57.129,0.000
3465.000,-58.594,-28.809,-33.691,-59.570,0.000
3469.000,-48.340,-21.973,-32.715,-41.016,0.000
3472.000,-36.621,-17.090,-35.156,-28.320,0.000
3476.000,-24.902,-17.090,-37.598,-20.020,0.000
3480.000,-31.738,-12.695,-38.574,-32.227,0.000
3484.000,-39.551,-7.812,-34.668,-39.551,0.000
3488.000,-18.555,-7.324,-38.086,-37.598,0.000
3492.000,6.836,-1.465,-43.457,-37.598,0.000
3496.000,5.371,3.418,-40.527,-38.086,0.000
3500.000,-2.441,2.441,-42.969,-45.898,0.000
3504.000,-20.996,2.441,-42.969,-45.410,0.000
3508.000,-41.016,2.930,-41.016,-39.551,0.000
3512.000,-34.180,5.859,-40.039,-34.668,0.000
3515.000,-40.527,8.789,-41.016,-38.086,0.000
3519.000,-54.688,6.836,-46.875,-47.363,0.000
3523.000,-45.898,13.184,-49.316,-49.316,0.000
3527.000,-29.297,16.113,-50.293,-54.688,0.000
3531.000,-20.020,16.113,-52.246,-68.359,0.000
3535.000,-19.043,21.973,-48.340,-61.523,0.000
3539.000,-20.508,23.438,-43.945,-53.223,0.000
3543.000,-32.227,18.066,-44.434,-56.152,0.000
3547.000,-63.477,14.648,-42.969,-50.293,0.000
3551.000,-68.359,23.926,-44.434,-50.293,0.000
3555.000,-49.805,24.902,-51.270,-57.129,0.000
3558.000,-39.551,20.020,-54.199,-49.805,0.000
3562.000,-43.945,22.949,-53.711,-60.547,0.000
3566.000,-43.457,27.344,-57.617,-66.406,0.000
3570.000,-25.391,32.715,-58.594,-49.805,0.000
3574.000,-19.531,33.691,-56.152,-44.922,0.000
3578.000,-26.855,35.156,-54.688,-42.480,0.000
3582.000,-36.133,36.621,-56.152,-49.805,0.000
3586.000,-28.320,33.203,-63.477,-60.547,0.000
3590.000,-1.953,33.203,-64.453,-49.316,0.000
3594.000,7.324,33.691,-64.453,-36.133,0.000
3597.000,-10.254,30.273,-63.965,-38.086,0.000
3601.000,-17.578,27.832,-59.570,-29.297,0.000
3605.000,-14.648,22.949,-63.477,-14.160,0.000
3609.000,-10.254,24.414,-62.988,-11.230,0.000
3613.000,5.859,24.414,-59.570,-5.371,0.000
3617.000,6.836,20.020,-62.500,4.395,0.000
3621.000,5.859,19.531,-60.059,15.137,0.000
3625.000,20.020,24.902,-56.152,18.066,0.000
3629.000,28.320,27.832,-49.316,14.648,0.000
3633.000,30.762,22.949,-51.270,17.578,0.000
3637.000,30.762,20.020,-54.688,25.391,0.000
3640.000,37.109,21.973,-55.664,23.926,0.000
3644.000,41.992,21.973,-47.363,21.484,0.000
3648.000,47.363,16.602,-45.898,26.367,0.000
3652.000,47.852,20.996,-53.223,28.809,0.000
3656.000,51.758,25.391,-49.805,30.762,0.000
3660.000,46.387,18.066,-49.805,32.227,0.000
3664.000,31.250,18.066,-49.316,31.738,0.000
3668.000,26.367,15.625,-47.363,20.020,0.000
3672.000,30.762,12.207,-52.246,19.043,0.000
3676.000,32.715,16.602,-52.734,18.066,0.000
3680.000,27.832,15.625,-48.828,12.207,0.000
3683.000,25.879,12.207,-47.852,15.625,0.000
3687.000,22.949,8.301,-50.781,8.789,0.000
3691.000,20.508,7.324,-55.176,8.301,0.000
3695.000,10.254,5.371,-49.805,8.301,0.000
3699.000,-2.930,8.789,-43.945,2.441,0.000
3703.000,-8.301,9.766,-43.945,6.836,0.000
3707.000,10.742,4.883,-46.387,3.418,0.000
3711.000,16.113,-1.465,-46.875,-9.277,0.000
3715.000,26.367,-6.836,-47.363,-11.230,0.000
3719.000,20.996,-8.789,-44.922,-15.625,0.000
3722.000,-3.418,-14.160,-37.109,-11.719,0.000
3726.000,5.859,-14.160,-36.621,0.488,0.000
3730.000,-2.930,-13.672,-38.574,-7.812,0.000
3734.000,-17.578,-18.555,-35.645,-16.602,0.000
3738.000,-12.207,-23.926,-28.320,-9.277,0.000
3742.000,-0.488,-22.461,-28.809,-0.977,0.000
3746.000,6.348,-20.996,-26.367,-2.930,0.000
3750.000,0.000,-24.414,-25.391,-9.277,0.000
3754.000,-8.789,-21.484,-30.762,-8.789,0.000
3758.000,-12.695,-22.461,-27.344,-19.531,0.000
3762.000,-24.414,-24.414,-22.949,-20.996,0.000
3765.000,-25.879,-21.484,-28.320,-12.207,0.000
3769.000,-19.531,-29.785,-31.250,-5.859,0.000
3773.000,-13.184,-32.715,-36.621,3.906,0.000
3777.000,-12.695,-30.273,-42.480,-12.207,0.000
3781.000,-3.418,-29.297,-37.598,-17.090,0.000
3785.000,4.395,-28.320,-29.297,0.000,0.000
3789.000,-8.301,-32.227,-24.902,5.371,0.000
3793.000,-26.855,-31.738,-24.414,0.977,0.000
3797.000,-22.461,-32.715,-27.344,-6.836,0.000
3801.000,-27.832,-39.062,-30.273,-7.812,0.000
3805.000,-34.180,-40.527,-31.250,1.953,0.000
3808.000,-27.832,-40.039,-34.668,-2.441,0.000
3812.000,-29.785,-38.086,-32.715,-3.906,0.000
3816.000,-29.297,-32.227,-27.832,0.977,0.000
3820.000,-24.902,-25.391,-30.762,-0.977,0.000
3824.000,-14.160,-25.391,-33.203,-0.488,0.000
3828.000,-12.207,-30.273,-34.180,-11.719,0.000
3832.000,-8.301,-29.785,-30.762,-18.066,0.000
3836.000,-0.977,-26.367,-29.297,-12.207,0.000
3840.000,0.488,-33.203,-33.203,-10.254,0.000
3844.000,0.000,-31.250,-27.832,0.488,0.000
3847.000,-3.906,-21.973,-25.879,11.230,0.000
3851.000,-6.348,-22.461,-29.297,5.859,0.000
3855.000,-10.742,-28.320,-29.297,1.953,0.000
3859.000,-7.324,-31.738,-24.902,7.324,0.000
3863.000,-2.441,-29.785,-26.855,3.906,0.000
3867.000,3.418,-28.809,-25.391,3.418,0.000
3871.000,0.000,-31.738,-22.949,-0.488,0.000
3875.000,-10.742,-36.621,-28.809,-1.465,0.000
3879.000,-14.160,-36.133,-29.297,-6.836,0.000
3883.000,-12.207,-33.691,-29.297,-20.508,0.000
3887.000,0.000,-33.203,-31.250,-19.531,0.000
3890.000,14.648,-31.738,-32.715,-18.555,0.000
3894.000,-6.348,-29.785,-24.902,-8.789,0.000
3898.000,-35.645,-29.785,-19.531,4.395,0.000
3902.000,-34.668,-29.785,-20.020,3.418,0.000
3906.000,-45.410,-34.180,-24.414,-0.977,0.000
3910.000,-39.551,-32.715,-25.879,-5.859,0.000
3914.000,-40.039,-35.156,-27.832,-22.461,0.000
3918.000,-54.199,-41.992,-32.715,-38.086,0.000
3922.000,-52.246,-38.574,-35.645,-35.156,0.000
3926.000,-38.086,-36.621,-36.621,-26.855,0.000
3929.000,-19.531,-39.551,-33.691,-9.766,0.000
3933.000,-9.277,-36.133,-19.531,4.395,0.000
3937.000,-19.043,-39.062,-12.207,-11.230,0.000
3941.000,-51.758,-49.805,-17.090,-41.016,0.000
3945.000,-53.711,-53.711,-13.672,-44.922,0.000
3949.000,-53.223,-58.594,-12.695,-36.133,0.000
3953.000,-64.453,-69.824,-17.578,-43.457,0.000
3957.000,-53.711,-73.242,-13.184,-51.270,0.000
3961.000,-54.688,-73.730,-7.324,-58.594,0.000
3965.000,-66.895,-82.031,-2.930,-67.383,0.000
3969.000,-74.219,-88.379,-3.906,-80.078,0.000
3972.000,-85.938,-90.820,-6.836,-85.449,0.000
3976.000,-75.684,-87.891,-0.977,-76.660,0.000
3980.000,-63.965,-82.520,11.230,-60.547,0.000
3984.000,-101.074,-92.773,11.230,-66.895,0.000
3988.000,-146.484,-102.539,6.348,-72.754,0.000
3992.000,-152.344,-103.027,9.277,-76.172,0.000
3996.000,-135.254,-103.027,6.836,-80.566,0.000
4000.000,-114.746,-96.680,5.371,-67.871,0.000
4004.000,-114.258,-94.238,11.230,-74.219,0.000
4008.000,-104.492,-97.168,19.531,-62.988,0.000
4012.000,-107.910,-99.609,14.160,-51.270,0.000
4015.000,-123.047,-99.609,1.953,-69.336,0.000
4019.000,-106.934,-100.586,4.395,-70.312,0.000
4023.000,-100.098,-105.957,2.441,-63.965,0.000
4027.000,-96.191,-103.516,-0.488,-59.082,0.000
4031.000,-102.051,-99.609,1.465,-61.035,0.000
4035.000,-97.656,-94.727,-0.977,-66.406,0.000
4039.000,-75.195,-90.332,-5.859,-60.547,0.000
4043.000,-65.918,-94.238,-8.301,-47.363,0.000
4047.000,-66.895,-95.215,-10.742,-45.898,0.000
4051.000,-53.711,-85.938,-12.695,-53.711,0.000
4054.000,-38.574,-75.684,-11.719,-41.992,0.000
4058.000,-40.527,-69.824,-11.719,-31.250,0.000
4062.000,-40.527,-67.871,-13.184,-37.598,0.000
4066.000,-49.316,-63.965,-12.207,-32.227,0.000
4070.000,-61.523,-62.988,-7.812,-19.043,0.000
4074.000,-63.477,-65.430,-14.160,-13.184,0.000
4078.000,-57.129,-62.988,-17.578,-20.508,0.000
4082.000,-54.688,-61.523,-14.648,-33.691,0.000
4086.000,-59.570,-57.617,-16.602,-35.645,0.000
4090.000,-67.871,-54.688,-14.648,-26.855,0.000
4094.000,-71.777,-54.199,-13.672,-25.879,0.000
4097.000,-62.500,-53.711,-14.160,-23.438,0.000
4101.000,-54.688,-50.781,-15.137,-22.461,0.000
4105.000,-54.688,-50.293,-18.555,-23.926,0.000
4109.000,-48.828,-49.316,-19.043,-20.020,0.000
4113.000,-43.457,-44.922,-16.602,-21.973,0.000
4117.000,-40.039,-43.457,-20.508,-29.785,0.000
4121.000,-34.668,-40.527,-23.438,-28.320,0.000
4125.000,-33.691,-39.551,-16.602,-24.414,0.000
4129.000,-36.133,-37.598,-12.695,-24.902,0.000
4133.000,-34.180,-38.086,-16.602,-35.645,0.000
4137.000,-30.273,-36.621,-20.508,-44.434,0.000
4140.000,-26.855,-38.574,-27.832,-43.945,0.000
4144.000,-30.273,-40.039,-31.250,-42.480,0.000
4148.000,-48.828,-42.480,-30.762,-39.062,0.000
4152.000,-66.895,-48.340,-34.668,-40.527,0.000
4156.000,-62.500,-43.457,-32.715,-34.180,0.000
4160.000,-52.246,-40.039,-27.832,-24.902,0.000
4164.000,-52.734,-39.551,-32.715,-31.738,0.000
4168.000,-41.016,-36.133,-30.762,-33.691,0.000
4172.000,-33.691,-37.109,-26.855,-28.320,0.000
4176.000,-49.316,-36.133,-32.227,-30.273,0.000
4179.000,-57.129,-38.574,-26.855,-25.879,0.000
4183.000,-64.941,-41.504,-24.902,-22.461,0.000
4187.000,-67.871,-39.551,-29.297,-26.367,0.000
4191.000,-64.453,-38.086,-28.320,-24.902,0.000
4195.000,-62.988,-40.039,-31.738,-27.832,0.000
4199.000,-55.664,-39.062,-33.691,-27.832,0.000
4203.000,-50.293,-34.668,-31.738,-28.320,0.000
4207.000,-44.434,-36.621,-31.250,-29.297,0.000
4211.000,-47.363,-40.527,-30.762,-25.391,0.000
4215.000,-56.152,-38.574,-29.785,-25.391,0.000
4219.000,-56.152,-34.180,-27.832,-21.484,0.000
4222.000,-57.617,-36.133,-26.855,-19.043,0.000
4226.000,-52.734,-39.062,-33.203,-27.344,0.000
4230.000,-48.340,-41.016,-37.109,-36.621,0.000
4234.000,-39.551,-38.574,-30.273,-32.715,0.000
4238.000,-26.855,-37.109,-25.879,-29.297,0.000
4242.000,-23.438,-36.621,-21.973,-29.297,0.000
4246.000,-19.531,-34.668,-24.414,-30.762,0.000
4250.000,-21.484,-25.879,-26.855,-33.691,0.000
4254.000,-32.715,-25.879,-24.902,-23.926,0.000
4258.000,-40.527,-31.250,-27.832,-25.879,0.000
4262.000,-45.898,-33.203,-29.785,-30.273,0.000
4265.000,-48.340,-33.691,-32.715,-29.297,0.000
4269.000,-57.129,-30.273,-33.691,-38.086,0.000
4273.000,-47.852,-29.297,-33.691,-37.598,0.000
4277.000,-35.156,-31.738,-32.715,-31.250,0.000
4281.000,-37.109,-31.250,-33.203,-32.715,0.000
4285.000,-33.691,-28.320,-33.691,-35.156,0.000
4289.000,-21.484,-25.391,-29.785,-25.391,0.000
4293.000,-19.043,-22.461,-30.273,-18.066,0.000
4297.000,-31.738,-26.367,-30.273,-22.461,0.000
4301.000,-38.574,-31.250,-31.250,-26.855,0.000
4304.000,-39.062,-32.715,-33.691,-21.973,0.000
4308.000,-31.250,-33.203,-31.250,-17.090,0.000
4312.000,-28.320,-28.320,-29.785,-18.066,0.000
4316.000,-34.668,-20.996,-30.273,-21.973,0.000
4320.000,-33.691,-22.461,-31.738,-30.273,0.000
4324.000,-33.691,-26.855,-32.715,-28.809,0.000
4328.000,-31.738,-25.391,-30.273,-21.973,0.000
4332.000,-37.109,-26.367,-25.391,-23.926,0.000
4336.000,-41.992,-27.344,-25.391,-22.949,0.000
4340.000,-39.062,-29.785,-30.762,-20.020,0.000
4344.000,-27.832,-29.297,-30.762,-21.973,0.000
4347.000,-23.926,-27.344,-28.320,-22.949,0.000
4351.000,-27.344,-28.320,-30.762,-20.996,0.000
4355.000,-16.602,-29.785,-29.785,-28.320,0.000
4359.000,-7.812,-28.320,-28.320,-23.926,0.000
4363.000,-21.484,-23.438,-29.785,-12.207,0.000
4367.000,-52.734,-21.973,-25.879,-12.695,0.000
4371.000,-63.965,-19.531,-26.367,-15.625,0.000
4375.000,-50.293,-20.020,-31.250,-12.695,0.000
4379.000,-41.016,-22.461,-25.391,-10.254,0.000
4383.000,-37.598,-20.020,-20.996,-20.020,0.000
4387.000,-28.320,-21.973,-24.414,-21.484,0.000
4390.000,-16.602,-25.391,-26.855,-15.137,0.000
4394.000,-9.766,-20.508,-26.855,-2.441,0.000
4398.000,-20.996,-21.484,-30.273,-5.859,0.000
4402.000,-36.133,-23.438,-35.645,-26.367,0.000
4406.000,-27.832,-17.090,-37.109,-27.344,0.000
4410.000,-20.996,-13.184,-37.109,-25.391,0.000
4414.000,-0.488,-12.695,-38.086,-28.320,0.000
4418.000,12.207,-9.277,-38.574,-22.949,0.000
4422.000,11.230,-7.324,-41.992,-24.902,0.000
4426.000,16.113,-7.324,-47.852,-32.715,0.000
4429.000,2.930,-0.488,-44.434,-15.137,0.000
4433.000,-27.344,4.395,-41.992,-17.090,0.000
4437.000,-61.035,3.906,-43.457,-33.691,0.000
4441.000,-47.852,7.324,-47.363,-25.879,0.000
4445.000,-16.113,10.254,-53.223,-23.438,0.000
4449.000,-9.766,11.230,-57.129,-26.855,0.000
4453.000,-3.418,13.672,-57.617,-31.738,0.000
4457.000,8.301,17.090,-56.152,-15.625,0.000
4461.000,-0.977,17.578,-58.105,-18.555,0.000
4465.000,-1.953,20.996,-58.594,-24.902,0.000
4469.000,5.371,20.508,-60.547,-13.672,0.000
4472.000,11.719,24.902,-59.082,-6.836,0.000
4476.000,27.344,31.250,-56.641,5.371,0.000
4480.000,28.320,31.738,-59.570,5.371,0.000
4484.000,21.484,31.250,-62.988,0.000,0.000
4488.000,32.715,32.227,-59.082,1.953,0.000
4492.000,35.645,33.691,-56.152,4.395,0.000
4496.000,36.133,28.320,-55.176,12.207,0.000
4500.000,34.668,26.855,-55.176,-2.930,0.000
4504.000,28.809,26.855,-62.988,-9.766,0.000
4508.000,41.992,25.391,-60.547,3.418,0.000
4511.000,51.758,22.949,-57.617,5.371,0.000
4515.000,38.086,20.020,-58.594,5.859,0.000
4519.000,6.836,17.578,-58.594,3.418,0.000
4523.000,2.930,18.066,-55.176,9.766,0.000
4527.000,18.066,15.137,-51.758,15.625,0.000
4531.000,12.207,9.277,-53.711,11.230,0.000
4535.000,18.555,13.672,-53.223,9.766,0.000
4539.000,11.230,17.578,-52.734,1.465,0.000
4543.000,0.000,16.113,-52.246,-4.395,0.000
4547.000,5.859,12.207,-55.176,-5.371,0.000
4551.000,-11.230,9.766,-57.129,-0.977,0.000
4554.000,-9.277,14.160,-53.223,13.184,0.000
4558.000,3.418,14.648,-53.711,4.395,0.000
4562.000,14.648,16.602,-50.293,-3.418,0.000
4566.000,17.090,17.578,-50.293,-6.836,0.000
4570.000,-1.465,11.230,-43.945,-18.555,0.000
4574.000,-3.418,9.277,-37.109,-19.531,0.000
4578.000,6.836,10.742,-44.434,-14.160,0.000
4582.000,-12.207,7.812,-41.504,-9.277,0.000
4586.000,-25.391,6.348,-40.039,-6.836,0.000
4590.000,-45.898,2.930,-44.922,-16.602,0.000
4594.000,-55.664,-0.488,-45.898,-24.902,0.000
4597.000,-38.086,3.906,-45.898,-22.461,0.000
4601.000,-39.062,4.883,-42.480,-28.809,0.000
4605.000,-31.250,4.883,-37.598,-27.344,0.000
4609.000,-19.531,8.789,-37.598,-19.531,0.000
4613.000,-24.414,7.324,-37.109,-36.621,0.000
4617.000,-28.320,-6.348,-41.016,-51.270,0.000
4621.000,-20.020,-8.301,-44.922,-44.434,0.000
4625.000,-29.785,-10.254,-40.527,-40.527,0.000
4629.000,-39.551,-14.648,-40.527,-46.387,0.000
4633.000,-38.086,-13.672,-36.621,-59.082,0.000
4636.000,-24.902,-13.184,-35.645,-54.688,0.000
4640.000,-15.137,-13.672,-41.016,-43.457,0.000
4644.000,-38.086,-18.066,-39.551,-50.293,0.000
4648.000,-42.969,-12.207,-37.109,-56.641,0.000
4652.000,-40.527,-12.207,-38.574,-48.828,0.000
4656.000,-49.805,-18.066,-39.062,-45.410,0.000
4660.000,-36.621,-15.625,-34.668,-35.156,0.000
4664.000,-11.719,-12.695,-36.133,-28.809,0.000
4668.000,-8.301,-12.695,-38.086,-24.414,0.000
4672.000,-20.508,-13.672,-30.762,-20.996,0.000
4676.000,-27.832,-14.648,-28.809,-22.949,0.000
4679.000,-24.414,-12.695,-30.762,-21.973,0.000
4683.000,-28.320,-12.207,-26.855,-20.020,0.000
4687.000,-29.297,-13.184,-23.926,-20.996,0.000
4691.000,-16.113,-10.254,-24.902,-15.137,0.000
4695.000,-20.020,-11.719,-25.879,-11.719,0.000
4699.000,-31.738,-16.113,-29.785,-23.926,0.000
4703.000,-28.320,-13.672,-32.715,-23.926,0.000
4707.000,-23.926,-15.625,-31.250,-22.461,0.000
4711.000,-30.762,-22.949,-32.715,-31.250,0.000
4715.000,-23.438,-20.020,-35.645,-32.715,0.000
4719.000,-21.484,-16.602,-31.738,-27.832,0.000
4722.000,-24.902,-23.926,-30.273,-25.879,0.000
4726.000,-13.672,-26.367,-37.109,-27.832,0.000
4730.000,-20.020,-28.320,-36.133,-38.086,0.000
4734.000,-30.762,-30.762,-34.668,-41.016,0.000
4738.000,-29.297,-28.320,-36.133,-33.691,0.000
4742.000,-30.762,-24.414,-30.273,-29.297,0.000
4746.000,-39.551,-28.809,-28.809,-30.273,0.000
4750.000,-37.109,-34.180,-31.250,-29.297,0.000
4754.000,-20.996,-32.227,-31.738,-20.996,0.000
4758.000,-18.066,-27.832,-33.203,-16.602,0.000
4761.000,-18.066,-25.391,-36.621,-17.578,0.000
4765.000,-11.230,-27.832,-30.762,-22.949,0.000
4769.000,-27.344,-28.320,-23.438,-24.902,0.000
4773.000,-27.832,-26.855,-24.414,-20.508,0.000
4777.000,-23.926,-28.809,-21.973,-20.020,0.000
4781.000,-37.598,-33.203,-19.043,-15.625,0.000
4785.000,-33.691,-33.691,-19.043,-10.254,0.000
4789.000,-29.297,-33.203,-19.531,-2.441,0.000
4793.000,-26.367,-37.598,-26.367,-5.371,0.000
4797.000,-29.297,-36.133,-33.691,-14.160,0.000
4801.000,-37.598,-30.762,-29.785,-18.555,0.000
4804.000,-31.250,-32.715,-26.367,-15.625,0.000
4808.000,-23.438,-34.668,-29.297,-20.508,0.000
4812.000,-19.531,-34.668,-26.855,-29.785,0.000
4816.000,-3.418,-29.297,-24.902,-6.348,0.000
4820.000,6.836,-32.715,-17.090,6.348,0.000
4824.000,-24.902,-53.223,-10.742,-19.531,0.000
4828.000,-54.688,-56.152,-16.113,-40.527,0.000
4832.000,-58.594,-55.664,-18.555,-48.828,0.000
4836.000,-71.289,-62.500,-25.879,-56.152,0.000
4840.000,-61.523,-64.941,-20.508,-51.270,0.000
4844.000,-50.293,-69.336,-18.555,-54.688,0.000
4847.000,-62.012,-69.336,-19.531,-61.523,0.000
4851.000,-67.871,-73.730,-17.578,-56.641,0.000
4855.000,-53.711,-75.684,-17.578,-48.828,0.000
4859.000,-62.988,-75.195,-14.160,-53.711,0.000
4863.000,-85.938,-82.520,-8.789,-61.035,0.000
4867.000,-86.914,-86.914,-2.930,-54.688,0.000
4871.000,-98.145,-87.402,-2.441,-51.758,0.000
4875.000,-97.168,-93.262,-0.977,-48.340,0.000
4879.000,-85.449,-96.191,0.488,-42.480,0.000
4883.000,-101.562,-94.727,-3.418,-61.035,0.000
4886.000,-94.727,-89.844,-4.395,-46.387,0.000
4890.000,-85.938,-89.844,0.977,-33.203,0.000
4894.000,-101.562,-92.773,0.977,-51.270,0.000
4898.000,-98.145,-96.191,3.906,-46.387,0.000
4902.000,-105.957,-97.656,3.418,-58.594,0.000
4906.000,-109.863,-96.191,1.953,-64.453,0.000
4910.000,-94.727,-100.098,7.812,-49.316,0.000
4914.000,-99.121,-103.027,1.465,-51.270,0.000
4918.000,-87.891,-97.168,0.977,-42.480,0.000
4922.000,-87.402,-96.191,5.371,-45.898,0.000
4926.000,-95.703,-94.727,-1.953,-56.641,0.000
4929.000,-81.055,-84.961,-1.465,-35.645,0.000
4933.000,-85.938,-83.008,4.395,-41.504,0.000
4937.000,-92.285,-84.961,-1.465,-63.965,0.000
4941.000,-87.402,-85.449,-11.719,-59.082,0.000
4945.000,-83.008,-78.613,-12.695,-50.781,0.000
4949.000,-76.660,-75.684,-8.789,-49.316,0.000
4953.000,-81.055,-82.520,-8.301,-49.316,0.000
4957.000,-85.938,-80.078,-9.766,-42.969,0.000
4961.000,-76.660,-73.242,-13.184,-38.574,0.000
4965.000,-71.777,-69.824,-9.277,-35.645,0.000
4969.000,-73.730,-68.848,-4.883,-33.691,0.000
4972.000,-73.242,-62.988,-11.719,-26.855,0.000
4976.000,-65.430,-59.082,-12.695,-21.484,0.000
4980.000,-72.266,-64.941,-13.184,-29.785,0.000
4984.000,-83.496,-64.453,-18.555,-37.598,0.000
4988.000,-75.684,-58.594,-19.531,-36.621,0.000
4992.000,-69.336,-57.129,-20.020,-41.016,0.000
4996.000,-61.523,-58.594,-22.949,-42.969,0.000
5000.000,-49.805,-58.105,-21.973,-39.551,0.000
5004.000,-44.434,-53.711,-18.555,-34.668,0.000
5008.000,-33.203,-49.316,-18.555,-29.785,0.000
5011.000,-33.691,-47.852,-20.996,-31.738,0.000
5015.000,-43.945,-46.875,-19.531,-33.691,0.000
5019.000,-48.340,-49.316,-22.949,-39.551,0.000
5023.000,-45.410,-47.852,-27.832,-45.410,0.000
5027.000,-41.016,-42.969,-25.391,-38.574,0.000
5031.000,-50.293,-41.992,-21.484,-36.133,0.000
5035.000,-58.105,-42.480,-20.996,-39.551,0.000
5039.000,-53.711,-44.434,-21.484,-36.621,0.000
5043.000,-38.086,-44.434,-24.414,-26.367,0.000
5047.000,-39.062,-43.457,-24.414,-26.855,0.000
5051.000,-51.270,-42.480,-23.926,-36.621,0.000
5054.000,-43.457,-40.039,-29.297,-35.645,0.000
5058.000,-28.320,-39.551,-34.180,-27.832,0.000
5062.000,-31.738,-41.504,-34.180,-31.250,0.000
5066.000,-44.922,-40.039,-30.762,-33.691,0.000
5070.000,-41.016,-37.598,-26.855,-37.598,0.000
5074.000,-31.250,-35.645,-27.832,-38.574,0.000
5078.000,-35.156,-34.180,-27.344,-35.645,0.000
5082.000,-34.180,-33.691,-26.855,-36.133,0.000
5086.000,-28.320,-34.180,-24.414,-37.598,0.000
5090.000,-28.320,-31.250,-20.508,-30.762,0.000
5094.000,-31.250,-28.809,-25.391,-21.484,0.000
5097.000,-43.457,-33.691,-25.391,-30.273,0.000
5101.000,-49.805,-36.621,-23.926,-30.762,0.000
5105.000,-41.016,-35.645,-28.320,-23.438,0.000
5109.000,-34.180,-41.016,-29.785,-31.250,0.000
5113.000,-60.059,-46.387,-27.344,-34.668,0.000
5117.000,-69.824,-39.062,-20.996,-35.156,0.000
5121.000,-52.246,-33.203,-19.043,-31.250,0.000
5125.000,-45.410,-36.133,-25.391,-26.367,0.000
5129.000,-41.504,-32.715,-28.320,-32.715,0.000
5133.000,-41.504,-28.809,-26.855,-39.551,0.000
5136.000,-43.457,-28.320,-27.832,-41.016,0.000
5140.000,-41.992,-30.762,-30.273,-40.039,0.000
5144.000,-40.039,-34.180,-27.344,-34.180,0.000
5148.000,-45.898,-33.691,-24.902,-27.344,0.000
5152.000,-53.711,-33.203,-24.414,-17.090,0.000
5156.000,-51.270,-34.668,-25.879,-22.461,0.000
5160.000,-53.223,-37.109,-29.297,-36.133,0.000
5164.000,-51.270,-37.109,-29.297,-26.855,0.000
5168.000,-43.945,-37.598,-27.344,-27.344,0.000
5172.000,-34.180,-32.227,-28.809,-35.645,0.000
5176.000,-27.344,-29.785,-32.227,-33.203,0.000
5179.000,-27.344,-29.785,-36.133,-30.762,0.000
5183.000,-29.297,-30.273,-34.668,-35.156,0.000
5187.000,-37.598,-34.180,-31.738,-40.039,0.000
5191.000,-33.203,-34.668,-35.645,-35.645,0.000
5195.000,-34.668,-29.785,-32.715,-30.273,0.000
5199.000,-31.738,-31.250,-28.809,-29.297,0.000
5203.000,-41.992,-34.180,-27.832,-30.762,0.000
5207.000,-49.316,-33.691,-28.320,-24.414,0.000
5211.000,-34.180,-32.227,-28.809,-23.438,0.000
5215.000,-41.504,-30.762,-29.297,-30.273,0.000
5218.000,-30.273,-28.320,-33.691,-38.086,0.000
5222.000,-17.578,-23.926,-34.180,-40.527,0.000
5226.000,-25.879,-21.484,-31.250,-39.551,0.000
5230.000,-29.297,-24.902,-29.785,-41.992,0.000
5234.000,-50.781,-26.855,-25.391,-39.062,0.000
5238.000,-49.316,-24.414,-23.438,-24.902,0.000
5242.000,-17.090,-22.461,-26.855,-4.395,0.000
5246.000,-34.180,-19.043,-31.738,-12.207,0.000
5250.000,-70.801,-20.996,-42.480,-45.898,0.000
5254.000,-65.918,-23.438,-40.039,-39.062,0.000
5258.000,-42.480,-17.578,-34.668,-26.855,0.000
5261.000,-32.715,-11.230,-38.574,-35.156,0.000
5265.000,-36.133,-11.230,-42.480,-34.180,0.000
5269.000,-20.996,-5.371,-44.434,-26.855,0.000
5273.000,-1.953,-1.465,-44.922,-23.438,0.000
5277.000,-9.766,-5.371,-50.781,-32.715,0.000
5281.000,-19.531,-2.930,-50.293,-34.180,0.000
5285.000,-21.484,-3.906,-51.270,-27.344,0.000
5289.000,-7.324,-0.977,-52.246,-19.043,0.000
5293.000,0.977,2.441,-47.363,-18.555,0.000
5297.000,-19.531,-5.859,-53.223,-21.973,0.000
5301.000,-37.598,-3.906,-57.617,-16.602,0.000
5304.000,-35.156,2.441,-56.152,-13.672,0.000
5308.000,-7.324,6.836,-54.199,-6.836,0.000
5312.000,2.930,13.184,-53.223,-10.254,0.000
5316.000,-8.789,15.625,-54.688,-22.949,0.000
5320.000,11.230,19.531,-51.270,-29.785,0.000
5324.000,35.156,23.926,-48.828,-20.020,0.000
5328.000,31.250,24.414,-47.852,-13.184,0.000
5332.000,11.230,20.020,-51.758,-15.137,0.000
5336.000,-3.906,21.973,-54.688,-15.625,0.000
5340.000,-9.277,24.902,-53.223,-11.719,0.000
5343.000,-11.719,23.926,-52.734,-6.836,0.000
5347.000,-7.812,25.879,-51.758,-7.812,0.000
5351.000,2.930,27.832,-57.129,-12.695,0.000
5355.000,9.766,34.180,-58.105,-11.230,0.000
5359.000,-7.324,32.715,-53.223,-7.812,0.000
5363.000,0.977,29.785,-55.176,-9.766,0.000
5367.000,6.348,33.691,-58.105,-11.230,0.000
5371.000,-2.441,28.809,-58.105,-15.625,0.000
5375.000,13.184,25.391,-61.035,-15.625,0.000
5379.000,20.020,25.879,-60.547,-11.230,0.000
5383.000,20.996,26.855,-58.105,-9.277,0.000
5386.000,24.902,29.297,-60.547,-13.184,0.000
5390.000,23.926,24.902,-59.082,-10.742,0.000
5394.000,11.230,24.414,-53.223,-1.953,0.000
5398.000,10.254,25.391,-50.293,0.000,0.000
5402.000,10.742,25.879,-50.781,1.465,0.000
5406.000,7.324,21.484,-47.852,-2.441,0.000
5410.000,2.930,15.137,-51.758,-4.395,0.000
5414.000,8.301,19.043,-56.641,-7.812,0.000
5418.000,19.043,15.137,-52.734,-15.137,0.000
5422.000,21.973,10.254,-49.805,-6.836,0.000
5426.000,20.508,11.719,-45.898,2.441,0.000
5429.000,-3.906,8.789,-40.527,2.441,0.000
5433.000,-8.789,6.836,-38.086,-0.488,0.000
5437.000,-2.441,5.371,-41.504,0.488,0.000
5441.000,-3.906,4.395,-43.457,7.324,0.000
5445.000,-2.441,8.789,-44.434,4.883,0.000
5449.000,-7.812,3.906,-51.270,-6.348,0.000
5453.000,-1.465,3.418,-52.246,-9.766,0.000
5457.000,0.488,5.371,-46.387,-15.625,0.000
5461.000,0.488,-0.488,-38.574,-17.090,0.000
5465.000,-4.395,-1.953,-39.551,-13.672,0.000
5468.000,-35.645,-1.465,-40.527,-20.020,0.000
5472.000,-47.852,-8.301,-36.133,-23.438,0.000
5476.000,-25.391,-7.812,-36.621,-13.184,0.000
5480.000,-11.230,-0.488,-39.062,-3.418,0.000
5484.000,-17.578,-0.977,-36.621,-6.836,0.000
5488.000,-8.789,-6.348,-35.645,-10.742,0.000
5492.000,10.254,-6.348,-35.645,-10.742,0.000
5496.000,14.648,-4.883,-35.645,-17.090,0.000
5500.000,23.438,-2.930,-38.574,-18.066,0.000
5504.000,2.441,-3.906,-40.039,-16.113,0.000
5508.000,-22.461,-10.254,-39.551,-13.184,0.000
5511.000,-12.207,-7.324,-35.156,0.000,0.000
5515.000,-15.137,-4.395,-29.297,-5.859,0.000
5519.000,-31.250,-8.789,-30.762,-24.414,0.000
5523.000,-35.156,-12.207,-34.180,-18.555,0.000
5527.000,-21.484,-11.230,-34.180,-7.812,0.000
5531.000,-13.672,-15.137,-40.039,-19.531,0.000
5535.000,-22.461,-17.090,-40.527,-24.414,0.000
5539.000,-31.738,-18.066,-36.133,-22.949,0.000
5543.000,-41.016,-24.902,-35.645,-22.461,0.000
5547.000,-42.969,-23.438,-30.273,-10.254,0.000
5551.000,-39.551,-20.508,-29.297,-9.766,0.000
5554.000,-30.762,-18.555,-30.273,-8.301,0.000
5558.000,-21.973,-18.066,-30.762,-3.418,0.000
5562.000,-20.508,-21.973,-33.203,-16.113,0.000
5566.000,-25.879,-20.996,-32.227,-16.602,0.000
5570.000,-22.461,-19.531,-29.297,-10.254,0.000
5574.000,-18.555,-21.484,-27.344,-15.625,0.000
5578.000,-21.484,-23.926,-28.320,-23.438,0.000
5582.000,-30.273,-23.926,-27.832,-25.391,0.000
5586.000,-37.109,-22.461,-25.879,-20.996,0.000
5590.000,-29.785,-24.902,-24.414,-20.508,0.000
5593.000,-24.414,-24.902,-24.414,-16.602,0.000
5597.000,-20.020,-21.973,-26.367,-14.648,0.000
5601.000,-20.020,-19.043,-24.414,-12.695,0.000
5605.000,-24.902,-20.996,-23.926,-7.812,0.000
5609.000,-17.578,-23.926,-33.203,-14.648,0.000
5613.000,-6.836,-23.926,-32.227,-20.996,0.000
5617.000,-4.395,-24.902,-23.926,-22.949,0.000
5621.000,-12.207,-26.367,-25.879,-22.949,0.000
5625.000,-25.391,-26.367,-25.879,-20.996,0.000
5629.000,-36.133,-27.344,-24.414,-18.555,0.000
5633.000,-45.410,-26.367,-23.926,-20.508,0.000
5636.000,-45.410,-26.367,-22.461,-27.344,0.000
5640.000,-40.527,-24.902,-27.344,-30.273,0.000
5644.000,-33.691,-22.461,-31.250,-27.344,0.000
5648.000,-47.363,-26.367,-29.297,-30.273,0.000
5652.000,-61.035,-30.762,-28.320,-37.598,0.000
5656.000,-55.176,-34.668,-34.180,-37.109,0.000
5660.000,-46.387,-35.156,-36.621,-28.809,0.000
5664.000,-33.691,-34.180,-31.738,-28.320,0.000
5668.000,-30.273,-32.715,-27.344,-32.227,0.000
5672.000,-32.227,-26.855,-26.367,-24.902,0.000
5676.000,-38.574,-27.832,-26.855,-25.879,0.000
5679.000,-42.480,-32.715,-30.273,-23.926,0.000
5683.000,-41.992,-32.227,-34.668,-20.020,0.000
5687.000,-36.621,-33.203,-38.086,-25.879,0.000
5691.000,-28.809,-30.762,-38.574,-34.180,0.000
5695.000,-14.648,-28.320,-37.598,-40.039,0.000
5699.000,-12.207,-28.809,-36.133,-42.969,0.000
5703.000,-20.508,-25.879,-34.668,-40.527,0.000
5707.000,-18.555,-24.902,-34.668,-34.668,0.000
5711.000,-25.391,-28.809,-38.086,-30.273,0.000
5715.000,-30.762,-28.320,-35.645,-33.203,0.000
5718.000,-36.621,-24.902,-37.109,-31.738,0.000
5722.000,-33.691,-23.926,-41.504,-28.809,0.000
5726.000,-28.320,-31.738,-41.992,-32.227,0.000
5730.000,-29.297,-39.062,-41.992,-42.969,0.000
5734.000,-41.016,-35.645,-42.969,-50.781,0.000
5738.000,-22.461,-29.785,-42.969,-26.855,0.000
5742.000,11.719,-23.926,-27.832,8.789,0.000
5746.000,-30.762,-31.250,-15.137,-2.441,0.000
5750.000,-64.941,-35.645,-20.020,-24.902,0.000
5754.000,-59.082,-38.574,-14.648,-31.738,0.000
5758.000,-64.453,-48.340,-10.254,-44.922,0.000
5761.000,-71.289,-62.012,-10.742,-55.176,0.000
5765.000,-77.637,-62.500,-6.836,-57.129,0.000
5769.000,-79.102,-62.988,-4.395,-50.293,0.000
5773.000,-92.285,-79.590,-5.859,-54.199,0.000
5777.000,-93.750,-83.008,-2.930,-59.082,0.000
5781.000,-82.520,-84.473,5.859,-56.152,0.000
5785.000,-91.797,-86.914,8.789,-66.406,0.000
5789.000,-99.121,-89.355,7.324,-72.754,0.000
5793.000,-95.703,-97.168,9.277,-63.477,0.000
5797.000,-89.355,-99.609,12.207,-55.176,0.000
5800.000,-87.402,-96.191,17.090,-60.547,0.000
5804.000,-88.379,-97.168,18.555,-76.172,0.000
5808.000,-79.590,-104.004,9.766,-78.613,0.000
5812.000,-84.961,-102.539,7.812,-72.266,0.000
5816.000,-87.891,-102.539,9.277,-65.918,0.000
5820.000,-81.055,-103.516,7.324,-61.035,0.000
5824.000,-88.867,-100.098,8.301,-49.316,0.000
5828.000,-92.285,-102.539,5.371,-41.992,0.000
5832.000,-91.309,-103.516,7.324,-36.621,0.000
5836.000,-114.258,-104.004,6.836,-47.363,0.000
5840.000,-104.492,-97.168,3.906,-43.457,0.000
5843.000,-81.543,-93.262,2.441,-26.367,0.000
5847.000,-83.496,-96.191,-2.441,-35.645,0.000
5851.000,-86.426,-90.332,-8.789,-41.504,0.000
5855.000,-87.891,-91.797,-11.230,-40.527,0.000
5859.000,-74.707,-91.797,-9.766,-35.645,0.000
5863.000,-62.012,-81.055,-10.254,-22.949,0.000
5867.000,-65.430,-75.195,-8.789,-20.996,0.000
5871.000,-57.617,-76.172,-11.719,-20.996,0.000
5875.000,-52.246,-79.102,-20.020,-27.344,0.000
5879.000,-53.223,-74.707,-19.531,-30.762,0.000
5883.000,-45.898,-68.848,-17.090,-28.320,0.000
5886.000,-46.875,-66.406,-21.484,-30.273,0.000
5890.000,-54.688,-63.477,-21.484,-29.297,0.000
5894.000,-51.270,-62.988,-21.484,-29.785,0.000
5898.000,-42.969,-57.617,-23.438,-25.879,0.000
5902.000,-41.016,-50.781,-21.973,-27.832,0.000
5906.000,-26.855,-52.246,-20.508,-30.762,0.000
5910.000,-34.668,-53.223,-19.531,-24.902,0.000
5914.000,-49.316,-52.246,-18.066,-20.996,0.000
5918.000,-46.387,-52.246,-16.602,-23.438,0.000
5922.000,-46.387,-53.223,-17.578,-22.461,0.000
5925.000,-41.504,-54.199,-21.973,-16.113,0.000
5929.000,-30.762,-50.781,-20.508,-17.090,0.000
5933.000,-34.180,-49.316,-20.020,-17.578,0.000
5937.000,-52.734,-51.758,-22.949,-16.602,0.000
5941.000,-46.875,-47.363,-25.391,-16.602,0.000
5945.000,-33.203,-43.457,-26.855,-18.555,0.000
5949.000,-52.734,-45.410,-25.879,-20.508,0.000
5953.000,-51.758,-43.457,-25.391,-16.113,0.000
5957.000,-39.551,-40.527,-25.879,-18.555,0.000
5961.000,-40.527,-41.992,-28.320,-29.785,0.000
5965.000,-48.828,-40.039,-31.250,-31.738,0.000
5968.000,-45.410,-30.762,-29.785,-25.879,0.000
5972.000,-37.598,-29.297,-25.391,-22.949,0.000
5976.000,-31.250,-35.156,-26.855,-18.066,0.000
5980.000,-20.508,-34.668,-30.273,-20.020,0.000
5984.000,-25.391,-34.180,-31.738,-31.250,0.000
5988.000,-30.273,-37.598,-31.250,-27.832,0.000
5992.000,-17.578,-38.574,-26.367,-17.578,0.000
5996.000,-17.578,-37.109,-23.926,-20.508,0.000
6000.000,-32.715,-38.574,-25.879,-20.996,0.000
6004.000,-27.832,-36.621,-21.973,-20.996,0.000
6008.000,-29.785,-33.203,-24.902,-22.461,0.000
6011.000,-46.875,-37.109,-27.344,-20.020,0.000
6015.000,-48.828,-37.109,-23.926,-21.484,0.000
6019.000,-45.410,-33.691,-27.832,-25.391,0.000
6023.000,-47.852,-38.574,-29.297,-31.738,0.000
6027.000,-35.156,-39.551,-30.273,-34.668,0.000
6031.000,-32.715,-33.203,-28.320,-30.762,0.000
6035.000,-47.363,-31.250,-29.297,-32.715,0.000
6039.000,-44.434,-34.668,-34.668,-36.621,0.000
6043.000,-40.039,-33.203,-35.156,-34.668,0.000
6047.000,-48.340,-27.832,-32.227,-36.621,0.000
6050.000,-51.270,-28.809,-30.762,-42.480,0.000
6054.000,-43.457,-34.180,-30.273,-35.645,0.000
6058.000,-31.738,-33.691,-31.738,-28.320,0.000
6062.000,-34.668,-29.297,-29.785,-34.180,0.000
6066.000,-40.527,-22.949,-25.879,-41.992,0.000
6070.000,-33.203,-20.996,-25.879,-43.457,0.000
6074.000,-25.879,-22.461,-22.949,-43.945,0.000
6078.000,-29.785,-26.367,-20.996,-42.480,0.000
6082.000,-35.156,-30.273,-23.926,-47.852,0.000
6086.000,-40.527,-30.762,-24.902,-53.711,0.000
6090.000,-42.480,-31.738,-24.414,-42.969,0.000
6093.000,-34.180,-28.320,-23.438,-38.574,0.000
6097.000,-27.832,-24.902,-23.926,-44.434,0.000
6101.000,-39.062,-24.414,-21.484,-40.527,0.000
6105.000,-30.762,-25.879,-19.531,-34.180,0.000
6109.000,-11.719,-23.438,-20.020,-35.156,0.000
6113.000,-25.879,-26.367,-21.973,-37.109,0.000
6117.000,-52.734,-34.180,-28.320,-41.016,0.000
6121.000,-51.270,-31.738,-29.785,-38.086,0.000
6125.000,-45.898,-29.297,-27.832,-25.879,0.000
6129.000,-51.758,-28.320,-26.367,-27.344,0.000
6133.000,-42.969,-30.762,-28.809,-38.574,0.000
6136.000,-34.180,-24.902,-30.762,-41.016,0.000
6140.000,-29.785,-21.973,-32.227,-41.504,0.000
6144.000,-18.555,-25.879,-34.180,-36.133,0.000
6148.000,-38.086,-25.391,-37.598,-26.855,0.000
6152.000,-58.105,-21.973,-40.039,-23.438,0.000
6156.000,-56.152,-26.367,-38.086,-30.273,0.000
6160.000,-44.922,-29.297,-33.691,-29.297,0.000
6164.000,-35.645,-25.879,-30.762,-26.367,0.000
6168.000,-33.203,-25.391,-31.250,-26.855,0.000
6172.000,-20.996,-23.926,-32.715,-29.297,0.000
6175.000,-18.066,-22.461,-30.273,-31.250,0.000
6179.000,-33.203,-20.020,-27.344,-34.668,0.000
6183.000,-25.391,-21.484,-25.879,-28.809,0.000
6187.000,-0.488,-23.438,-23.926,-10.254,0.000
6191.000,-4.395,-22.461,-27.344,-21.484,0.000
6195.000,-27.344,-17.578,-29.297,-42.969,0.000
6199.000,-41.992,-14.160,-25.879,-32.715,0.000
6203.000,-50.293,-11.230,-30.273,-24.902,0.000
6207.000,-52.734,-9.277,-36.133,-25.391,0.000
6211.000,-44.434,-8.301,-36.621,-24.902,0.000
6215.000,-30.762,-3.418,-40.039,-21.973,0.000
6218.000,-18.555,-3.418,-42.969,-17.578,0.000
6222.000,-21.484,-3.418,-43.945,-25.879,0.000
6226.000,-26.855,2.441,-43.457,-37.109,0.000
6230.000,-23.926,6.348,-41.504,-26.855,0.000
6234.000,-28.320,4.883,-28.809,-27.344,0.000
6238.000,-20.020,8.789,-28.809,-39.551,0.000
6242.000,6.836,15.137,-50.293,-38.574,0.000
6246.000,15.625,17.090,-55.176,-38.086,0.000
6250.000,4.395,19.043,-52.734,-30.762,0.000
6254.000,0.488,21.973,-51.758,-26.367,0.000
6258.000,0.000,19.531,-52.246,-29.785,0.000
6261.000,-0.977,20.508,-53.711,-22.949,0.000
6265.000,6.348,28.320,-51.758,-22.461,0.000
6269.000,2.441,25.391,-55.664,-34.180,0.000
6273.000,0.488,21.484,-59.082,-27.832,0.000
6277.000,6.348,21.973,-59.570,-14.160,0.000
6281.000,9.766,23.926,-56.641,-20.508,0.000
6285.000,8.789,27.832,-53.711,-20.996,0.000
6289.000,8.789,26.367,-59.570,-9.277,0.000
6293.000,4.395,21.484,-62.988,-2.441,0.000
6297.000,7.324,18.555,-57.617,-11.230,0.000
6300.000,5.371,19.043,-61.523,-23.438,0.000
6304.000,-14.160,17.578,-67.383,-19.531,0.000
6308.000,-7.812,21.484,-61.035,-4.883,0.000
6312.000,9.277,23.926,-57.129,-11.230,0.000
6316.000,7.324,19.531,-62.500,-22.461,0.000
6320.000,-1.953,21.484,-58.105,-13.184,0.000
6324.000,0.488,17.578,-57.617,-10.742,0.000
6328.000,-12.695,11.230,-57.129,-17.090,0.000
6332.000,-20.996,13.184,-54.688,-16.602,0.000
6336.000,-23.438,7.812,-57.617,-22.949,0.000
6340.000,-7.324,6.836,-56.152,-21.484,0.000
6343.000,11.719,15.137,-57.129,-20.020,0.000
6347.000,4.395,7.812,-55.664,-26.367,0.000
6351.000,0.000,5.371,-52.734,-20.508,0.000
6355.000,-2.441,9.766,-53.223,-18.555,0.000
6359.000,-0.977,9.277,-50.293,-22.461,0.000
6363.000,11.230,10.742,-43.945,-17.578,0.000
6367.000,14.160,14.648,-47.363,-10.742,0.000
6371.000,5.371,13.184,-46.387,-10.742,0.000
6375.000,4.395,12.695,-46.387,-16.602,0.000
6379.000,-2.930,9.277,-51.270,-20.020,0.000
6383.000,-6.836,0.488,-51.758,-14.160,0.000
6386.000,1.465,2.930,-45.410,-10.254,0.000
6390.000,5.371,4.883,-40.527,-5.859,0.000
6394.000,9.277,4.395,-39.062,3.906,0.000
6398.000,-4.883,1.953,-38.086,0.977,0.000
6402.000,3.906,-1.465,-41.016,-6.348,0.000
6406.000,17.090,-1.465,-41.504,-11.719,0.000
6410.000,3.418,-0.977,-42.969,-8.301,0.000
6414.000,-18.555,-4.395,-36.621,-7.324,0.000
6418.000,-31.738,-9.766,-34.668,-17.578,0.000
6422.000,-30.273,-7.324,-35.645,-15.625,0.000
6425.000,-28.809,-3.418,-34.180,-5.371,0.000
6429.000,-42.969,-8.301,-38.086,-15.625,0.000
6433.000,-52.246,-16.113,-39.062,-29.297,0.000
6437.000,-34.180,-15.625,-41.992,-29.785,0.000
6441.000,-22.949,-15.137,-38.086,-27.344,0.000
6445.000,-22.461,-15.625,-37.109,-32.227,0.000
6449.000,-20.020,-11.230,-39.551,-28.809,0.000
6453.000,-23.438,-14.160,-34.180,-22.461,0.000
6457.000,-32.227,-20.020,-31.738,-20.996,0.000
6461.000,-36.621,-19.043,-36.621,-20.508,0.000
6465.000,-39.551,-20.020,-39.551,-24.414,0.000
6468.000,-28.320,-21.484,-40.039,-29.785,0.000
6472.000,-17.090,-21.973,-38.574,-27.832,0.000
6476.000,-23.926,-24.414,-39.062,-21.484,0.000
6480.000,-25.391,-21.484,-40.039,-19.043,0.000
6484.000,-10.254,-19.531,-37.109,-18.555,0.000
6488.000,-11.230,-24.902,-37.598,-21.973,0.000
6492.000,-15.625,-24.902,-36.621,-24.414,0.000
6496.000,-17.578,-18.555,-25.879,-24.902,0.000
6500.000,-33.691,-16.602,-26.367,-24.414,0.000
6504.000,-37.598,-22.461,-35.645,-32.715,0.000
6507.000,-33.691,-24.902,-35.645,-37.109,0.000
6511.000,-26.367,-21.484,-32.715,-25.391,0.000
6515.000,-24.414,-23.926,-34.180,-23.438,0.000
6519.000,-27.344,-24.414,-38.574,-27.344,0.000
6523.000,-30.273,-23.926,-35.156,-23.438,0.000
6527.000,-30.762,-26.367,-37.598,-29.785,0.000
6531.000,-33.691,-28.320,-41.016,-33.691,0.000
6535.000,-37.109,-30.273,-35.156,-30.762,0.000
6539.000,-29.785,-30.273,-32.227,-20.996,0.000
6543.000,-24.902,-28.320,-31.738,-16.113,0.000
6547.000,-27.832,-30.273,-36.133,-26.855,0.000
6550.000,-27.832,-31.738,-35.645,-30.273,0.000
6554.000,-26.855,-29.297,-32.715,-34.180,0.000
6558.000,-17.578,-32.715,-39.551,-31.250,0.000
6562.000,-4.395,-29.297,-37.598,-29.297,0.000
6566.000,-12.207,-25.391,-33.203,-24.902,0.000
6570.000,-34.668,-22.949,-32.227,-20.020,0.000
6574.000,-21.973,-20.508,-34.668,-29.785,0.000
6578.000,-20.996,-23.926,-41.992,-44.434,0.000
6582.000,-42.969,-25.391,-45.410,-36.621,0.000
6586.000,-13.672,-19.043,-40.039,-4.883,0.000
6590.000,-6.348,-22.949,-20.996,9.277,0.000
6593.000,-41.992,-30.762,-17.578,-6.348,0.000
6597.000,-40.039,-30.762,-25.879,-21.484,0.000
6601.000,-11.719,-33.691,-16.602,-13.672,0.000
6605.000,-13.672,-42.480,-14.160,-15.137,0.000
6609.000,-34.180,-52.246,-11.719,-28.320,0.000
6613.000,-52.734,-58.105,-5.859,-27.344,0.000
6617.000,-62.012,-62.012,-6.836,-25.391,0.000
6621.000,-55.664,-60.059,-5.371,-26.855,0.000
6625.000,-36.133,-58.105,0.977,-18.555,0.000
6629.000,-42.969,-68.359,0.977,-23.926,0.000
6632.000,-76.660,-74.707,-2.930,-43.457,0.000
6636.000,-72.754,-73.730,0.000,-29.785,0.000
6640.000,-67.383,-71.777,1.953,-27.344,0.000
6644.000,-68.359,-70.312,4.395,-41.016,0.000
6648.000,-57.129,-75.684,9.766,-39.551,0.000
6652.000,-61.523,-80.566,7.324,-48.828,0.000
6656.000,-70.801,-85.449,8.789,-51.758,0.000
6660.000,-76.660,-86.426,10.742,-48.340,0.000
6664.000,-87.402,-86.914,3.418,-53.711,0.000
6668.000,-97.168,-85.938,4.395,-40.039,0.000
6672.000,-106.934,-90.332,10.254,-39.062,0.000
6675.000,-103.516,-93.262,8.301,-56.152,0.000
6679.000,-91.797,-95.215,4.883,-46.875,0.000
6683.000,-112.793,-100.098,8.789,-52.734,0.000
6687.000,-117.676,-98.145,3.418,-57.129,0.000
6691.000,-108.887,-94.727,5.859,-38.086,0.000
6695.000,-118.164,-93.262,5.859,-41.016,0.000
6699.000,-114.258,-96.191,1.465,-51.270,0.000
6703.000,-96.191,-96.680,4.883,-52.734,0.000
6707.000,-83.008,-91.797,4.883,-54.688,0.000
6711.000,-78.613,-91.797,9.277,-49.805,0.000
6715.000,-77.148,-94.727,4.395,-54.199,0.000
6718.000,-72.754,-92.773,-1.465,-54.199,0.000
6722.000,-57.617,-87.891,0.000,-39.551,0.000
6726.000,-58.105,-84.961,-2.441,-30.762,0.000
6730.000,-76.172,-87.891,-11.719,-34.180,0.000
6734.000,-80.566,-83.984,-11.230,-37.109,0.000
6738.000,-64.941,-75.195,-3.906,-33.691,0.000
6742.000,-39.551,-72.754,-3.906,-35.645,0.000
6746.000,-44.434,-70.801,-7.812,-34.668,0.000
6750.000,-71.289,-72.266,-9.766,-28.809,0.000
6754.000,-62.012,-70.312,-9.277,-24.414,0.000
6757.000,-64.453,-65.918,-10.742,-26.367,0.000
6761.000,-71.777,-65.918,-14.648,-27.344,0.000
6765.000,-61.035,-64.941,-17.578,-27.344,0.000
6769.000,-58.594,-57.129,-16.113,-22.949,0.000
6773.000,-41.992,-52.246,-16.602,-21.973,0.000
6777.000,-43.945,-55.176,-20.020,-29.297,0.000
6781.000,-72.266,-50.781,-17.578,-27.832,0.000
6785.000,-94.238,-49.316,-17.090,-27.832,0.000
6789.000,-89.844,-48.340,-16.602,-26.855,0.000
6793.000,-62.012,-39.551,-19.043,-24.414,0.000
6797.000,-48.828,-40.039,-22.949,-29.785,0.000
6800.000,-54.688,-43.945,-22.949,-37.109,0.000
6804.000,-57.129,-42.480,-23.438,-38.086,0.000
6808.000,-54.688,-37.598,-22.461,-35.156,0.000
6812.000,-43.945,-36.621,-23.926,-37.109,0.000
6816.000,-42.480,-39.551,-25.879,-39.551,0.000
6820.000,-42.480,-38.574,-27.832,-42.969,0.000
6824.000,-40.527,-41.016,-34.180,-35.645,0.000
6828.000,-38.086,-43.945,-32.715,-25.391,0.000
6832.000,-30.762,-41.504,-26.855,-18.555,0.000
6836.000,-29.785,-39.551,-27.344,-18.066,0.000
6840.000,-34.180,-41.504,-33.203,-21.973,0.000
6843.000,-33.691,-41.016,-35.156,-23.926,0.000
6847.000,-31.738,-40.039,-34.180,-23.926,0.000
6851.000,-28.320,-39.551,-30.273,-31.250,0.000
6855.000,-26.367,-40.527,-25.879,-34.668,0.000
6859.000,-26.367,-40.527,-27.344,-34.668,0.000
6863.000,-46.875,-41.504,-26.367,-40.039,0.000
6867.000,-61.035,-47.363,-27.344,-42.480,0.000
6871.000,-60.059,-47.363,-32.715,-43.945,0.000
6875.000,-58.105,-42.969,-32.227,-40.527,0.000
6879.000,-41.504,-37.109,-30.762,-41.016,0.000
6882.000,-19.531,-29.297,-32.227,-48.340,0.000
6886.000,-41.504,-34.180,-29.785,-48.340,0.000
6890.000,-70.801,-39.062,-27.344,-41.992,0.000
6894.000,-72.754,-40.039,-28.320,-45.410,0.000
6898.000,-69.336,-37.598,-26.855,-42.480,0.000
6902.000,-60.059,-31.250,-26.855,-36.133,0.000
6906.000,-48.828,-37.598,-25.879,-35.645,0.000
6910.000,-41.016,-41.016,-29.297,-36.621,0.000
6914.000,-43.945,-36.621,-33.691,-40.527,0.000
6918.000,-40.527,-36.621,-33.691,-38.086,0.000
6922.000,-36.133,-34.180,-31.250,-31.250,0.000
6925.000,-44.434,-32.715,-31.250,-35.156,0.000
6929.000,-51.270,-32.227,-29.297,-36.621,0.000
6933.000,-50.293,-29.785,-29.297,-36.133,0.000
6937.000,-43.945,-35.156,-36.621,-38.086,0.000
6941.000,-35.645,-36.621,-33.691,-32.715,0.000
6945.000,-20.020,-32.227,-28.320,-29.785,0.000
6949.000,-25.391,-29.785,-29.297,-28.320,0.000
6953.000,-43.457,-31.250,-29.785,-37.109,0.000
6957.000,-36.133,-29.297,-32.227,-39.551,0.000
6961.000,-26.855,-22.949,-28.809,-29.297,0.000
6965.000,-26.367,-18.066,-28.320,-22.949,0.000
6968.000,-17.578,-16.602,-27.832,-13.672,0.000
6972.000,-1.465,-16.113,-23.926,-15.625,0.000
6976.000,-5.859,-14.648,-23.926,-12.695,0.000
6980.000,-18.555,-19.043,-27.832,-14.160,0.000
6984.000,-8.789,-21.973,-29.785,-23.438,0.000
6988.000,-18.066,-25.879,-27.832,-25.879,0.000
6992.000,-17.090,-21.484,-27.344,-25.391,0.000
6996.000,-13.184,-17.090,-27.344,-20.996,0.000
7000.000,-32.715,-21.484,-23.926,-20.020,0.000
7004.000,-31.250,-21.973,-22.461,-16.113,0.000
7007.000,-14.160,-27.344,-24.414,-5.371,0.000
7011.000,-0.488,-22.949,-24.414,7.324,0.000
7015.000,-16.113,-16.113,-24.414,-3.418,0.000
7019.000,-39.062,-19.043,-28.320,-21.973,0.000
7023.000,-42.480,-11.230,-28.809,-22.949,0.000
7027.000,-24.414,-4.883,-31.250,-16.602,0.000
7031.000,-20.996,-2.441,-34.180,-14.160,0.000
7035.000,-27.832,2.441,-34.180,-14.160,0.000
7039.000,-23.926,2.930,-36.621,-12.695,0.000
7043.000,-13.184,4.395,-36.621,-5.371,0.000
7047.000,-0.488,10.742,-38.574,-10.742,0.000
7050.000,5.859,14.648,-40.527,-22.949,0.000
7054.000,4.883,15.625,-40.527,-17.578,0.000
7058.000,1.465,18.066,-43.945,-11.230,0.000
7062.000,0.977,21.484,-50.293,-15.625,0.000
7066.000,7.812,27.832,-47.852,-13.184,0.000
7070.000,15.137,24.902,-49.316,-16.113,0.000
7074.000,29.297,21.484,-48.828,-21.973,0.000
7078.000,29.785,18.555,-48.828,-22.461,0.000
7082.000,7.812,19.043,-54.688,-17.090,0.000
7086.000,14.648,25.879,-58.594,-17.578,0.000
7090.000,35.645,29.297,-60.547,-26.367,0.000
7093.000,35.156,31.250,-57.129,-20.996,0.000
7097.000,34.668,30.762,-61.523,-17.578,0.000
7101.000,5.859,28.809,-62.988,-18.555,0.000
7105.000,-15.625,30.273,-60.059,-13.184,0.000
7109.000,-9.766,31.250,-61.523,-14.160,0.000
7113.000,-10.742,28.320,-58.594,-11.230,0.000
7117.000,-2.441,33.691,-58.105,-2.930,0.000
7121.000,-14.648,35.156,-60.547,-10.742,0.000
7125.000,-13.672,27.832,-59.082,-20.508,0.000
7129.000,6.348,28.809,-60.547,-12.695,0.000
7132.000,8.301,31.250,-60.547,-12.695,0.000
7136.000,20.508,29.785,-54.199,-15.625,0.000
7140.000,32.715,29.297,-54.199,-11.719,0.000
7144.000,27.832,27.832,-52.734,-3.906,0.000
7148.000,26.855,29.785,-54.199,4.395,0.000
7152.000,32.227,33.691,-58.105,2.441,0.000
7156.000,28.809,30.762,-58.105,-5.859,0.000
7160.000,26.855,22.461,-62.012,-5.859,0.000
7164.000,-2.441,18.555,-56.152,-3.906,0.000
7168.000,-24.902,19.043,-51.758,-4.395,0.000
7172.000,-6.348,20.020,-55.176,-1.465,0.000
7175.000,16.113,15.625,-51.758,0.977,0.000
7179.000,27.344,14.648,-48.828,1.465,0.000
7183.000,23.926,13.672,-53.711,-5.371,0.000
7187.000,22.461,11.230,-53.223,-11.719,0.000
7191.000,6.836,10.742,-54.199,-15.625,0.000
7195.000,3.418,8.301,-61.523,-20.996,0.000
7199.000,5.859,8.301,-59.082,-26.367,0.000
7203.000,-7.812,6.348,-57.129,-27.832,0.000
7207.000,-14.160,0.977,-61.035,-31.250,0.000
7211.000,-20.508,-2.930,-59.082,-36.621,0.000
7214.000,-16.602,0.000,-54.688,-26.367,0.000
7218.000,0.488,0.977,-58.105,-18.555,0.000
7222.000,10.254,-5.859,-51.758,-19.043,0.000
7226.000,-24.414,-8.301,-45.410,-25.879,0.000
7230.000,-47.852,-10.254,-48.340,-33.691,0.000
7234.000,-40.527,-11.719,-47.852,-24.902,0.000
7238.000,-31.738,-17.578,-49.805,-10.254,0.000
7242.000,-24.902,-20.996,-47.363,-30.273,0.000
7246.000,-28.320,-20.508,-42.969,-42.480,0.000
7250.000,-19.043,-17.090,-43.457,-22.949,0.000
7254.000,-7.812,-13.184,-41.504,-21.484,0.000
7257.000,-3.418,-13.672,-39.062,-16.113,0.000
7261.000,-7.812,-4.883,-38.086,-3.906,0.000
7265.000,-4.883,-1.953,-40.039,-6.836,0.000
7269.000,-12.695,-3.418,-41.992,-5.371,0.000
7273.000,-22.949,-5.371,-39.551,-18.555,0.000
7277.000,-22.461,-13.184,-37.598,-30.762,0.000
7281.000,-11.719,-17.090,-35.156,-24.414,0.000
7285.000,-8.789,-15.625,-32.227,-22.949,0.000
7289.000,-10.254,-11.719,-27.832,-31.250,0.000
7293.000,-6.348,-11.230,-24.902,-26.855,0.000
7297.000,-1.953,-4.883,-25.391,-19.531,0.000
7300.000,-9.766,-3.418,-22.949,-26.855,0.000
7304.000,-15.625,-9.766,-24.414,-26.855,0.000
7308.000,-16.113,-18.555,-27.344,-25.879,0.000
7312.000,-17.090,-18.066,-24.902,-20.508,0.000
7316.000,-8.789,-13.672,-26.855,-20.996,0.000
7320.000,0.488,-19.043,-30.273,-30.273,0.000
7324.000,-3.418,-22.949,-29.785,-25.879,0.000
7328.000,-13.672,-20.508,-28.320,-16.113,0.000
7332.000,-12.207,-20.508,-26.855,-20.020,0.000
7336.000,-9.766,-20.508,-25.879,-18.555,0.000
7339.000,-18.555,-18.066,-24.414,-12.207,0.000
7343.000,-32.715,-17.578,-27.344,-22.461,0.000
7347.000,-32.227,-18.066,-25.879,-24.902,0.000
7351.000,-37.598,-19.043,-25.879,-21.973,0.000
7355.000,-39.551,-24.414,-31.738,-22.949,0.000
7359.000,-32.715,-21.484,-31.738,-20.508,0.000
7363.000,-50.293,-20.020,-27.344,-30.273,0.000
7367.000,-47.363,-23.438,-29.297,-28.809,0.000
7371.000,-32.715,-27.832,-34.668,-25.391,0.000
7375.000,-39.551,-32.715,-37.598,-35.645,0.000
7379.000,-42.480,-33.203,-38.086,-45.410,0.000
7382.000,-30.762,-31.250,-32.715,-43.457,0.000
7386.000,-30.273,-26.855,-35.156,-32.227,0.000
7390.000,-34.180,-28.320,-39.062,-24.902,0.000
7394.000,-33.203,-28.320,-39.551,-22.461,0.000
7398.000,-21.484,-28.320,-40.527,-29.785,0.000
7402.000,-22.461,-25.391,-40.527,-36.133,0.000
