timestamp,TP9,AF7,AF8,TP10,Right AUX
1673805550.100,-26.367,-22.949,-26.367,-22.949,0.000
1673805550.104,-38.086,-21.484,-20.508,-11.719,0.000
1673805550.108,-40.527,-18.066,-24.414,-18.066,0.000
1673805550.112,-30.273,-22.949,-30.762,-39.551,0.000
1673805550.116,-30.273,-26.367,-33.691,-51.758,0.000
1673805550.120,-32.715,-25.391,-33.203,-40.527,0.000
1673805550.123,-39.551,-27.344,-30.762,-27.344,0.000
1673805550.127,-43.457,-26.367,-28.320,-28.809,0.000
1673805550.131,-45.410,-22.461,-25.879,-36.621,0.000
1673805550.135,-43.457,-22.949,-28.320,-29.297,0.000
1673805550.139,-39.551,-26.367,-26.367,-21.973,0.000
1673805550.143,-35.645,-33.203,-24.902,-33.203,0.000
1673805550.147,-29.297,-30.273,-25.879,-38.086,0.000
1673805550.151,-15.625,-24.902,-24.414,-43.945,0.000
1673805550.155,-5.859,-27.344,-27.832,-41.504,0.000
1673805550.159,-4.395,-30.273,-31.738,-47.363,0.000
1673805550.163,-23.926,-28.809,-30.273,-42.480,0.000
1673805550.166,-46.875,-31.738,-30.762,-33.691,0.000
1673805550.170,-37.598,-35.156,-34.668,-34.668,0.000
1673805550.174,-48.340,-30.273,-34.180,-24.902,0.000
1673805550.178,-57.129,-25.391,-32.715,-17.090,0.000
1673805550.182,-37.598,-27.344,-29.297,-16.113,0.000
1673805550.186,-35.645,-29.785,-27.344,-8.789,0.000
1673805550.190,-40.039,-34.668,-29.297,7.812,0.000
1673805550.194,-33.691,-38.574,-30.273,-2.930,0.000
1673805550.198,-37.598,-34.180,-28.320,-20.508,0.000
1673805550.202,-29.297,-31.250,-33.203,-28.809,0.000
1673805550.206,-22.461,-28.320,-30.762,-23.438,0.000
1673805550.209,-23.926,-28.809,-25.879,-9.277,0.000
1673805550.213,-22.949,-31.250,-29.785,-8.301,0.000
1673805550.217,-31.250,-29.785,-32.715,-21.973,0.000
1673805550.221,-33.203,-28.320,-33.691,-36.133,0.000
1673805550.225,-25.879,-31.250,-34.180,-31.738,0.000
1673805550.229,-11.719,-31.250,-31.738,-30.762,0.000
1673805550.233,4.883,-24.414,-29.785,-36.133,0.000
1673805550.237,-4.395,-26.367,-35.645,-29.785,0.000
1673805550.241,-24.902,-28.809,-34.180,-16.602,0.000
1673805550.245,-29.297,-31.250,-34.668,-29.297,0.000
1673805550.248,-22.949,-33.203,-38.086,-35.156,0.000
1673805550.252,-10.254,-31.250,-32.715,-23.438,0.000
1673805550.256,-19.531,-27.832,-30.273,-20.508,0.000
1673805550.260,-37.109,-26.367,-36.133,-23.438,0.000
1673805550.264,-31.250,-24.414,-34.180,-21.484,0.000
1673805550.268,-16.602,-18.066,-29.297,-11.719,0.000
1673805550.272,-4.883,-17.578,-29.297,-13.184,0.000
1673805550.276,-13.672,-17.090,-24.902,-20.996,0.000
1673805550.280,-29.785,-17.090,-20.996,-16.602,0.000
1673805550.284,-44.922,-18.066,-20.996,-5.371,0.000
1673805550.288,-50.293,-19.043,-23.926,13.184,0.000
1673805550.291,-43.945,-26.367,-24.414,16.602,0.000
1673805550.295,-34.668,-35.156,-23.926,-4.883,0.000
1673805550.299,-23.438,-33.203,-25.391,-23.438,0.000
1673805550.303,-20.996,-26.855,-25.879,-21.484,0.000
1673805550.307,-15.137,-21.484,-23.438,-23.926,0.000
1673805550.311,-15.137,-25.391,-26.855,-25.391,0.000
1673805550.315,-25.391,-31.738,-34.668,-22.949,0.000
1673805550.319,-21.973,-32.715,-34.668,-23.438,0.000
1673805550.323,-15.625,-30.273,-31.738,-19.531,0.000
1673805550.327,-12.207,-24.414,-29.297,-8.789,0.000
1673805550.331,-33.203,-20.020,-22.949,0.000,0.000
1673805550.334,-35.156,-18.066,-20.020,0.488,0.000
1673805550.338,-20.020,-25.391,-25.391,-12.207,0.000
1673805550.342,-10.742,-29.297,-27.832,-17.090,0.000
1673805550.346,-0.488,-16.602,-26.855,-23.438,0.000
1673805550.350,7.812,-12.695,-27.344,-26.855,0.000
1673805550.354,-4.395,-18.066,-24.414,-14.160,0.000
1673805550.358,-29.297,-20.996,-24.902,-11.230,0.000
1673805550.362,-21.484,-18.066,-26.367,-10.254,0.000
1673805550.366,-24.902,-20.020,-30.273,-8.789,0.000
1673805550.370,-45.410,-22.949,-32.715,-3.418,0.000
1673805550.373,-43.457,-21.973,-26.367,0.000,0.000
1673805550.377,-39.551,-29.785,-24.902,-1.953,0.000
1673805550.381,-35.156,-26.855,-29.297,-4.883,0.000
1673805550.385,-37.109,-28.320,-40.039,-18.555,0.000
1673805550.389,-43.457,-30.273,-40.039,-21.973,0.000
1673805550.393,-27.832,-25.879,-35.645,-24.414,0.000
1673805550.397,-16.113,-28.320,-40.039,-37.109,0.000
1673805550.401,-16.602,-21.484,-41.504,-43.457,0.000
1673805550.405,-20.996,-14.160,-38.086,-32.227,0.000
1673805550.409,-26.367,-18.066,-35.645,-24.414,0.000
1673805550.413,-16.602,-25.391,-34.180,-35.156,0.000
1673805550.416,-3.418,-22.461,-32.715,-41.504,0.000
1673805550.420,-3.906,-22.461,-36.133,-31.250,0.000
1673805550.424,-23.438,-30.762,-38.086,-25.879,0.000
1673805550.428,-35.645,-34.668,-36.621,-31.250,0.000
1673805550.432,-31.738,-34.180,-34.180,-22.949,0.000
1673805550.436,-23.926,-31.738,-28.809,-25.391,0.000
1673805550.440,-7.812,-31.250,-31.250,-42.480,0.000
1673805550.444,-11.230,-32.227,-36.133,-42.969,0.000
1673805550.448,-38.086,-32.227,-34.668,-37.109,0.000
1673805550.452,-50.781,-26.367,-32.227,-26.367,0.000
1673805550.456,-43.457,-23.926,-27.344,-11.719,0.000
1673805550.459,-34.180,-26.855,-29.297,-20.020,0.000
1673805550.463,-35.156,-25.879,-28.320,-25.391,0.000
1673805550.467,-24.902,-24.414,-23.438,-25.879,0.000
1673805550.471,-19.043,-24.414,-21.973,-23.926,0.000
1673805550.475,-3.418,-25.391,-20.996,-18.066,0.000
1673805550.479,-7.324,-28.809,-21.973,-14.648,0.000
1673805550.483,-33.203,-26.855,-24.414,-15.625,0.000
1673805550.487,-37.109,-28.809,-22.461,-16.113,0.000
1673805550.491,-36.621,-31.738,-18.066,-5.371,0.000
1673805550.495,-35.645,-26.855,-24.902,-4.395,0.000
1673805550.498,-27.344,-23.926,-27.832,-14.648,0.000
1673805550.502,-23.926,-26.367,-24.902,-16.602,0.000
1673805550.506,-24.414,-27.344,-24.414,-18.066,0.000
1673805550.510,-31.250,-31.250,-27.832,-15.137,0.000
1673805550.514,-27.832,-30.762,-33.203,-12.207,0.000
1673805550.518,-28.809,-23.438,-28.320,-18.066,0.000
1673805550.522,-29.297,-21.973,-30.273,-22.949,0.000
1673805550.526,-23.926,-25.391,-32.227,-23.438,0.000
1673805550.530,-7.812,-29.297,-27.832,-42.969,0.000
1673805550.534,13.672,-28.320,-31.250,-53.223,0.000
1673805550.538,-5.859,-33.203,-31.250,-42.480,0.000
1673805550.541,-36.133,-40.527,-32.227,-42.969,0.000
1673805550.545,-32.715,-36.133,-31.738,-27.832,0.000
1673805550.549,-26.367,-35.645,-30.273,-30.762,0.000
1673805550.553,-16.113,-38.574,-35.156,-45.898,0.000
1673805550.557,-12.207,-33.691,-36.133,-44.922,0.000
1673805550.561,-33.691,-33.203,-37.109,-50.293,0.000
1673805550.565,-31.738,-34.180,-39.062,-48.828,0.000
1673805550.569,-33.691,-33.691,-37.598,-33.203,0.000
1673805550.573,-53.711,-34.180,-36.133,-22.949,0.000
1673805550.577,-52.734,-37.109,-34.180,-25.879,0.000
1673805550.580,-44.434,-39.551,-29.297,-27.832,0.000
1673805550.584,-39.551,-33.203,-30.273,-34.668,0.000
1673805550.588,-43.457,-28.809,-35.156,-28.809,0.000
1673805550.592,-42.969,-29.785,-33.203,-14.648,0.000
1673805550.596,-34.668,-30.762,-29.785,-20.508,0.000
1673805550.600,-46.875,-27.344,-29.785,-25.879,0.000
1673805550.604,-51.758,-32.227,-31.250,-8.301,0.000
1673805550.608,-43.945,-43.457,-30.762,-11.230,0.000
1673805550.612,-58.594,-43.457,-26.367,-23.438,0.000
1673805550.616,-59.082,-33.691,-23.926,-15.137,0.000
1673805550.620,-49.805,-28.809,-23.926,-20.508,0.000
1673805550.623,-49.316,-28.320,-31.250,-36.621,0.000
1673805550.627,-42.969,-25.391,-29.297,-42.480,0.000
1673805550.631,-34.180,-24.902,-29.297,-43.945,0.000
1673805550.635,-37.598,-24.414,-35.156,-55.176,0.000
1673805550.639,-30.273,-27.344,-35.645,-59.082,0.000
1673805550.643,-23.438,-29.785,-35.156,-43.457,0.000
1673805550.647,-35.156,-25.391,-34.668,-31.250,0.000
1673805550.651,-30.762,-27.344,-33.203,-28.320,0.000
1673805550.655,-15.625,-28.809,-27.832,-30.762,0.000
1673805550.659,-10.742,-27.344,-21.973,-32.715,0.000
1673805550.663,-33.691,-27.832,-24.414,-35.156,0.000
1673805550.666,-47.363,-30.273,-29.297,-29.785,0.000
1673805550.670,-20.996,-26.367,-26.367,-15.137,0.000
1673805550.674,-2.930,-14.648,-31.738,-19.043,0.000
1673805550.678,-11.230,-14.648,-34.668,-26.367,0.000
1673805550.682,-26.367,-20.996,-22.949,-17.090,0.000
1673805550.686,-22.949,-21.484,-17.090,-3.418,0.000
1673805550.690,-22.949,-19.043,-17.090,11.230,0.000
1673805550.694,-36.621,-14.160,-9.766,15.625,0.000
1673805550.698,-37.109,-19.043,-10.742,0.488,0.000
1673805550.702,-37.598,-23.926,-17.578,-6.348,0.000
1673805550.705,-31.738,-25.879,-18.066,0.977,0.000
1673805550.709,-26.855,-26.367,-21.973,-0.488,0.000
1673805550.713,-21.973,-16.602,-21.484,-6.836,0.000
1673805550.717,-21.973,-12.695,-18.555,-8.789,0.000
1673805550.721,-24.902,-16.602,-20.996,-7.812,0.000
1673805550.725,-21.973,-17.578,-24.414,-2.441,0.000
1673805550.729,-28.320,-18.555,-26.855,-0.488,0.000
1673805550.733,-36.133,-22.461,-26.367,-17.578,0.000
1673805550.737,-19.531,-20.508,-25.391,-20.020,0.000
1673805550.741,-10.254,-11.719,-27.832,-18.066,0.000
1673805550.745,-8.789,-12.207,-29.785,-28.809,0.000
1673805550.748,-9.766,-21.973,-34.180,-22.461,0.000
1673805550.752,-10.254,-24.414,-34.180,-10.742,0.000
1673805550.756,-10.254,-20.996,-30.273,-12.695,0.000
1673805550.760,-3.906,-20.996,-26.855,-21.484,0.000
1673805550.764,0.000,-16.113,-23.926,-32.715,0.000
1673805550.768,-11.719,-18.066,-20.996,-29.297,0.000
1673805550.772,-23.926,-25.879,-15.625,-8.789,0.000
1673805550.776,-20.996,-24.414,-18.555,-6.348,0.000
1673805550.780,-9.277,-16.602,-20.020,-8.789,0.000
1673805550.784,-14.160,-11.719,-17.578,-2.930,0.000
1673805550.788,-22.949,-14.648,-21.973,-3.906,0.000
1673805550.791,-24.902,-19.531,-22.461,-3.418,0.000
1673805550.795,-23.926,-21.484,-16.602,1.953,0.000
1673805550.799,-27.832,-17.090,-18.066,6.348,0.000
1673805550.803,-19.043,-19.531,-21.973,0.000,0.000
1673805550.807,-14.648,-19.531,-17.090,-1.953,0.000
1673805550.811,-17.578,-13.672,-16.602,-8.789,0.000
1673805550.815,-20.020,-16.113,-23.438,-8.301,0.000
1673805550.819,-20.020,-18.555,-32.715,-4.395,0.000
1673805550.823,-7.812,-14.648,-28.320,-7.812,0.000
1673805550.827,6.836,-10.254,-17.578,-4.883,0.000
1673805550.830,0.977,-10.742,-22.949,-12.695,0.000
1673805550.834,-4.883,-15.625,-27.344,-16.113,0.000
1673805550.838,-5.859,-22.461,-18.066,-0.977,0.000
1673805550.842,-19.043,-24.902,-12.695,-0.488,0.000
1673805550.846,-22.461,-25.391,-21.484,-15.625,0.000
1673805550.850,-21.484,-28.320,-20.996,-17.090,0.000
1673805550.854,-23.438,-23.926,-27.344,-5.859,0.000
1673805550.858,-42.480,-27.344,-32.227,-7.324,0.000
1673805550.862,-53.711,-30.762,-26.367,-15.137,0.000
1673805550.866,-41.992,-21.973,-31.250,-19.531,0.000
1673805550.870,-19.531,-17.090,-31.250,-7.812,0.000
1673805550.873,-12.695,-15.625,-27.832,-0.977,0.000
1673805550.877,-16.113,-18.066,-35.156,-21.484,0.000
1673805550.881,-23.926,-23.438,-36.621,-22.461,0.000
1673805550.885,-26.367,-22.949,-31.250,-20.508,0.000
1673805550.889,-22.949,-20.996,-30.762,-21.484,0.000
1673805550.893,-27.832,-29.297,-34.668,-23.926,0.000
1673805550.897,-27.344,-34.668,-35.156,-33.691,0.000
1673805550.901,-23.438,-32.715,-37.109,-30.273,0.000
1673805550.905,-21.484,-40.527,-39.551,-25.879,0.000
1673805550.909,-19.043,-42.969,-35.156,-24.902,0.000
1673805550.913,-7.812,-30.273,-29.297,-25.879,0.000
1673805550.916,-4.883,-24.902,-32.227,-25.879,0.000
1673805550.920,-21.973,-32.227,-41.016,-36.133,0.000
1673805550.924,-33.691,-34.668,-41.504,-40.527,0.000
1673805550.928,-16.602,-20.508,-37.109,-36.133,0.000
1673805550.932,-16.113,-16.602,-33.203,-27.344,0.000
1673805550.936,-40.039,-26.855,-32.715,-22.949,0.000
1673805550.940,-37.109,-27.344,-28.320,-18.555,0.000
1673805550.944,-23.438,-22.461,-25.391,-7.324,0.000
1673805550.948,-20.996,-24.414,-26.855,0.000,0.000
1673805550.952,-19.043,-30.273,-26.855,5.859,0.000
1673805550.955,-31.250,-34.180,-24.414,2.441,0.000
1673805550.959,-37.598,-32.227,-25.879,-4.395,0.000
1673805550.963,-23.926,-24.414,-30.273,-20.020,0.000
1673805550.967,-9.277,-16.113,-28.809,-28.809,0.000
1673805550.971,-2.930,-17.090,-28.320,-24.414,0.000
1673805550.975,-4.395,-19.043,-27.344,-23.926,0.000
1673805550.979,0.977,-15.137,-24.414,-19.531,0.000
1673805550.983,13.672,-16.602,-28.320,-16.602,0.000
1673805550.987,20.020,-18.066,-28.809,-19.531,0.000
1673805550.991,-28.320,-19.531,-24.902,-13.184,0.000
1673805550.995,-47.363,-19.043,-23.926,-3.906,0.000
1673805550.998,-27.832,-22.461,-23.926,-6.836,0.000
1673805551.002,-46.875,-26.855,-22.949,-11.230,0.000
1673805551.006,-39.551,-20.020,-22.949,-9.277,0.000
1673805551.010,-25.879,-20.020,-26.855,-10.742,0.000
1673805551.014,-13.672,-22.461,-29.297,-22.461,0.000
1673805551.018,4.395,-12.695,-27.344,-21.973,0.000
1673805551.022,-3.906,-17.090,-24.902,-11.230,0.000
1673805551.026,-21.484,-24.414,-24.902,-9.277,0.000
1673805551.030,-37.598,-19.043,-24.414,-8.301,0.000
1673805551.034,-52.734,-26.367,-26.855,-16.113,0.000
1673805551.038,-47.852,-27.832,-28.809,-17.090,0.000
1673805551.041,-29.785,-20.508,-25.391,-16.602,0.000
1673805551.045,-14.160,-24.902,-27.832,-32.715,0.000
1673805551.049,-24.902,-32.715,-32.715,-27.832,0.000
1673805551.053,-32.715,-28.809,-30.762,-16.602,0.000
1673805551.057,-22.949,-29.297,-31.738,-22.949,0.000
1673805551.061,-30.273,-33.203,-38.086,-31.738,0.000
1673805551.065,-14.648,-28.809,-35.156,-46.387,0.000
1673805551.069,-17.578,-32.715,-33.691,-51.270,0.000
1673805551.073,-47.852,-33.203,-37.598,-45.898,0.000
1673805551.077,-37.598,-35.156,-36.133,-43.457,0.000
1673805551.080,-15.137,-34.180,-29.297,-36.133,0.000
1673805551.084,-24.414,-30.762,-28.320,-22.461,0.000
1673805551.088,-56.641,-34.180,-31.738,-13.184,0.000
1673805551.092,-63.477,-35.156,-36.133,-16.602,0.000
1673805551.096,-55.176,-31.250,-34.180,-15.625,0.000
1673805551.100,-44.922,-29.297,-31.250,-9.766,0.000
1673805551.104,-34.180,-27.344,-33.203,-16.113,0.000
1673805551.108,-28.320,-24.902,-33.691,-26.855,0.000
1673805551.112,-10.742,-26.367,-29.785,-29.297,0.000
1673805551.116,-11.230,-30.762,-29.297,-28.809,0.000
1673805551.120,-36.621,-32.227,-33.691,-26.855,0.000
1673805551.123,-43.945,-26.855,-31.738,-25.391,0.000
1673805551.127,-42.480,-22.949,-26.855,-23.438,0.000
1673805551.131,-25.391,-25.391,-28.320,-20.996,0.000
1673805551.135,-23.438,-22.949,-26.855,-19.531,0.000
1673805551.139,-49.805,-21.973,-23.438,-21.484,0.000
1673805551.143,-48.340,-20.508,-21.973,-21.484,0.000
1673805551.147,-35.645,-20.508,-25.879,-20.996,0.000
1673805551.151,-25.879,-18.066,-26.855,-16.113,0.000
1673805551.155,-20.508,-17.090,-27.344,-14.648,0.000
1673805551.159,-12.207,-23.438,-31.738,-26.367,0.000
1673805551.163,-5.859,-21.973,-25.391,-39.551,0.000
1673805551.166,-8.789,-26.367,-22.949,-41.016,0.000
1673805551.170,-12.207,-29.297,-22.461,-39.062,0.000
1673805551.174,-38.086,-26.855,-18.555,-28.320,0.000
1673805551.178,-33.203,-23.926,-20.508,-25.879,0.000
1673805551.182,-17.578,-24.902,-18.555,-31.738,0.000
1673805551.186,-40.039,-28.809,-17.578,-29.297,0.000
1673805551.190,-63.477,-27.832,-22.949,-16.113,0.000
1673805551.194,-55.176,-26.367,-21.484,-14.160,0.000
1673805551.198,-38.574,-29.785,-20.508,-26.367,0.000
1673805551.202,-37.598,-31.738,-26.855,-20.996,0.000
1673805551.205,-55.176,-37.598,-33.691,-21.973,0.000
1673805551.209,-63.477,-43.945,-39.551,-37.109,0.000
1673805551.213,-47.363,-40.527,-32.227,-31.250,0.000
1673805551.217,-38.086,-34.668,-29.297,-31.738,0.000
1673805551.221,-40.527,-36.621,-38.086,-41.992,0.000
1673805551.225,-38.086,-35.156,-36.133,-37.109,0.000
1673805551.229,-29.785,-30.762,-32.227,-25.879,0.000
1673805551.233,-35.156,-30.273,-35.156,-27.832,0.000
1673805551.237,-38.086,-26.855,-42.480,-32.227,0.000
1673805551.241,-34.180,-27.832,-45.410,-37.109,0.000
1673805551.245,-16.113,-26.855,-40.527,-37.109,0.000
1673805551.248,-1.465,-23.438,-39.062,-42.969,0.000
1673805551.252,-14.160,-30.762,-39.062,-56.152,0.000
1673805551.256,-34.180,-34.180,-42.969,-52.734,0.000
1673805551.260,-49.316,-30.273,-41.992,-34.668,0.000
1673805551.264,-45.410,-31.738,-35.156,-27.344,0.000
1673805551.268,-31.250,-39.551,-35.156,-33.691,0.000
1673805551.272,-20.996,-39.062,-39.551,-26.367,0.000
1673805551.276,-19.043,-31.250,-39.551,-29.297,0.000
1673805551.280,-21.973,-26.367,-40.039,-30.762,0.000
1673805551.284,-16.113,-20.020,-41.504,-12.695,0.000
1673805551.288,-15.625,-22.949,-37.598,0.977,0.000
1673805551.291,-25.391,-29.785,-30.762,5.859,0.000
1673805551.295,-34.180,-23.926,-31.250,-0.977,0.000
1673805551.299,-26.367,-23.926,-34.180,-22.461,0.000
1673805551.303,-2.441,-25.879,-30.762,-27.832,0.000
1673805551.307,12.207,-19.043,-25.391,-16.602,0.000
1673805551.311,0.000,-20.020,-24.414,-8.301,0.000
1673805551.315,-12.207,-25.391,-27.344,-7.812,0.000
1673805551.319,-24.902,-27.832,-24.414,6.836,0.000
1673805551.323,-27.344,-26.367,-21.484,17.090,0.000
1673805551.327,-19.043,-25.391,-25.391,-7.324,0.000
1673805551.330,-9.766,-25.391,-27.344,-19.043,0.000
1673805551.334,-3.906,-29.785,-28.809,-27.832,0.000
1673805551.338,-4.395,-35.156,-30.273,-41.504,0.000
1673805551.342,-7.812,-33.691,-28.320,-35.645,0.000
1673805551.346,-12.695,-28.809,-24.414,-28.320,0.000
1673805551.350,-34.668,-32.227,-28.809,-22.461,0.000
1673805551.354,-42.969,-32.715,-30.273,-17.578,0.000
1673805551.358,-21.484,-29.785,-29.785,-21.484,0.000
1673805551.362,-17.578,-27.344,-27.832,-23.926,0.000
1673805551.366,-28.320,-24.414,-21.484,-19.531,0.000
1673805551.370,-14.160,-32.227,-26.855,-17.578,0.000
1673805551.373,-2.930,-32.715,-31.250,-15.625,0.000
1673805551.377,-9.766,-28.809,-29.297,-25.879,0.000
1673805551.381,-30.273,-33.691,-27.344,-29.785,0.000
1673805551.385,-51.758,-38.086,-26.855,-22.949,0.000
1673805551.389,-42.480,-36.621,-27.344,-29.785,0.000
1673805551.393,-48.828,-31.738,-31.250,-30.762,0.000
1673805551.397,-59.570,-28.320,-34.180,-22.461,0.000
1673805551.401,-50.293,-31.250,-32.227,-24.902,0.000
1673805551.405,-41.016,-37.598,-35.156,-25.879,0.000
1673805551.409,-28.809,-34.180,-36.621,-31.250,0.000
1673805551.412,-21.973,-28.809,-35.156,-32.227,0.000
1673805551.416,-20.508,-29.785,-34.180,-26.855,0.000
1673805551.420,-20.020,-35.645,-31.250,-26.855,0.000
1673805551.424,-18.066,-30.273,-29.297,-24.414,0.000
1673805551.428,-9.766,-25.391,-23.438,-20.996,0.000
1673805551.432,-12.695,-30.762,-25.391,-20.020,0.000
1673805551.436,-18.066,-26.367,-29.297,-25.879,0.000
1673805551.440,-13.672,-21.484,-27.832,-18.066,0.000
1673805551.444,4.883,-17.090,-28.809,-9.766,0.000
1673805551.448,-5.859,-18.555,-32.715,-17.090,0.000
1673805551.452,-40.039,-20.996,-30.762,-16.113,0.000
1673805551.455,-34.668,-14.160,-25.391,-5.371,0.000
1673805551.459,-27.832,-16.113,-27.344,-8.301,0.000
1673805551.463,-26.367,-21.973,-26.855,-15.625,0.000
1673805551.467,-23.926,-17.578,-20.508,-8.301,0.000
1673805551.471,-33.691,-20.020,-19.043,-1.465,0.000
1673805551.475,-30.762,-25.879,-21.484,-2.930,0.000
1673805551.479,-14.160,-22.461,-21.484,-14.648,0.000
1673805551.483,-25.391,-19.531,-20.508,-24.414,0.000
1673805551.487,-38.086,-19.531,-23.438,-24.414,0.000
1673805551.491,-33.691,-24.414,-22.949,-17.090,0.000
1673805551.495,-34.180,-25.879,-23.926,-10.742,0.000
1673805551.498,-27.344,-24.414,-25.391,-2.930,0.000
1673805551.502,-16.113,-23.438,-19.531,7.324,0.000
1673805551.506,-8.789,-17.090,-14.648,12.695,0.000
1673805551.510,-7.812,-23.926,-13.184,12.207,0.000
1673805551.514,-17.578,-31.250,-13.184,-0.488,0.000
1673805551.518,-31.250,-27.344,-16.113,-8.789,0.000
1673805551.522,-26.367,-21.484,-21.484,-4.395,0.000
1673805551.526,-22.949,-23.438,-24.902,-6.836,0.000
1673805551.530,-12.207,-22.461,-25.391,-14.648,0.000
1673805551.534,0.977,-19.043,-23.926,-28.320,0.000
1673805551.537,0.000,-25.391,-23.926,-40.527,0.000
1673805551.541,-6.348,-28.320,-25.879,-36.621,0.000
1673805551.545,-12.695,-19.531,-22.461,-20.996,0.000
1673805551.549,-17.578,-20.508,-26.367,-18.066,0.000
1673805551.553,-22.461,-27.344,-29.785,-24.902,0.000
1673805551.557,-36.133,-23.926,-27.832,-23.926,0.000
1673805551.561,-28.809,-23.926,-30.273,-26.855,0.000
1673805551.565,-30.273,-23.926,-29.785,-33.203,0.000
1673805551.569,-53.711,-21.973,-28.809,-38.086,0.000
1673805551.573,-59.570,-24.414,-25.391,-36.621,0.000
1673805551.577,-53.711,-25.879,-27.344,-29.297,0.000
1673805551.580,-50.293,-25.391,-32.227,-22.461,0.000
1673805551.584,-40.039,-25.879,-34.180,-22.949,0.000
1673805551.588,-48.340,-21.484,-36.133,-30.273,0.000
1673805551.592,-62.012,-18.066,-33.203,-27.344,0.000
1673805551.596,-45.898,-22.949,-37.598,-21.973,0.000
1673805551.600,-38.086,-30.762,-38.086,-22.949,0.000
1673805551.604,-40.039,-30.273,-30.762,-23.926,0.000
1673805551.608,-36.133,-27.832,-29.297,-20.996,0.000
1673805551.612,-26.367,-29.785,-32.715,-11.719,0.000
1673805551.616,-14.648,-30.273,-30.762,-12.695,0.000
1673805551.620,-3.906,-21.973,-29.297,-12.695,0.000
1673805551.623,-16.113,-22.461,-33.691,-9.277,0.000
1673805551.627,-23.438,-30.762,-29.785,-8.789,0.000
1673805551.631,-25.879,-30.762,-28.320,-20.020,0.000
1673805551.635,-17.090,-22.461,-27.832,-20.508,0.000
1673805551.639,1.465,-26.855,-29.297,-23.926,0.000
1673805551.643,-0.977,-31.738,-31.738,-40.527,0.000
1673805551.647,-20.996,-26.855,-29.297,-29.785,0.000
1673805551.651,-27.832,-29.297,-28.320,-10.742,0.000
1673805551.655,-0.977,-27.344,-29.785,0.488,0.000
1673805551.659,-29.297,-26.855,-27.344,1.953,0.000
1673805551.662,-60.059,-28.320,-24.902,-3.418,0.000
1673805551.666,-39.551,-25.879,-27.344,-5.859,0.000
1673805551.670,-30.273,-28.320,-26.367,-5.859,0.000
1673805551.674,-28.809,-31.738,-20.996,-10.742,0.000
1673805551.678,-34.668,-27.344,-18.066,-20.996,0.000
1673805551.682,-36.621,-28.320,-24.902,-16.113,0.000
1673805551.686,-41.992,-33.691,-29.297,-8.301,0.000
1673805551.690,-40.527,-25.879,-27.344,-6.836,0.000
1673805551.694,-31.738,-25.879,-22.949,-5.371,0.000
1673805551.698,-26.367,-32.715,-25.391,-18.555,0.000
1673805551.702,-32.715,-27.832,-32.227,-20.996,0.000
1673805551.705,-25.879,-26.367,-26.855,-12.207,0.000
1673805551.709,-15.625,-29.297,-25.391,-24.902,0.000
1673805551.713,-19.043,-25.879,-24.902,-22.461,0.000
1673805551.717,-22.461,-29.785,-22.461,-12.207,0.000
1673805551.721,-20.020,-29.297,-26.367,-26.367,0.000
1673805551.725,-6.836,-25.391,-24.902,-35.156,0.000
1673805551.729,4.395,-22.461,-29.297,-30.273,0.000
1673805551.733,-2.441,-19.531,-30.762,-32.715,0.000
1673805551.737,-12.695,-28.809,-26.855,-28.320,0.000
1673805551.741,-30.273,-31.250,-30.273,-22.461,0.000
1673805551.745,-38.086,-21.484,-29.785,-24.414,0.000
1673805551.748,-24.902,-22.949,-34.180,-20.996,0.000
1673805551.752,-5.371,-27.344,-37.598,-18.555,0.000
1673805551.756,3.906,-25.879,-32.715,-20.020,0.000
1673805551.760,-22.949,-27.344,-28.320,-27.344,0.000
1673805551.764,-47.363,-30.762,-25.879,-25.879,0.000
1673805551.768,-41.992,-28.320,-28.320,-18.066,0.000
1673805551.772,-43.457,-24.902,-25.391,-7.324,0.000
1673805551.776,-47.852,-30.273,-27.344,-4.395,0.000
1673805551.780,-41.504,-32.227,-28.320,-5.859,0.000
1673805551.784,-23.926,-30.273,-24.414,-9.277,0.000
1673805551.787,-25.879,-31.738,-27.344,-14.160,0.000
1673805551.791,-31.738,-27.832,-31.738,-6.836,0.000
1673805551.795,-24.902,-24.414,-31.738,-9.277,0.000
1673805551.799,-22.949,-29.785,-31.250,-18.555,0.000
1673805551.803,-19.531,-29.785,-31.738,-14.160,0.000
1673805551.807,-9.277,-23.926,-26.367,-8.789,0.000
1673805551.811,-3.906,-23.438,-24.902,-16.113,0.000
1673805551.815,-12.695,-30.762,-29.297,-20.996,0.000
1673805551.819,-12.695,-28.320,-29.297,-16.113,0.000
1673805551.823,-3.906,-29.297,-27.832,-31.738,0.000
1673805551.827,-1.953,-32.715,-26.367,-41.992,0.000
1673805551.830,-17.578,-34.180,-25.391,-35.645,0.000
1673805551.834,-32.227,-27.832,-24.414,-25.391,0.000
1673805551.838,-43.945,-22.949,-25.391,-14.160,0.000
1673805551.842,-43.945,-27.344,-25.879,-6.348,0.000
1673805551.846,-24.414,-28.809,-26.855,-14.160,0.000
1673805551.850,-22.949,-33.203,-28.320,-28.809,0.000
1673805551.854,-36.133,-32.227,-30.273,-30.273,0.000
1673805551.858,-35.645,-28.320,-32.715,-37.109,0.000
1673805551.862,-21.973,-25.879,-28.320,-30.273,0.000
1673805551.866,-27.832,-28.809,-28.320,-21.973,0.000
1673805551.870,-24.414,-31.250,-29.297,-23.926,0.000
1673805551.873,-7.324,-24.902,-24.414,-27.832,0.000
1673805551.877,-4.395,-24.902,-20.508,-29.785,0.000
1673805551.881,-16.113,-24.902,-23.926,-21.484,0.000
1673805551.885,-39.551,-30.762,-26.367,-14.160,0.000
1673805551.889,-38.086,-32.715,-28.320,-7.324,0.000
1673805551.893,-23.926,-30.273,-31.250,-18.555,0.000
1673805551.897,-29.785,-29.785,-29.785,-32.227,0.000
1673805551.901,-20.508,-25.391,-33.691,-27.344,0.000
1673805551.905,-11.230,-26.855,-34.668,-22.949,0.000
1673805551.909,-27.344,-25.391,-27.832,-27.344,0.000
1673805551.912,-20.508,-24.414,-30.762,-43.457,0.000
1673805551.916,-8.789,-29.785,-29.297,-33.691,0.000
1673805551.920,-9.766,-29.785,-20.508,-23.438,0.000
1673805551.924,-8.789,-20.508,-20.020,-25.879,0.000
1673805551.928,-16.602,-18.066,-24.414,-20.508,0.000
1673805551.932,-38.086,-21.484,-26.855,-13.672,0.000
1673805551.936,-53.223,-20.996,-28.320,-7.812,0.000
1673805551.940,-49.316,-20.996,-33.691,-13.672,0.000
1673805551.944,-34.668,-16.602,-34.180,-30.762,0.000
1673805551.948,-22.949,-19.043,-30.273,-29.785,0.000
1673805551.952,-27.832,-27.344,-26.855,-24.902,0.000
1673805551.955,-43.945,-27.832,-26.367,-23.926,0.000
1673805551.959,-31.738,-31.738,-26.855,-24.902,0.000
1673805551.963,-24.414,-30.762,-27.832,-19.043,0.000
1673805551.967,-32.227,-20.996,-26.855,-14.160,0.000
1673805551.971,-29.297,-24.902,-22.461,-8.301,0.000
1673805551.975,-22.461,-25.391,-21.973,-12.695,0.000
1673805551.979,-24.414,-23.438,-27.344,-19.531,0.000
1673805551.983,-20.996,-23.926,-30.273,-22.949,0.000
1673805551.987,-5.859,-24.902,-28.320,-33.203,0.000
1673805551.991,-1.465,-25.391,-27.344,-31.738,0.000
1673805551.995,-20.996,-26.855,-30.762,-26.367,0.000
1673805551.998,-41.992,-33.203,-31.250,-20.020,0.000
1673805552.002,-47.852,-34.180,-33.203,-15.137,0.000
1673805552.006,-41.504,-40.527,-30.762,-17.578,0.000
1673805552.010,-38.086,-41.016,-25.879,-24.414,0.000
1673805552.014,-52.246,-38.086,-29.785,-31.738,0.000
1673805552.018,-48.828,-37.598,-34.180,-42.480,0.000
1673805552.022,-35.645,-34.180,-31.250,-43.457,0.000
1673805552.026,-43.457,-35.645,-31.738,-38.086,0.000
1673805552.030,-46.875,-34.668,-32.227,-27.832,0.000
1673805552.034,-44.434,-27.832,-29.297,-13.672,0.000
1673805552.037,-36.133,-25.391,-29.297,-21.484,0.000
1673805552.041,-28.320,-22.949,-25.879,-23.438,0.000
1673805552.045,-38.574,-26.855,-26.367,-13.672,0.000
1673805552.049,-36.133,-37.598,-29.297,-20.996,0.000
1673805552.053,-32.715,-37.598,-27.344,-12.695,0.000
1673805552.057,-21.973,-28.809,-32.227,-1.465,0.000
1673805552.061,-7.324,-22.461,-36.621,-24.414,0.000
1673805552.065,-28.809,-23.926,-33.203,-34.180,0.000
1673805552.069,-34.668,-23.438,-27.832,-24.902,0.000
1673805552.073,-32.715,-20.508,-24.902,-22.461,0.000
1673805552.077,-34.668,-18.555,-32.227,-12.695,0.000
1673805552.080,-19.043,-25.879,-31.250,-18.555,0.000
1673805552.084,-7.812,-31.250,-20.996,-28.320,0.000
1673805552.088,-15.625,-25.391,-24.414,-28.320,0.000
1673805552.092,-13.672,-21.484,-24.414,-32.227,0.000
1673805552.096,-14.160,-25.391,-25.391,-31.250,0.000
1673805552.100,-8.789,-25.879,-28.809,-26.855,0.000
1673805552.104,-14.648,-19.531,-21.484,-25.391,0.000
1673805552.108,-43.945,-22.949,-21.484,-35.156,0.000
1673805552.112,-42.480,-23.438,-26.367,-39.551,0.000
1673805552.116,-25.879,-22.949,-23.926,-26.855,0.000
1673805552.120,-18.555,-25.879,-29.785,-28.809,0.000
1673805552.123,-28.320,-28.320,-34.180,-28.320,0.000
1673805552.127,-53.223,-30.762,-31.738,-14.648,0.000
1673805552.131,-47.363,-30.762,-26.855,-3.906,0.000
1673805552.135,-36.133,-35.645,-26.855,-6.836,0.000
1673805552.139,-27.344,-36.621,-29.297,-7.812,0.000
1673805552.143,-28.809,-36.621,-26.367,-10.742,0.000
1673805552.147,-32.227,-30.762,-21.484,-12.207,0.000
1673805552.151,-32.715,-27.344,-25.391,-23.926,0.000
1673805552.155,-22.461,-26.367,-27.832,-33.203,0.000
1673805552.159,-7.324,-25.391,-23.926,-16.113,0.000
1673805552.162,-26.855,-33.203,-27.832,-10.742,0.000
1673805552.166,-34.180,-30.762,-34.180,-11.230,0.000
1673805552.170,-23.438,-25.879,-31.250,-15.137,0.000
1673805552.174,-20.996,-28.320,-27.832,-15.625,0.000
1673805552.178,-27.832,-30.762,-32.715,-16.113,0.000
1673805552.182,-28.320,-29.297,-32.227,-19.043,0.000
1673805552.186,-11.230,-29.785,-33.203,-16.602,0.000
1673805552.190,9.277,-30.762,-32.227,-13.672,0.000
1673805552.194,7.324,-28.320,-27.832,-17.578,0.000
1673805552.198,-18.555,-30.762,-30.762,-29.785,0.000
1673805552.202,-23.438,-34.668,-32.227,-41.992,0.000
1673805552.205,-28.320,-33.203,-33.203,-32.715,0.000
1673805552.209,-39.062,-26.367,-29.785,-17.090,0.000
1673805552.213,-24.414,-28.320,-25.879,-16.602,0.000
1673805552.217,-26.367,-29.785,-26.855,-11.719,0.000
1673805552.221,-39.062,-23.438,-25.391,-0.977,0.000
1673805552.225,-34.180,-19.043,-20.020,-7.812,0.000
1673805552.229,-24.902,-21.484,-18.066,-18.555,0.000
1673805552.233,-17.578,-20.996,-21.973,-10.254,0.000
1673805552.237,-18.066,-19.043,-18.555,-4.883,0.000
1673805552.241,-25.391,-15.625,-15.137,-17.090,0.000
1673805552.245,-20.508,-16.113,-26.367,-22.461,0.000
1673805552.248,-4.883,-16.113,-30.762,-19.043,0.000
1673805552.252,3.418,-12.207,-30.762,-16.602,0.000
1673805552.256,-10.742,-12.207,-30.273,-7.324,0.000
1673805552.260,-27.344,-10.742,-25.391,-9.277,0.000
1673805552.264,-24.902,-11.230,-23.438,-10.254,0.000
1673805552.268,-20.996,-13.672,-23.926,0.000,0.000
1673805552.272,-15.625,-16.113,-24.414,-11.230,0.000
1673805552.276,-22.461,-11.230,-25.391,-31.738,0.000
1673805552.280,-24.414,-14.160,-23.926,-34.668,0.000
1673805552.284,-14.160,-23.438,-30.273,-22.461,0.000
1673805552.287,-18.066,-18.555,-33.203,-25.879,0.000
1673805552.291,-21.484,-14.160,-28.809,-40.039,0.000
1673805552.295,-9.766,-16.602,-28.320,-41.016,0.000
1673805552.299,-14.648,-22.949,-22.949,-37.109,0.000
1673805552.303,-33.203,-21.484,-20.508,-26.367,0.000
1673805552.307,-35.156,-17.578,-24.414,-12.207,0.000
1673805552.311,-24.902,-15.625,-26.855,-11.230,0.000
1673805552.315,-9.277,-21.484,-30.762,-25.879,0.000
1673805552.319,-12.695,-20.508,-28.809,-26.855,0.000
1673805552.323,-46.387,-26.367,-24.902,-12.207,0.000
1673805552.327,-44.922,-27.832,-21.484,-6.836,0.000
1673805552.330,-33.203,-23.438,-24.414,-8.789,0.000
1673805552.334,-41.504,-26.367,-26.855,-11.230,0.000
1673805552.338,-30.273,-20.996,-18.066,-11.719,0.000
1673805552.342,-23.926,-19.531,-16.113,-5.371,0.000
1673805552.346,-24.902,-16.602,-16.113,-12.207,0.000
1673805552.350,-25.391,-13.184,-18.066,-18.555,0.000
1673805552.354,-21.484,-11.230,-19.531,-3.418,0.000
1673805552.358,-19.531,-10.742,-19.531,-7.324,0.000
1673805552.362,-22.949,-9.766,-19.043,-10.742,0.000
1673805552.366,-26.367,-13.184,-23.926,-23.926,0.000
1673805552.369,-18.555,-20.996,-27.832,-25.879,0.000
1673805552.373,-6.836,-19.043,-26.855,-6.348,0.000
1673805552.377,-10.742,-15.137,-27.832,-18.066,0.000
1673805552.381,-1.465,-16.113,-25.879,-30.273,0.000
1673805552.385,2.441,-17.090,-27.344,-27.344,0.000
1673805552.389,-14.160,-20.020,-30.762,-20.996,0.000
1673805552.393,-19.531,-21.973,-29.297,-16.602,0.000
1673805552.397,-21.484,-24.902,-26.367,-28.320,0.000
1673805552.401,-29.785,-28.320,-24.902,-20.996,0.000
1673805552.405,-23.926,-28.809,-26.367,-16.602,0.000
1673805552.409,-19.531,-34.180,-24.902,-27.832,0.000
1673805552.412,-12.695,-34.180,-19.043,-20.996,0.000
1673805552.416,-4.883,-24.902,-18.555,-7.324,0.000
1673805552.420,-25.391,-32.227,-25.391,-9.766,0.000
1673805552.424,-47.363,-42.480,-30.273,-27.832,0.000
1673805552.428,-66.406,-33.691,-25.879,-18.555,0.000
1673805552.432,-65.918,-32.227,-28.320,-22.461,0.000
1673805552.436,-58.594,-38.574,-27.344,-29.785,0.000
1673805552.440,-43.457,-32.715,-20.996,-13.184,0.000
1673805552.444,-27.344,-28.809,-22.949,-4.883,0.000
1673805552.448,-27.832,-32.227,-25.879,-9.766,0.000
1673805552.452,-16.113,-32.227,-26.855,-15.137,0.000
1673805552.455,-22.949,-35.645,-27.344,-24.902,0.000
1673805552.459,-24.414,-35.156,-27.832,-31.738,0.000
1673805552.463,-19.531,-38.574,-31.738,-26.855,0.000
1673805552.467,-29.785,-39.551,-33.691,-21.973,0.000
1673805552.471,-39.062,-34.668,-27.344,-5.859,0.000
1673805552.475,-55.176,-32.715,-27.344,-2.441,0.000
1673805552.479,-50.781,-31.738,-28.320,-4.883,0.000
1673805552.483,-33.691,-29.785,-27.832,-12.695,0.000
1673805552.487,-27.344,-25.879,-30.273,-28.809,0.000
1673805552.491,-15.137,-22.461,-27.344,-21.973,0.000
1673805552.494,9.766,-18.555,-26.855,-21.484,0.000
1673805552.498,20.996,-19.531,-31.738,-32.227,0.000
1673805552.502,5.371,-21.973,-30.273,-15.625,0.000
1673805552.506,-16.113,-21.484,-24.902,-3.418,0.000
1673805552.510,-23.926,-27.832,-21.484,-8.789,0.000
1673805552.514,-27.344,-33.203,-24.414,-4.395,0.000
1673805552.518,-12.695,-25.391,-27.832,-7.812,0.000
1673805552.522,-10.742,-20.020,-30.273,-26.367,0.000
1673805552.526,-25.879,-29.785,-34.180,-34.668,0.000
1673805552.530,-24.902,-29.297,-32.227,-32.715,0.000
1673805552.534,-29.297,-26.855,-32.715,-34.180,0.000
1673805552.537,-39.551,-31.250,-41.992,-25.879,0.000
1673805552.541,-43.945,-29.297,-41.992,-28.320,0.000
1673805552.545,-45.410,-26.855,-35.156,-41.016,0.000
1673805552.549,-24.902,-29.297,-36.621,-34.668,0.000
1673805552.553,-31.738,-29.297,-35.156,-26.367,0.000
1673805552.557,-43.945,-25.879,-33.691,-26.367,0.000
1673805552.561,-37.598,-22.461,-34.180,-28.320,0.000
1673805552.565,-34.668,-22.461,-32.715,-20.020,0.000
1673805552.569,-20.020,-21.973,-38.574,-25.879,0.000
1673805552.573,-34.180,-26.367,-39.551,-38.574,0.000
1673805552.577,-41.992,-30.273,-37.109,-30.762,0.000
1673805552.580,-32.715,-21.973,-32.715,-20.996,0.000
1673805552.584,-34.180,-20.508,-30.762,-10.742,0.000
1673805552.588,-26.367,-24.414,-33.203,-18.555,0.000
1673805552.592,-14.160,-20.996,-31.250,-32.227,0.000
1673805552.596,-14.648,-23.926,-23.926,-27.344,0.000
1673805552.600,-23.926,-27.344,-21.973,-19.531,0.000
1673805552.604,-21.484,-23.438,-26.367,-19.531,0.000
1673805552.608,-1.465,-28.809,-28.320,-23.438,0.000
1673805552.612,0.488,-29.785,-27.832,-20.996,0.000
1673805552.616,-33.691,-25.391,-23.438,-15.137,0.000
1673805552.619,-44.434,-27.344,-25.391,-10.742,0.000
1673805552.623,-40.527,-26.855,-24.414,-8.301,0.000
1673805552.627,-33.203,-29.785,-29.785,-19.531,0.000
1673805552.631,-16.602,-37.109,-35.645,-37.109,0.000
1673805552.635,-17.090,-38.086,-31.250,-25.879,0.000
1673805552.639,-39.062,-32.227,-29.785,-9.766,0.000
1673805552.643,-40.527,-26.855,-31.250,-13.672,0.000
1673805552.647,-23.926,-29.297,-32.227,-22.949,0.000
1673805552.651,-19.043,-33.203,-38.574,-25.391,0.000
1673805552.655,-18.066,-32.715,-38.574,-24.902,0.000
1673805552.659,-13.184,-30.273,-34.668,-29.785,0.000
1673805552.662,-6.348,-26.855,-37.598,-35.645,0.000
1673805552.666,-6.836,-25.879,-38.574,-34.180,0.000
1673805552.670,-8.789,-23.438,-37.109,-17.090,0.000
1673805552.674,-19.043,-26.367,-33.691,-4.883,0.000
1673805552.678,-36.621,-26.367,-35.645,-16.113,0.000
1673805552.682,-24.414,-20.996,-40.527,-31.738,0.000
1673805552.686,-7.812,-27.832,-41.016,-38.086,0.000
1673805552.690,-17.578,-34.668,-37.109,-35.156,0.000
1673805552.694,-28.320,-31.250,-36.133,-41.016,0.000
1673805552.698,-36.621,-33.691,-37.598,-37.598,0.000
1673805552.702,-33.691,-33.203,-33.691,-14.648,0.000
1673805552.705,-35.645,-29.785,-35.156,-20.508,0.000
1673805552.709,-42.969,-24.902,-37.109,-27.832,0.000
1673805552.713,-43.457,-23.438,-31.738,-19.531,0.000
1673805552.717,-41.504,-26.367,-32.227,-24.902,0.000
1673805552.721,-34.180,-27.344,-35.156,-40.039,0.000
1673805552.725,-24.414,-25.879,-36.133,-35.156,0.000
1673805552.729,-27.832,-29.297,-34.180,-27.832,0.000
1673805552.733,-47.363,-34.668,-32.715,-28.809,0.000
1673805552.737,-51.758,-28.320,-33.691,-23.438,0.000
1673805552.741,-41.504,-28.320,-31.738,-21.973,0.000
1673805552.744,-35.645,-29.297,-31.250,-32.227,0.000
1673805552.748,-30.762,-23.438,-29.297,-39.062,0.000
1673805552.752,-41.504,-31.250,-30.273,-31.738,0.000
1673805552.756,-53.711,-35.156,-35.645,-32.227,0.000
1673805552.760,-42.480,-28.809,-35.645,-46.387,0.000
1673805552.764,-27.832,-29.785,-38.574,-49.805,0.000
1673805552.768,-15.625,-29.297,-40.527,-41.016,0.000
1673805552.772,-24.902,-32.227,-36.133,-30.273,0.000
1673805552.776,-31.250,-36.133,-31.250,-18.066,0.000
1673805552.780,-33.203,-34.668,-31.738,-16.113,0.000
1673805552.784,-32.227,-36.621,-36.621,-13.672,0.000
1673805552.787,-26.855,-34.180,-36.621,-12.695,0.000
1673805552.791,-32.227,-36.133,-31.250,-21.973,0.000
1673805552.795,-34.180,-37.109,-32.227,-25.391,0.000
1673805552.799,-23.926,-29.297,-35.156,-21.973,0.000
1673805552.803,-27.344,-29.785,-37.109,-19.531,0.000
1673805552.807,-32.715,-35.156,-36.133,-16.602,0.000
1673805552.811,-29.785,-35.156,-35.645,-14.648,0.000
1673805552.815,-37.109,-30.273,-33.691,-9.277,0.000
1673805552.819,-37.109,-33.203,-31.250,-13.672,0.000
1673805552.823,-26.367,-38.574,-35.645,-12.695,0.000
1673805552.827,-23.926,-37.598,-37.598,-12.695,0.000
1673805552.830,-15.137,-30.273,-31.738,-23.438,0.000
1673805552.834,-5.371,-24.902,-30.762,-20.508,0.000
1673805552.838,-0.977,-22.461,-34.180,-23.438,0.000
1673805552.842,-17.578,-28.320,-29.785,-31.738,0.000
1673805552.846,-27.344,-30.273,-29.785,-23.926,0.000
1673805552.850,-14.160,-26.855,-35.645,-14.160,0.000
1673805552.854,-22.461,-30.762,-34.668,-14.160,0.000
1673805552.858,-46.875,-30.762,-34.668,-23.926,0.000
1673805552.862,-42.480,-29.785,-39.551,-34.180,0.000
1673805552.866,-24.902,-28.809,-37.109,-32.715,0.000
1673805552.869,-26.367,-27.832,-33.691,-17.578,0.000
1673805552.873,-22.949,-29.785,-29.785,-13.672,0.000
1673805552.877,-17.578,-27.344,-28.320,-20.996,0.000
1673805552.881,-10.254,-24.902,-24.902,-16.602,0.000
1673805552.885,-9.766,-20.508,-18.555,-11.719,0.000
1673805552.889,-26.855,-17.090,-20.996,-11.719,0.000
1673805552.893,-42.480,-21.973,-23.438,-17.578,0.000
1673805552.897,-31.250,-24.902,-24.414,-19.043,0.000
1673805552.901,-22.461,-22.949,-30.762,-19.043,0.000
1673805552.905,-14.648,-20.508,-37.109,-27.832,0.000
1673805552.909,6.836,-22.461,-32.715,-37.598,0.000
1673805552.912,-1.953,-27.344,-32.715,-42.969,0.000
1673805552.916,-33.691,-26.855,-35.156,-39.062,0.000
1673805552.920,-46.387,-26.367,-28.320,-26.367,0.000
1673805552.924,-41.016,-30.273,-34.180,-25.391,0.000
1673805552.928,-34.180,-36.133,-41.992,-37.109,0.000
1673805552.932,-25.879,-33.691,-38.574,-32.715,0.000
1673805552.936,-19.531,-30.762,-37.109,-26.367,0.000
1673805552.940,-20.996,-36.621,-32.227,-26.855,0.000
1673805552.944,-33.203,-34.668,-30.762,-20.508,0.000
1673805552.948,-48.828,-32.715,-36.621,-24.414,0.000
1673805552.952,-52.246,-32.227,-38.086,-24.902,0.000
1673805552.955,-41.992,-24.414,-33.691,-18.066,0.000
1673805552.959,-30.273,-24.902,-30.273,-12.695,0.000
1673805552.963,-26.855,-33.203,-32.715,-17.090,0.000
1673805552.967,-26.367,-35.645,-33.203,-18.066,0.000
1673805552.971,-30.762,-37.598,-29.785,-15.625,0.000
1673805552.975,-29.785,-34.180,-29.785,-21.973,0.000
1673805552.979,-22.949,-35.645,-28.320,-32.715,0.000
1673805552.983,-28.809,-42.480,-27.832,-34.180,0.000
1673805552.987,-25.879,-42.969,-28.809,-13.184,0.000
1673805552.991,-26.855,-41.016,-23.438,-11.719,0.000
1673805552.994,-21.973,-38.574,-25.391,-44.922,0.000
1673805552.998,-2.441,-32.227,-28.320,-64.941,0.000
1673805553.002,3.418,-21.484,-24.414,-47.363,0.000
1673805553.006,1.953,-14.648,-22.461,-28.809,0.000
1673805553.010,-12.695,-15.625,-20.996,-29.297,0.000
1673805553.014,-9.277,-15.137,-22.949,-35.645,0.000
1673805553.018,-14.160,-20.508,-29.297,-34.668,0.000
1673805553.022,-42.969,-22.949,-27.832,-18.066,0.000
1673805553.026,-37.598,-19.043,-23.438,-23.926,0.000
1673805553.030,-13.672,-16.602,-20.508,-34.668,0.000
1673805553.034,-10.254,-13.672,-17.578,-24.414,0.000
1673805553.037,-21.973,-16.113,-20.020,-20.996,0.000
1673805553.041,-23.438,-16.602,-17.578,-17.090,0.000
1673805553.045,-18.555,-20.020,-16.113,-12.207,0.000
1673805553.049,-18.066,-19.531,-20.508,-16.113,0.000
1673805553.053,-23.926,-13.184,-22.461,-13.184,0.000
1673805553.057,-27.832,-16.113,-21.484,-7.324,0.000
1673805553.061,-30.762,-21.973,-20.996,-17.090,0.000
1673805553.065,-21.973,-22.461,-16.602,-16.113,0.000
1673805553.069,-16.113,-18.555,-17.578,-2.441,0.000
1673805553.073,-12.207,-9.766,-14.160,4.883,0.000
1673805553.077,-10.254,-9.277,-8.789,6.836,0.000
1673805553.080,-18.555,-18.066,-14.648,-12.207,0.000
1673805553.084,-9.277,-18.555,-19.043,-19.043,0.000
1673805553.088,-6.348,-18.066,-20.020,-19.043,0.000
1673805553.092,-15.137,-26.855,-21.973,-27.344,0.000
1673805553.096,-10.254,-32.227,-21.973,-20.020,0.000
1673805553.100,0.977,-28.320,-18.555,-11.719,0.000
1673805553.104,-0.977,-27.344,-19.531,-8.301,0.000
1673805553.108,-3.906,-25.879,-22.461,-10.742,0.000
1673805553.112,-8.789,-24.902,-25.391,-5.859,0.000
1673805553.116,-19.531,-25.879,-24.414,1.465,0.000
1673805553.119,-22.461,-25.391,-23.926,-6.836,0.000
1673805553.123,-22.461,-23.438,-30.762,-12.695,0.000
1673805553.127,-33.691,-29.785,-33.691,-15.625,0.000
1673805553.131,-26.855,-29.297,-32.227,-21.484,0.000
1673805553.135,-13.672,-24.902,-29.297,-33.203,0.000
1673805553.139,-9.766,-24.414,-23.926,-27.832,0.000
1673805553.143,-14.648,-25.879,-20.996,-15.137,0.000
1673805553.147,-20.996,-27.832,-20.020,-19.043,0.000
1673805553.151,-29.785,-26.855,-19.043,-11.719,0.000
1673805553.155,-38.574,-27.344,-21.484,-6.348,0.000
1673805553.159,-38.574,-24.902,-27.832,-22.461,0.000
1673805553.162,-31.738,-20.508,-30.762,-35.156,0.000
1673805553.166,-28.809,-22.949,-31.738,-33.203,0.000
1673805553.170,-28.809,-25.391,-27.344,-20.020,0.000
1673805553.174,-25.879,-19.531,-24.902,-11.230,0.000
1673805553.178,-18.066,-19.043,-26.367,-12.207,0.000
1673805553.182,-9.277,-24.414,-25.879,-27.344,0.000
1673805553.186,-14.648,-26.367,-27.344,-30.762,0.000
1673805553.190,-18.555,-26.367,-26.367,-25.391,0.000
1673805553.194,-11.719,-27.344,-24.414,-17.090,0.000
1673805553.198,-8.301,-28.320,-27.832,-7.324,0.000
1673805553.202,-14.648,-27.344,-29.297,-14.648,0.000
1673805553.205,-21.484,-30.762,-27.344,-18.555,0.000
1673805553.209,-25.391,-28.809,-28.320,-21.484,0.000
1673805553.213,-22.949,-25.879,-26.855,-28.809,0.000
1673805553.217,-17.090,-31.250,-28.320,-20.020,0.000
1673805553.221,-20.020,-35.156,-31.250,-12.207,0.000
1673805553.225,-18.555,-30.273,-25.879,-14.160,0.000
1673805553.229,-14.160,-27.832,-31.250,-19.043,0.000
1673805553.233,-15.625,-38.574,-35.156,-15.625,0.000
1673805553.237,-13.184,-37.109,-30.762,-19.531,0.000
1673805553.241,-11.230,-30.762,-30.762,-30.762,0.000
1673805553.244,-34.668,-32.715,-27.344,-20.020,0.000
1673805553.248,-42.969,-31.738,-28.809,-15.625,0.000
1673805553.252,-28.320,-34.180,-33.691,-14.648,0.000
1673805553.256,-27.344,-33.203,-33.203,-16.113,0.000
1673805553.260,-15.625,-30.762,-29.785,-36.621,0.000
1673805553.264,-20.996,-31.738,-26.855,-38.574,0.000
1673805553.268,-32.227,-26.367,-27.832,-30.273,0.000
1673805553.272,-22.949,-24.902,-27.344,-21.973,0.000
1673805553.276,-15.625,-24.414,-28.320,-26.855,0.000
1673805553.280,-12.695,-20.508,-33.203,-36.133,0.000
1673805553.284,-43.945,-16.113,-35.156,-27.344,0.000
1673805553.287,-65.430,-21.973,-32.715,-24.902,0.000
1673805553.291,-54.199,-25.879,-29.785,-22.949,0.000
1673805553.295,-39.551,-22.949,-27.344,-21.973,0.000
1673805553.299,-26.855,-19.043,-25.391,-15.625,0.000
1673805553.303,-25.391,-19.531,-23.926,-8.301,0.000
1673805553.307,-31.250,-22.949,-27.344,-11.230,0.000
1673805553.311,-32.227,-23.438,-28.809,-25.391,0.000
1673805553.315,-24.902,-24.902,-27.832,-25.391,0.000
1673805553.319,-19.531,-24.902,-28.320,-8.301,0.000
1673805553.323,-27.344,-29.785,-25.879,-6.836,0.000
1673805553.326,-46.875,-29.297,-21.973,-14.648,0.000
1673805553.330,-43.945,-24.414,-23.438,-18.555,0.000
1673805553.334,-34.668,-23.438,-27.832,-22.949,0.000
1673805553.338,-28.320,-27.832,-24.414,-31.250,0.000
1673805553.342,-21.484,-31.250,-20.508,-32.715,0.000
1673805553.346,-31.250,-25.879,-22.949,-35.645,0.000
1673805553.350,-30.762,-23.438,-25.391,-31.738,0.000
1673805553.354,-42.969,-20.020,-29.785,-24.902,0.000
1673805553.358,-53.711,-21.484,-30.273,-23.438,0.000
1673805553.362,-38.086,-23.926,-22.949,-11.230,0.000
1673805553.366,-20.508,-19.531,-29.297,-11.719,0.000
1673805553.369,-19.043,-20.996,-38.086,-22.461,0.000
1673805553.373,-40.039,-20.996,-31.738,-21.973,0.000
1673805553.377,-42.480,-24.414,-28.320,-22.949,0.000
1673805553.381,-25.391,-33.203,-32.715,-29.297,0.000
1673805553.385,-28.809,-36.621,-34.180,-29.785,0.000
1673805553.389,-25.391,-30.273,-32.715,-19.531,0.000
1673805553.393,-21.484,-22.461,-30.762,-20.020,0.000
1673805553.397,-28.320,-24.902,-30.762,-20.508,0.000
1673805553.401,-21.484,-24.902,-35.156,-13.672,0.000
1673805553.405,-21.484,-26.367,-34.668,-14.160,0.000
1673805553.409,-34.668,-30.273,-35.156,-24.414,0.000
1673805553.412,-31.250,-28.320,-32.715,-23.438,0.000
1673805553.416,-20.508,-28.809,-29.297,-13.184,0.000
1673805553.420,-20.996,-30.273,-28.809,-6.836,0.000
1673805553.424,-22.949,-24.902,-28.320,-11.719,0.000
1673805553.428,-15.137,-33.203,-32.227,-26.367,0.000
1673805553.432,-6.836,-40.527,-35.156,-30.762,0.000
1673805553.436,-1.465,-32.715,-33.691,-25.879,0.000
1673805553.440,15.625,-25.879,-33.691,-23.926,0.000
1673805553.444,9.766,-25.391,-31.250,-18.066,0.000
1673805553.448,-15.137,-28.809,-30.762,-10.742,0.000
1673805553.451,-19.043,-26.855,-33.203,-16.602,0.000
1673805553.455,-32.227,-24.414,-34.180,-25.879,0.000
1673805553.459,-43.945,-21.484,-27.832,-26.367,0.000
1673805553.463,-42.969,-22.461,-28.320,-27.832,0.000
1673805553.467,-41.992,-26.367,-32.715,-31.250,0.000
1673805553.471,-35.156,-29.297,-32.227,-26.855,0.000
1673805553.475,-21.484,-32.227,-34.180,-18.066,0.000
1673805553.479,-21.484,-31.250,-31.250,-24.902,0.000
1673805553.483,-40.039,-30.762,-29.297,-25.879,0.000
1673805553.487,-39.062,-31.738,-28.320,-20.508,0.000
1673805553.491,-31.250,-33.203,-31.738,-30.273,0.000
1673805553.494,-33.691,-33.203,-35.156,-45.898,0.000
1673805553.498,-32.227,-30.273,-29.785,-41.992,0.000
1673805553.502,-22.949,-32.715,-29.297,-25.879,0.000
1673805553.506,-32.715,-35.156,-31.250,-22.461,0.000
1673805553.510,-52.246,-38.086,-32.227,-28.320,0.000
1673805553.514,-33.203,-32.227,-32.715,-25.879,0.000
1673805553.518,-25.879,-28.320,-29.297,-22.461,0.000
1673805553.522,-22.949,-32.227,-31.738,-13.672,0.000
1673805553.526,-4.395,-28.320,-33.691,-11.230,0.000
1673805553.530,-6.836,-30.273,-33.203,-32.715,0.000
1673805553.534,-6.836,-31.250,-33.203,-31.738,0.000
1673805553.537,-26.855,-31.250,-30.762,-21.484,0.000
1673805553.541,-39.551,-30.273,-30.762,-26.855,0.000
1673805553.545,-35.645,-27.832,-27.344,-21.973,0.000
1673805553.549,-49.316,-34.668,-26.367,-15.137,0.000
1673805553.553,-40.527,-38.574,-31.738,-21.484,0.000
1673805553.557,-23.926,-32.715,-27.832,-16.602,0.000
1673805553.561,-19.043,-32.227,-31.738,-19.043,0.000
1673805553.565,-22.461,-34.668,-41.504,-28.809,0.000
1673805553.569,-32.227,-29.297,-40.039,-29.297,0.000
1673805553.573,-41.992,-23.438,-32.715,-21.973,0.000
1673805553.576,-32.715,-22.461,-30.273,-34.668,0.000
1673805553.580,-25.879,-22.949,-26.367,-42.969,0.000
1673805553.584,-32.227,-24.414,-27.832,-31.250,0.000
1673805553.588,-32.227,-30.762,-36.133,-27.832,0.000
1673805553.592,-33.203,-32.227,-39.551,-31.738,0.000
1673805553.596,-27.832,-27.344,-39.551,-28.809,0.000
1673805553.600,-27.344,-26.855,-36.133,-12.207,0.000
1673805553.604,-31.250,-29.297,-35.156,-5.859,0.000
1673805553.608,-29.785,-30.273,-38.086,-13.672,0.000
1673805553.612,-10.742,-27.344,-40.039,-17.578,0.000
1673805553.616,-20.020,-33.203,-43.457,-19.043,0.000
1673805553.619,-54.199,-38.086,-40.039,-18.555,0.000
1673805553.623,-61.035,-28.809,-38.574,-24.902,0.000
1673805553.627,-45.410,-27.344,-35.156,-30.273,0.000
1673805553.631,-35.156,-32.227,-31.738,-30.273,0.000
1673805553.635,-33.691,-35.156,-31.250,-26.367,0.000
1673805553.639,-20.996,-35.156,-32.227,-30.762,0.000
1673805553.643,-8.789,-28.320,-31.738,-39.062,0.000
1673805553.647,-11.719,-25.391,-34.668,-41.992,0.000
1673805553.651,-18.066,-24.414,-31.250,-33.203,0.000
1673805553.655,-21.484,-27.832,-26.855,-17.090,0.000
1673805553.659,-17.090,-28.809,-27.344,-23.926,0.000
1673805553.662,-14.160,-18.555,-26.855,-27.832,0.000
1673805553.666,-22.949,-22.949,-26.367,-25.391,0.000
1673805553.670,-29.785,-27.832,-23.926,-23.926,0.000
1673805553.674,-32.227,-26.367,-22.461,-18.555,0.000
1673805553.678,-40.527,-28.809,-25.879,-23.926,0.000
1673805553.682,-34.180,-36.133,-31.250,-22.461,0.000
1673805553.686,-20.020,-38.574,-35.156,-16.113,0.000
1673805553.690,-31.250,-20.996,-33.691,-14.648,0.000
1673805553.694,-45.410,-20.020,-26.855,-12.207,0.000
1673805553.698,-50.293,-27.832,-27.344,-10.742,0.000
1673805553.701,-41.504,-23.438,-35.645,-10.742,0.000
1673805553.705,-39.551,-23.926,-36.621,-6.348,0.000
1673805553.709,-41.016,-28.320,-32.715,-18.066,0.000
1673805553.713,-37.109,-31.250,-33.691,-40.527,0.000
1673805553.717,-32.227,-30.762,-37.598,-39.062,0.000
1673805553.721,-18.555,-28.809,-33.691,-31.250,0.000
1673805553.725,-16.113,-28.320,-28.320,-37.109,0.000
1673805553.729,-18.066,-30.273,-29.297,-43.945,0.000
1673805553.733,-5.859,-26.855,-27.344,-31.738,0.000
1673805553.737,-13.672,-28.809,-27.832,-25.879,0.000
1673805553.741,-29.785,-39.551,-29.297,-23.926,0.000
1673805553.744,-28.809,-34.668,-31.250,-32.715,0.000
1673805553.748,-27.832,-29.785,-31.738,-36.621,0.000
1673805553.752,-27.344,-31.250,-27.832,-23.926,0.000
1673805553.756,-21.484,-27.832,-25.879,-30.273,0.000
1673805553.760,-11.719,-27.344,-23.438,-27.344,0.000
1673805553.764,-7.324,-28.320,-24.902,-16.602,0.000
1673805553.768,-13.184,-32.715,-29.785,-9.766,0.000
1673805553.772,-26.855,-35.156,-28.809,-2.441,0.000
1673805553.776,-34.180,-28.809,-21.973,-5.371,0.000
1673805553.780,-44.434,-33.691,-19.531,-4.395,0.000
1673805553.784,-49.805,-39.062,-23.926,-5.371,0.000
1673805553.787,-39.551,-32.227,-26.855,-4.395,0.000
1673805553.791,-38.086,-32.227,-22.461,-9.277,0.000
1673805553.795,-45.410,-32.715,-20.996,-12.695,0.000
1673805553.799,-38.574,-30.762,-24.902,-12.695,0.000
1673805553.803,-33.203,-36.133,-26.367,-24.902,0.000
1673805553.807,-29.785,-33.203,-25.391,-27.832,0.000
1673805553.811,-11.230,-22.949,-27.344,-35.645,0.000
1673805553.815,-25.879,-28.809,-24.902,-33.203,0.000
1673805553.819,-37.598,-31.738,-21.973,-21.973,0.000
1673805553.823,-20.020,-26.855,-22.461,-15.137,0.000
1673805553.826,-18.555,-26.855,-24.414,-23.438,0.000
1673805553.830,-18.066,-22.949,-22.949,-37.109,0.000
1673805553.834,-3.418,-20.508,-19.043,-26.367,0.000
1673805553.838,0.488,-28.320,-22.461,-18.555,0.000
1673805553.842,-1.953,-31.738,-22.949,-13.672,0.000
1673805553.846,0.488,-25.391,-20.508,-19.531,0.000
1673805553.850,-15.625,-27.344,-22.949,-27.832,0.000
1673805553.854,-32.715,-29.297,-24.414,-12.207,0.000
1673805553.858,-42.480,-29.297,-23.926,-12.207,0.000
1673805553.862,-50.781,-26.367,-21.484,-12.207,0.000
1673805553.866,-38.086,-17.090,-22.461,-6.836,0.000
1673805553.869,-18.066,-13.184,-24.414,-10.254,0.000
1673805553.873,-17.578,-17.090,-21.484,-12.207,0.000
1673805553.877,-25.879,-17.578,-24.902,-20.020,0.000
1673805553.881,-35.156,-18.066,-23.926,-13.184,0.000
1673805553.885,-36.621,-18.555,-26.367,5.859,0.000
1673805553.889,-35.645,-15.625,-28.809,1.465,0.000
1673805553.893,-30.762,-19.043,-23.926,-24.414,0.000
1673805553.897,-18.555,-18.066,-19.531,-29.785,0.000
1673805553.901,-25.391,-12.695,-16.602,-14.160,0.000
1673805553.905,-28.809,-16.113,-19.531,-3.418,0.000
1673805553.909,-16.602,-19.531,-20.996,-6.836,0.000
1673805553.912,-12.207,-14.648,-26.855,-13.672,0.000
1673805553.916,-18.555,-11.230,-26.367,-21.973,0.000
1673805553.920,-10.254,-13.672,-23.926,-30.273,0.000
1673805553.924,-0.488,-12.695,-25.391,-20.508,0.000
1673805553.928,-14.648,-14.648,-22.461,-13.184,0.000
1673805553.932,-13.184,-21.484,-18.066,-11.230,0.000
1673805553.936,-22.949,-21.973,-18.066,-12.207,0.000
1673805553.940,-43.457,-23.926,-21.484,-16.602,0.000
1673805553.944,-38.574,-21.973,-25.391,-16.113,0.000
1673805553.948,-36.621,-21.973,-26.367,-3.906,0.000
1673805553.951,-24.902,-29.785,-20.996,0.977,0.000
1673805553.955,-6.348,-25.391,-16.602,-7.812,0.000
1673805553.959,9.277,-16.602,-13.672,-11.719,0.000
1673805553.963,0.000,-16.602,-13.184,-20.996,0.000
1673805553.967,-15.137,-21.484,-21.484,-30.273,0.000
1673805553.971,-27.344,-25.879,-23.438,-21.484,0.000
1673805553.975,-44.434,-24.414,-18.555,-13.184,0.000
1673805553.979,-42.969,-20.508,-20.996,0.488,0.000
1673805553.983,-46.387,-25.879,-24.414,-2.441,0.000
1673805553.987,-61.035,-35.156,-23.438,-10.254,0.000
1673805553.991,-51.270,-37.598,-26.855,-8.789,0.000
1673805553.994,-34.180,-31.738,-31.250,-20.996,0.000
1673805553.998,-24.902,-26.855,-28.320,-29.297,0.000
1673805554.002,-14.160,-23.438,-24.414,-33.691,0.000
1673805554.006,-9.277,-22.461,-25.879,-39.551,0.000
1673805554.010,-20.020,-22.949,-24.902,-32.715,0.000
1673805554.014,-27.832,-24.902,-26.367,-24.902,0.000
1673805554.018,-28.809,-22.949,-28.320,-12.207,0.000
1673805554.022,-29.297,-23.438,-29.785,-2.930,0.000
1673805554.026,-34.180,-28.809,-29.785,-12.207,0.000
1673805554.030,-43.457,-34.668,-27.832,-20.996,0.000
1673805554.034,-34.180,-38.086,-29.297,-23.926,0.000
1673805554.037,-15.137,-33.691,-31.738,-24.414,0.000
1673805554.041,-19.531,-24.414,-27.344,-32.227,0.000
1673805554.045,-20.020,-21.484,-25.391,-38.086,0.000
1673805554.049,-14.160,-23.926,-25.391,-32.227,0.000
1673805554.053,-9.277,-25.391,-28.320,-26.855,0.000
1673805554.057,-21.973,-27.832,-31.250,-33.203,0.000
1673805554.061,-41.016,-27.832,-31.738,-25.879,0.000
1673805554.065,-18.555,-26.367,-34.180,-18.066,0.000
1673805554.069,-35.156,-36.133,-35.645,-15.137,0.000
1673805554.073,-61.523,-43.457,-41.016,-23.926,0.000
1673805554.076,-35.156,-29.785,-37.598,-38.086,0.000
1673805554.080,-30.273,-20.996,-31.250,-30.273,0.000
1673805554.084,-36.133,-25.391,-29.297,-20.508,0.000
1673805554.088,-26.855,-29.297,-30.273,-32.227,0.000
1673805554.092,-24.902,-28.320,-31.738,-35.156,0.000
1673805554.096,-26.367,-24.414,-38.086,-27.832,0.000
1673805554.100,-19.043,-22.949,-37.109,-23.438,0.000
1673805554.104,-9.766,-27.344,-30.762,-13.672,0.000
1673805554.108,-23.926,-22.949,-31.738,-11.719,0.000
1673805554.112,-21.973,-22.949,-29.297,-10.254,0.000
1673805554.116,-9.766,-31.738,-32.227,-17.578,0.000
1673805554.119,-22.949,-33.203,-37.109,-29.785,0.000
1673805554.123,-25.879,-31.738,-29.297,-23.926,0.000
1673805554.127,-20.020,-30.273,-25.391,-19.531,0.000
1673805554.131,-13.672,-30.273,-31.250,-24.902,0.000
1673805554.135,-10.742,-31.250,-24.902,-12.695,0.000
1673805554.139,-13.672,-32.227,-21.973,-13.184,0.000
1673805554.143,-16.602,-27.344,-30.273,-40.527,0.000
1673805554.147,-15.137,-26.367,-36.133,-34.668,0.000
1673805554.151,-17.090,-34.668,-41.504,-24.414,0.000
1673805554.155,-25.391,-34.180,-34.180,-13.672,0.000
1673805554.158,-25.391,-26.367,-29.785,0.000,0.000
1673805554.162,-20.508,-27.344,-34.180,-16.113,0.000
1673805554.166,-17.578,-30.273,-32.227,-23.926,0.000
1673805554.170,-22.461,-29.297,-31.738,-20.996,0.000
1673805554.174,-40.039,-31.250,-33.691,-22.949,0.000
1673805554.178,-35.156,-36.133,-29.785,-20.020,0.000
1673805554.182,-20.508,-35.156,-28.320,-15.625,0.000
1673805554.186,-26.367,-32.715,-30.273,-17.578,0.000
1673805554.190,-43.945,-24.414,-31.250,-20.996,0.000
1673805554.194,-51.270,-20.020,-35.156,-21.484,0.000
1673805554.198,-29.297,-25.879,-37.598,-25.879,0.000
1673805554.201,-22.461,-24.902,-32.715,-22.949,0.000
1673805554.205,-33.203,-22.461,-27.344,-14.160,0.000
1673805554.209,-32.227,-26.367,-28.320,-21.973,0.000
1673805554.213,-21.973,-20.996,-26.367,-20.996,0.000
1673805554.217,-5.859,-22.461,-32.227,-19.043,0.000
1673805554.221,5.859,-28.320,-37.598,-24.414,0.000
1673805554.225,3.418,-29.785,-32.227,-16.113,0.000
1673805554.229,-17.578,-29.297,-25.879,-10.742,0.000
1673805554.233,-45.410,-21.973,-28.320,-8.789,0.000
1673805554.237,-55.664,-22.461,-29.297,-4.395,0.000
1673805554.241,-42.969,-20.996,-23.926,-0.488,0.000
1673805554.244,-30.762,-17.578,-21.484,-4.395,0.000
1673805554.248,-29.297,-22.461,-25.391,-10.742,0.000
1673805554.252,-29.785,-29.785,-25.391,-21.484,0.000
1673805554.256,-30.762,-31.738,-23.438,-16.602,0.000
1673805554.260,-16.113,-25.879,-23.438,-15.137,0.000
1673805554.264,-5.371,-26.855,-24.902,-31.738,0.000
1673805554.268,-1.465,-30.762,-29.785,-41.016,0.000
