timestamp,TP9,AF7,AF8,TP10,Right AUX
1673805395.790,-31.250,-31.738,-28.809,-18.555,0.000
1673805395.794,-30.273,-25.879,-23.926,-23.438,0.000
1673805395.797,-25.879,-20.508,-27.832,-19.531,0.000
1673805395.801,-10.254,-20.020,-22.949,-20.020,0.000
1673805395.805,-14.648,-20.020,-20.508,-17.578,0.000
1673805395.809,-32.715,-24.414,-24.902,-13.672,0.000
1673805395.813,-31.738,-24.414,-27.832,-21.973,0.000
1673805395.817,-16.602,-15.137,-26.855,-32.715,0.000
1673805395.821,0.000,-10.742,-24.902,-24.414,0.000
1673805395.825,1.465,-14.648,-24.414,-24.902,0.000
1673805395.829,-5.859,-15.625,-17.578,-29.785,0.000
1673805395.833,-5.859,-14.648,-18.555,-23.926,0.000
1673805395.836,-11.230,-14.648,-20.508,-10.742,0.000
1673805395.840,-11.719,-19.043,-11.719,-2.441,0.000
1673805395.844,-24.414,-23.926,-16.602,-14.648,0.000
1673805395.848,-33.691,-23.438,-20.020,-29.297,0.000
1673805395.852,-20.020,-19.043,-15.625,-30.762,0.000
1673805395.856,-12.695,-18.066,-15.137,-16.602,0.000
1673805395.860,-7.812,-13.184,-17.090,-13.672,0.000
1673805395.864,-10.742,-4.395,-11.230,-18.555,0.000
1673805395.868,-9.766,-5.859,-5.371,-12.207,0.000
1673805395.872,-17.578,-16.602,-9.277,-6.836,0.000
1673805395.876,-30.273,-27.832,-11.230,-16.113,0.000
1673805395.879,-47.363,-21.973,-13.672,-26.855,0.000
1673805395.883,-51.758,-17.578,-12.207,-19.043,0.000
1673805395.887,-28.809,-19.531,-14.648,-11.230,0.000
1673805395.891,-28.809,-18.066,-24.902,-9.277,0.000
1673805395.895,-37.109,-19.043,-25.391,-9.277,0.000
1673805395.899,-28.320,-17.578,-18.555,-15.137,0.000
1673805395.903,-26.855,-17.090,-9.766,-4.883,0.000
1673805395.907,-23.438,-22.949,-11.230,11.230,0.000
1673805395.911,-24.902,-22.461,-14.160,10.254,0.000
1673805395.915,-26.855,-19.531,-11.230,-3.418,0.000
1673805395.919,-8.301,-20.020,-10.254,-6.836,0.000
1673805395.922,-6.348,-20.996,-15.625,-10.254,0.000
1673805395.926,-13.184,-23.438,-19.531,-14.648,0.000
1673805395.930,-3.418,-23.926,-17.090,-20.508,0.000
1673805395.934,-3.906,-16.602,-10.254,-12.207,0.000
1673805395.938,-3.906,-11.719,-11.719,-6.348,0.000
1673805395.942,-8.789,-17.578,-14.160,-7.324,0.000
1673805395.946,-14.648,-20.020,-12.207,-16.113,0.000
1673805395.950,-3.418,-17.578,-20.996,-30.762,0.000
1673805395.954,-10.742,-20.996,-26.855,-24.414,0.000
1673805395.958,-21.973,-23.926,-22.949,-9.766,0.000
1673805395.961,-12.695,-27.344,-21.484,-7.324,0.000
1673805395.965,-9.277,-22.949,-19.043,-8.301,0.000
1673805395.969,-23.438,-20.020,-9.766,1.465,0.000
1673805395.973,-34.668,-17.090,-2.930,8.789,0.000
1673805395.977,-27.832,-15.137,-6.836,7.812,0.000
1673805395.981,-28.320,-27.832,-14.648,-8.301,0.000
1673805395.985,-31.738,-23.926,-16.113,-9.766,0.000
1673805395.989,-19.531,-10.742,-10.742,3.418,0.000
1673805395.993,-27.832,-15.137,-12.695,0.488,0.000
1673805395.997,-32.227,-30.273,-15.625,-4.883,0.000
1673805396.001,-18.555,-28.809,-17.578,-10.254,0.000
1673805396.004,-22.461,-18.555,-21.973,-8.301,0.000
1673805396.008,-17.090,-19.531,-19.043,1.465,0.000
1673805396.012,-2.441,-21.973,-12.695,-0.488,0.000
1673805396.016,-8.301,-19.531,-10.254,-9.277,0.000
1673805396.020,-17.578,-21.973,-20.996,-21.973,0.000
1673805396.024,-17.090,-28.809,-25.879,-24.902,0.000
1673805396.028,-13.184,-28.320,-18.066,-20.996,0.000
1673805396.032,-18.555,-23.438,-20.996,-22.949,0.000
1673805396.036,-29.297,-23.926,-28.320,-17.090,0.000
1673805396.040,-34.668,-29.297,-29.297,-13.672,0.000
1673805396.044,-18.066,-29.297,-24.414,-12.207,0.000
1673805396.047,-0.488,-22.461,-21.484,-16.113,0.000
1673805396.051,-17.090,-24.414,-20.996,-17.578,0.000
1673805396.055,-27.832,-29.785,-28.320,-7.812,0.000
1673805396.059,-21.484,-26.855,-32.715,-11.230,0.000
1673805396.063,-16.113,-36.621,-29.785,-19.043,0.000
1673805396.067,-12.207,-31.738,-24.902,-15.625,0.000
1673805396.071,-12.695,-24.414,-23.926,-20.020,0.000
1673805396.075,-19.043,-24.902,-24.414,-10.254,0.000
1673805396.079,-27.832,-24.902,-27.344,0.977,0.000
1673805396.083,-21.484,-26.855,-31.738,1.465,0.000
1673805396.086,-18.555,-21.484,-28.320,-1.953,0.000
1673805396.090,-22.949,-21.484,-32.227,-12.207,0.000
1673805396.094,-37.598,-22.949,-35.156,-19.531,0.000
1673805396.098,-30.762,-25.879,-24.414,-4.395,0.000
1673805396.102,-27.344,-31.250,-25.391,0.977,0.000
1673805396.106,-44.922,-23.926,-27.832,-14.160,0.000
1673805396.110,-38.574,-12.695,-17.578,-8.301,0.000
1673805396.114,-26.367,-19.043,-20.020,-14.648,0.000
1673805396.118,-26.367,-27.832,-24.902,-24.414,0.000
1673805396.122,-28.320,-22.461,-23.438,-20.020,0.000
1673805396.126,-21.484,-14.648,-20.020,-9.277,0.000
1673805396.129,-19.043,-19.043,-18.066,-11.230,0.000
1673805396.133,-33.203,-21.484,-19.531,-19.043,0.000
1673805396.137,-41.016,-24.414,-20.996,-13.184,0.000
1673805396.141,-25.879,-30.762,-23.438,-20.996,0.000
1673805396.145,-28.320,-31.250,-24.902,-22.461,0.000
1673805396.149,-30.762,-28.320,-24.414,-19.043,0.000
1673805396.153,-30.273,-28.320,-28.320,-27.832,0.000
1673805396.157,-32.715,-30.762,-29.297,-25.391,0.000
1673805396.161,-20.996,-24.414,-24.902,-19.531,0.000
1673805396.165,-6.836,-17.578,-19.531,-23.438,0.000
1673805396.169,-4.883,-22.949,-22.461,-33.691,0.000
1673805396.172,-20.508,-23.438,-23.926,-27.832,0.000
1673805396.176,-30.273,-22.461,-23.926,-19.043,0.000
1673805396.180,-28.320,-33.691,-27.832,-21.973,0.000
1673805396.184,-25.879,-41.992,-25.391,-29.785,0.000
1673805396.188,-17.578,-30.762,-26.855,-19.531,0.000
1673805396.192,-17.578,-12.207,-32.227,-16.113,0.000
1673805396.196,-25.391,-3.418,-27.832,-28.809,0.000
1673805396.200,-17.090,0.000,-20.020,-17.578,0.000
1673805396.204,-12.695,-12.207,-28.320,-19.043,0.000
1673805396.208,-8.301,-23.438,-31.738,-19.531,0.000
1673805396.211,-12.207,-18.555,-24.902,-8.301,0.000
1673805396.215,-18.066,-10.742,-21.973,-2.930,0.000
1673805396.219,-24.414,-10.742,-20.020,-5.859,0.000
1673805396.223,-37.109,-16.113,-24.414,-5.859,0.000
1673805396.227,-29.785,-15.625,-24.902,-3.906,0.000
1673805396.231,-25.391,-18.066,-24.414,-10.742,0.000
1673805396.235,-28.809,-21.973,-28.320,-10.742,0.000
1673805396.239,-36.133,-24.902,-25.391,-8.789,0.000
1673805396.243,-33.691,-31.250,-22.949,-12.695,0.000
1673805396.247,-26.367,-32.227,-27.344,-18.066,0.000
1673805396.251,-23.438,-23.438,-33.203,-18.555,0.000
1673805396.254,-26.367,-20.020,-32.227,-19.043,0.000
1673805396.258,-36.621,-22.461,-31.250,-19.043,0.000
1673805396.262,-31.738,-23.926,-34.668,-18.066,0.000
1673805396.266,-31.250,-28.809,-32.227,-23.926,0.000
1673805396.270,-22.949,-28.809,-30.762,-21.484,0.000
1673805396.274,-13.184,-21.973,-38.086,-8.789,0.000
1673805396.278,-16.113,-27.344,-37.109,-12.695,0.000
1673805396.282,-14.160,-25.879,-30.762,-27.344,0.000
1673805396.286,-14.160,-27.344,-30.273,-28.809,0.000
1673805396.290,-7.324,-29.297,-30.273,-17.578,0.000
1673805396.294,4.395,-21.973,-28.320,-3.906,0.000
1673805396.297,-20.020,-26.367,-29.297,-5.859,0.000
1673805396.301,-42.480,-30.762,-30.273,-7.812,0.000
1673805396.305,-30.762,-29.297,-26.367,-1.465,0.000
1673805396.309,-27.344,-41.504,-23.926,3.906,0.000
1673805396.313,-39.062,-42.969,-29.785,2.441,0.000
1673805396.317,-41.992,-19.043,-34.668,-3.418,0.000
1673805396.321,-47.852,-9.766,-34.668,-6.348,0.000
1673805396.325,-47.363,-20.020,-30.762,3.418,0.000
1673805396.329,-31.250,-24.414,-29.785,4.883,0.000
1673805396.333,-34.668,-19.043,-35.156,-14.648,0.000
1673805396.336,-39.062,-30.762,-35.645,-10.742,0.000
1673805396.340,-27.344,-38.086,-32.715,-6.836,0.000
1673805396.344,-45.898,-31.250,-26.367,-19.531,0.000
1673805396.348,-61.035,-31.250,-26.367,-20.508,0.000
1673805396.352,-39.551,-25.391,-32.227,-20.996,0.000
1673805396.356,-23.926,-22.949,-37.598,-11.230,0.000
1673805396.360,-20.996,-27.344,-37.109,-11.719,0.000
1673805396.364,-13.184,-21.973,-29.297,-9.277,0.000
1673805396.368,-15.137,-16.113,-29.297,-11.230,0.000
1673805396.372,-36.621,-23.926,-32.227,-20.020,0.000
1673805396.376,-45.410,-29.785,-34.668,-14.160,0.000
1673805396.379,-38.086,-28.320,-32.715,-27.344,0.000
1673805396.383,-35.156,-26.855,-27.344,-41.504,0.000
1673805396.387,-30.762,-33.691,-30.273,-33.203,0.000
1673805396.391,-25.879,-29.297,-35.645,-32.227,0.000
1673805396.395,-25.879,-27.832,-31.250,-41.016,0.000
1673805396.399,-30.273,-36.621,-24.414,-36.621,0.000
1673805396.403,-33.203,-39.062,-27.832,-26.367,0.000
1673805396.407,-32.715,-34.668,-31.250,-25.391,0.000
1673805396.411,-34.668,-28.809,-27.832,-31.250,0.000
1673805396.415,-40.039,-29.297,-27.832,-23.926,0.000
1673805396.419,-27.344,-25.879,-29.785,-17.578,0.000
1673805396.422,-31.250,-29.785,-28.809,-23.926,0.000
1673805396.426,-36.621,-30.762,-19.531,-22.461,0.000
1673805396.430,-27.344,-23.438,-14.648,-7.812,0.000
1673805396.434,-27.344,-27.832,-20.508,-0.488,0.000
1673805396.438,-33.691,-38.086,-26.367,-2.930,0.000
1673805396.442,-28.809,-33.691,-29.785,-12.207,0.000
1673805396.446,-24.414,-19.531,-26.855,-15.137,0.000
1673805396.450,-40.039,-17.090,-23.926,-14.648,0.000
1673805396.454,-42.969,-23.926,-29.297,-16.113,0.000
1673805396.458,-33.691,-30.762,-32.715,-18.555,0.000
1673805396.461,-25.879,-22.461,-27.344,-30.762,0.000
1673805396.465,-25.391,-13.672,-18.555,-34.180,0.000
1673805396.469,-30.762,-23.926,-23.926,-25.879,0.000
1673805396.473,-27.344,-26.855,-31.250,-12.207,0.000
1673805396.477,-22.949,-16.602,-28.809,-6.348,0.000
1673805396.481,-25.391,-23.926,-29.785,-23.926,0.000
1673805396.485,-13.184,-32.227,-33.691,-33.203,0.000
1673805396.489,-9.277,-25.391,-32.715,-23.926,0.000
1673805396.493,-36.133,-26.855,-31.250,-23.926,0.000
1673805396.497,-51.270,-32.715,-32.715,-27.832,0.000
1673805396.501,-53.223,-29.785,-36.133,-23.438,0.000
1673805396.504,-55.664,-27.344,-39.062,-19.531,0.000
1673805396.508,-55.664,-27.344,-38.086,-28.320,0.000
1673805396.512,-43.457,-25.391,-38.086,-32.227,0.000
1673805396.516,-30.273,-27.344,-36.621,-34.180,0.000
1673805396.520,-35.645,-29.785,-33.691,-23.926,0.000
1673805396.524,-29.785,-30.273,-32.715,-19.043,0.000
1673805396.528,-15.137,-25.391,-29.785,-26.367,0.000
1673805396.532,-20.996,-23.438,-33.203,-26.367,0.000
1673805396.536,-33.691,-25.879,-30.762,-22.949,0.000
1673805396.540,-40.527,-21.484,-22.949,-22.461,0.000
1673805396.544,-28.809,-26.367,-25.391,-13.672,0.000
1673805396.547,-22.461,-25.879,-28.809,-16.602,0.000
1673805396.551,-29.297,-20.020,-27.344,-25.879,0.000
1673805396.555,-26.855,-23.438,-27.832,-33.203,0.000
1673805396.559,-40.039,-23.926,-28.320,-42.480,0.000
1673805396.563,-50.781,-20.020,-26.855,-37.598,0.000
1673805396.567,-37.598,-21.973,-24.902,-25.391,0.000
1673805396.571,-41.016,-28.809,-31.250,-30.273,0.000
1673805396.575,-26.855,-22.461,-30.762,-27.832,0.000
1673805396.579,-19.043,-16.113,-31.250,-16.113,0.000
1673805396.583,-37.109,-16.113,-30.273,-16.602,0.000
1673805396.586,-44.434,-20.996,-24.902,-26.855,0.000
1673805396.590,-37.598,-15.625,-18.066,-22.949,0.000
1673805396.594,-14.160,-5.859,-13.672,-8.789,0.000
1673805396.598,-9.277,-8.789,-19.531,-18.555,0.000
1673805396.602,-6.836,-16.602,-23.438,-17.090,0.000
1673805396.606,8.301,-16.602,-19.531,-2.441,0.000
1673805396.610,15.137,-13.184,-15.625,-15.137,0.000
1673805396.614,-0.977,-15.137,-19.531,-20.508,0.000
1673805396.618,-20.020,-16.113,-18.066,-16.602,0.000
1673805396.622,-26.855,-16.602,-17.578,-16.602,0.000
1673805396.626,-22.949,-20.020,-17.578,-11.230,0.000
1673805396.629,-15.137,-23.926,-17.578,-5.371,0.000
1673805396.633,-16.602,-29.785,-26.367,-19.043,0.000
1673805396.637,-17.090,-30.762,-31.738,-20.020,0.000
1673805396.641,-14.160,-24.902,-28.320,-2.930,0.000
1673805396.645,-20.996,-16.602,-21.484,7.324,0.000
1673805396.649,-15.137,-20.508,-16.113,4.395,0.000
1673805396.653,-9.766,-26.367,-16.113,4.395,0.000
1673805396.657,-9.766,-20.020,-14.160,8.789,0.000
1673805396.661,2.441,-13.184,-9.277,0.488,0.000
1673805396.665,-0.977,-12.695,-2.930,2.441,0.000
1673805396.669,-13.184,-20.020,-4.883,4.395,0.000
1673805396.672,-13.672,-23.438,-9.766,2.441,0.000
1673805396.676,-16.113,-20.020,-11.230,-11.719,0.000
1673805396.680,-16.113,-21.973,-13.672,-19.043,0.000
1673805396.684,-13.672,-22.461,-12.695,-4.395,0.000
1673805396.688,-13.672,-18.555,-14.648,-12.695,0.000
1673805396.692,-8.301,-21.484,-17.578,-19.531,0.000
1673805396.696,-8.789,-19.043,-14.648,-10.742,0.000
1673805396.700,-25.879,-14.160,-16.602,-13.184,0.000
1673805396.704,-33.203,-15.137,-21.484,-6.836,0.000
1673805396.708,-24.902,-23.438,-24.414,-5.371,0.000
1673805396.711,-11.230,-23.926,-23.438,-16.113,0.000
1673805396.715,-9.277,-16.602,-20.996,-17.090,0.000
1673805396.719,-24.414,-14.160,-19.531,-9.277,0.000
1673805396.723,-30.762,-19.043,-20.508,-6.836,0.000
1673805396.727,-20.996,-26.855,-23.926,-9.766,0.000
1673805396.731,-6.836,-25.391,-21.484,-15.137,0.000
1673805396.735,-11.719,-28.320,-18.555,-18.555,0.000
1673805396.739,-14.160,-44.434,-16.113,-6.348,0.000
1673805396.743,-27.344,-38.574,-14.648,4.395,0.000
1673805396.747,-43.457,-18.555,-19.043,-0.977,0.000
1673805396.751,-34.668,-11.719,-23.438,-12.207,0.000
1673805396.754,-38.086,-18.066,-25.391,-14.160,0.000
1673805396.758,-38.574,-24.902,-27.344,-23.926,0.000
1673805396.762,-28.809,-26.367,-26.367,-22.949,0.000
1673805396.766,-20.020,-27.832,-25.391,-13.184,0.000
1673805396.770,-23.926,-24.902,-26.367,-9.766,0.000
1673805396.774,-26.367,-20.508,-18.066,0.977,0.000
1673805396.778,-14.648,-14.648,-16.602,1.953,0.000
1673805396.782,-15.625,-15.625,-21.484,-4.395,0.000
1673805396.786,-18.066,-18.066,-25.391,6.348,0.000
1673805396.790,-14.648,-9.277,-29.785,6.348,0.000
1673805396.794,-19.043,-9.277,-28.320,-11.230,0.000
1673805396.797,-11.719,-11.719,-26.367,-17.578,0.000
1673805396.801,-12.207,-13.672,-31.250,-18.555,0.000
1673805396.805,-17.578,-16.113,-28.320,-15.137,0.000
1673805396.809,-24.902,-21.484,-20.508,-9.277,0.000
1673805396.813,-23.926,-25.879,-20.508,-17.578,0.000
1673805396.817,-1.465,-21.973,-19.531,-17.578,0.000
1673805396.821,-7.812,-18.555,-20.020,-17.578,0.000
1673805396.825,-11.719,-18.066,-18.555,-26.855,0.000
1673805396.829,-7.812,-22.949,-20.020,-17.090,0.000
1673805396.833,-26.367,-30.762,-28.320,-15.137,0.000
1673805396.836,-29.785,-28.809,-32.715,-22.461,0.000
1673805396.840,-36.133,-30.273,-30.273,-20.996,0.000
1673805396.844,-36.133,-30.273,-29.785,-16.113,0.000
1673805396.848,-16.602,-29.297,-35.645,-20.996,0.000
1673805396.852,-10.742,-40.039,-31.250,-23.926,0.000
1673805396.856,-24.902,-37.109,-23.926,-17.578,0.000
1673805396.860,-30.273,-18.066,-30.273,-18.555,0.000
1673805396.864,-28.809,-13.672,-30.762,-14.648,0.000
1673805396.868,-20.508,-16.602,-27.832,-17.578,0.000
1673805396.872,-15.137,-19.531,-31.250,-21.484,0.000
1673805396.876,-31.738,-23.926,-27.344,-11.719,0.000
1673805396.879,-30.762,-23.926,-28.320,-11.719,0.000
1673805396.883,-20.996,-16.113,-30.273,-15.137,0.000
1673805396.887,-17.578,-24.902,-31.250,-20.020,0.000
1673805396.891,-22.949,-27.832,-29.297,-16.113,0.000
1673805396.895,-19.531,-13.184,-25.391,-11.230,0.000
1673805396.899,-22.949,-18.066,-22.949,-9.277,0.000
1673805396.903,-30.762,-25.879,-24.414,-1.465,0.000
1673805396.907,-20.020,-18.555,-28.809,-1.465,0.000
1673805396.911,-13.184,-17.090,-26.367,-2.930,0.000
1673805396.915,-18.555,-25.879,-21.484,-8.301,0.000
1673805396.919,-14.160,-20.996,-21.973,-7.324,0.000
1673805396.922,-11.230,-19.531,-28.809,-4.883,0.000
1673805396.926,-15.137,-29.785,-31.738,-8.301,0.000
1673805396.930,-18.066,-30.762,-32.715,-15.137,0.000
1673805396.934,-18.555,-31.250,-31.250,-12.695,0.000
1673805396.938,-13.184,-33.691,-27.832,-10.254,0.000
1673805396.942,-11.230,-33.203,-22.949,-10.742,0.000
1673805396.946,-14.648,-26.367,-23.438,-3.906,0.000
1673805396.950,-7.324,-15.625,-20.508,-9.277,0.000
1673805396.954,-1.465,-9.766,-14.648,-2.930,0.000
1673805396.958,-14.160,-15.625,-20.508,0.488,0.000
1673805396.961,-18.555,-25.391,-20.020,-8.301,0.000
1673805396.965,-16.113,-29.297,-17.090,-11.719,0.000
1673805396.969,-18.555,-21.973,-20.020,-16.602,0.000
1673805396.973,-15.137,-18.555,-22.949,-12.207,0.000
1673805396.977,-8.789,-19.531,-21.973,-6.836,0.000
1673805396.981,-3.906,-19.531,-19.043,-5.859,0.000
1673805396.985,-0.488,-22.949,-18.555,-2.930,0.000
1673805396.989,-7.324,-28.809,-23.438,-11.719,0.000
1673805396.993,-11.230,-24.414,-31.250,-10.742,0.000
1673805396.997,-12.207,-16.113,-27.344,-2.441,0.000
1673805397.001,-15.137,-21.973,-28.320,-9.766,0.000
1673805397.004,-15.137,-30.762,-36.621,-19.531,0.000
1673805397.008,-22.461,-25.391,-35.645,-16.113,0.000
1673805397.012,-27.832,-22.461,-28.809,-20.020,0.000
1673805397.016,-23.438,-21.973,-24.414,-15.625,0.000
1673805397.020,-22.461,-17.578,-24.902,-14.648,0.000
1673805397.024,-12.695,-15.137,-32.227,-16.602,0.000
1673805397.028,-11.719,-20.996,-35.156,-18.066,0.000
1673805397.032,-14.160,-20.996,-28.320,-31.250,0.000
1673805397.036,-15.625,-24.902,-30.762,-17.090,0.000
1673805397.040,-20.020,-32.715,-33.203,-9.277,0.000
1673805397.044,-21.484,-22.461,-31.738,-20.508,0.000
1673805397.047,-20.508,-26.367,-32.227,-27.832,0.000
1673805397.051,-18.066,-34.668,-33.203,-22.949,0.000
1673805397.055,-24.902,-28.320,-36.621,-24.414,0.000
1673805397.059,-23.438,-19.043,-34.668,-29.297,0.000
1673805397.063,-24.902,-18.555,-34.668,-25.391,0.000
1673805397.067,-37.109,-26.367,-37.109,-24.902,0.000
1673805397.071,-43.945,-35.156,-29.785,-30.273,0.000
1673805397.075,-44.434,-35.156,-23.926,-29.785,0.000
1673805397.079,-37.109,-20.996,-20.996,-21.484,0.000
1673805397.083,-37.109,-25.879,-21.973,-24.414,0.000
1673805397.086,-36.621,-38.086,-23.926,-22.949,0.000
1673805397.090,-24.414,-30.762,-23.438,-17.090,0.000
1673805397.094,-23.438,-28.320,-29.297,-31.250,0.000
1673805397.098,-29.785,-37.598,-30.273,-37.109,0.000
1673805397.102,-35.156,-41.016,-27.832,-28.809,0.000
1673805397.106,-39.062,-27.344,-28.320,-27.344,0.000
1673805397.110,-34.180,-21.484,-31.738,-25.879,0.000
1673805397.114,-35.156,-22.949,-33.691,-19.043,0.000
1673805397.118,-38.086,-27.344,-32.715,-16.602,0.000
1673805397.122,-46.875,-34.668,-29.785,-13.672,0.000
1673805397.126,-49.316,-29.785,-26.855,-14.160,0.000
1673805397.129,-36.621,-26.855,-24.902,-30.762,0.000
1673805397.133,-24.414,-25.391,-24.902,-28.809,0.000
1673805397.137,-19.531,-23.438,-25.391,-23.438,0.000
1673805397.141,-23.438,-24.414,-27.832,-22.461,0.000
1673805397.145,-16.602,-21.484,-29.785,-20.996,0.000
1673805397.149,-13.184,-20.996,-29.297,-22.461,0.000
1673805397.153,-17.090,-25.879,-29.297,-18.066,0.000
1673805397.157,-16.602,-23.438,-32.227,-24.902,0.000
1673805397.161,-20.508,-21.973,-34.180,-20.508,0.000
1673805397.165,-22.949,-17.578,-35.645,-21.973,0.000
1673805397.169,-20.996,-16.113,-41.016,-37.109,0.000
1673805397.172,-27.344,-24.414,-36.133,-33.203,0.000
1673805397.176,-25.879,-29.297,-32.227,-26.855,0.000
1673805397.180,-22.461,-30.273,-35.645,-28.320,0.000
1673805397.184,-26.367,-29.297,-32.715,-26.367,0.000
1673805397.188,-18.066,-24.414,-30.273,-25.391,0.000
1673805397.192,-19.043,-28.320,-33.203,-27.832,0.000
1673805397.196,-35.156,-31.738,-35.156,-36.133,0.000
1673805397.200,-44.922,-22.461,-38.574,-31.250,0.000
1673805397.204,-42.480,-27.832,-39.062,-23.438,0.000
1673805397.208,-32.715,-35.156,-38.574,-23.438,0.000
1673805397.211,-28.809,-37.109,-41.504,-31.250,0.000
1673805397.215,-25.879,-32.715,-42.480,-38.574,0.000
1673805397.219,-25.391,-23.438,-36.621,-27.832,0.000
1673805397.223,-31.250,-23.438,-32.715,-12.207,0.000
1673805397.227,-41.504,-25.391,-35.645,-19.531,0.000
1673805397.231,-34.180,-31.738,-36.133,-27.344,0.000
1673805397.235,-21.973,-36.133,-36.133,-21.973,0.000
1673805397.239,-22.949,-33.203,-32.715,-23.926,0.000
1673805397.243,-31.250,-35.156,-33.203,-26.855,0.000
1673805397.247,-47.852,-35.156,-35.156,-27.832,0.000
1673805397.251,-45.410,-31.250,-31.250,-30.273,0.000
1673805397.254,-35.156,-32.227,-30.762,-27.832,0.000
1673805397.258,-33.203,-36.621,-31.250,-20.996,0.000
1673805397.262,-31.738,-31.738,-33.691,-25.879,0.000
1673805397.266,-24.414,-23.438,-28.809,-27.344,0.000
1673805397.270,-20.996,-27.832,-26.367,-18.555,0.000
1673805397.274,-24.414,-29.785,-28.320,-20.508,0.000
1673805397.278,-20.996,-21.484,-26.855,-34.668,0.000
1673805397.282,-11.719,-24.414,-29.297,-35.645,0.000
1673805397.286,2.441,-32.227,-30.273,-21.484,0.000
1673805397.290,7.812,-25.879,-33.203,-19.043,0.000
1673805397.294,-5.371,-23.926,-35.156,-24.902,0.000
1673805397.297,-7.812,-25.391,-33.691,-25.391,0.000
1673805397.301,-7.324,-27.832,-37.598,-28.320,0.000
1673805397.305,-19.531,-32.227,-35.645,-18.066,0.000
1673805397.309,-12.207,-30.762,-31.738,-9.277,0.000
1673805397.313,-16.113,-26.855,-31.738,-17.578,0.000
1673805397.317,-25.391,-36.133,-34.668,-20.020,0.000
1673805397.321,-17.578,-43.945,-32.227,-10.254,0.000
1673805397.325,-12.207,-35.645,-23.438,-15.137,0.000
1673805397.329,-18.066,-31.738,-26.855,-23.926,0.000
1673805397.333,-20.996,-33.203,-31.250,-16.602,0.000
1673805397.336,-20.508,-31.738,-24.902,-7.324,0.000
1673805397.340,-34.180,-25.391,-19.531,0.977,0.000
1673805397.344,-41.016,-26.855,-18.555,-1.465,0.000
1673805397.348,-29.297,-25.879,-17.578,-11.719,0.000
1673805397.352,-19.043,-25.879,-18.555,-14.648,0.000
1673805397.356,-12.207,-25.391,-18.066,-4.395,0.000
1673805397.360,-18.555,-27.344,-19.531,7.812,0.000
1673805397.364,-25.879,-26.367,-25.879,-6.836,0.000
1673805397.368,-24.414,-20.020,-28.320,-24.414,0.000
1673805397.372,-24.414,-18.066,-26.855,-12.695,0.000
1673805397.376,-25.879,-13.672,-20.996,-2.441,0.000
1673805397.379,-23.926,-15.137,-17.090,-5.859,0.000
1673805397.383,-10.254,-19.531,-20.996,-13.672,0.000
1673805397.387,-3.906,-21.973,-23.438,-23.926,0.000
1673805397.391,-17.578,-23.438,-21.484,-23.438,0.000
1673805397.395,-19.531,-21.484,-20.508,-20.508,0.000
1673805397.399,-19.043,-20.020,-19.043,-17.578,0.000
1673805397.403,-13.184,-14.160,-17.578,-5.371,0.000
1673805397.407,-8.301,-16.602,-22.949,-9.277,0.000
1673805397.411,-19.531,-17.578,-22.461,-16.113,0.000
1673805397.415,-17.578,-15.625,-21.484,-19.043,0.000
1673805397.419,-5.371,-16.113,-19.043,-14.160,0.000
1673805397.422,-14.160,-5.859,-16.113,-1.953,0.000
1673805397.426,-15.625,-13.184,-15.137,-5.371,0.000
1673805397.430,0.977,-28.809,-10.254,-2.441,0.000
1673805397.434,-8.301,-23.438,-8.301,6.348,0.000
1673805397.438,-23.926,-12.695,-10.254,3.418,0.000
1673805397.442,-13.184,-16.602,-8.301,1.465,0.000
1673805397.446,-0.977,-20.508,-8.301,1.953,0.000
1673805397.450,-11.719,-4.395,-11.719,-1.953,0.000
1673805397.454,-17.090,0.977,-11.230,-0.977,0.000
1673805397.458,-12.207,-5.371,-13.184,-4.883,0.000
1673805397.461,-3.418,-2.441,-12.695,-4.883,0.000
1673805397.465,-2.441,-2.930,-10.254,1.953,0.000
1673805397.469,-21.484,-14.648,-14.648,0.488,0.000
1673805397.473,-18.555,-12.207,-11.719,-0.977,0.000
1673805397.477,-12.695,-6.836,-6.348,1.953,0.000
1673805397.481,-22.949,-11.719,-13.672,-4.395,0.000
1673805397.485,-8.789,-11.230,-14.648,1.465,0.000
1673805397.489,-8.789,-10.254,-12.695,6.836,0.000
1673805397.493,-17.578,-6.836,-11.230,4.395,0.000
1673805397.497,-11.230,-3.906,-12.207,5.371,0.000
1673805397.501,-8.789,-9.766,-20.020,-2.930,0.000
1673805397.504,-12.695,-13.672,-19.531,-11.719,0.000
1673805397.508,-6.836,-11.719,-17.090,-10.254,0.000
1673805397.512,-10.742,-12.695,-20.020,-8.301,0.000
1673805397.516,-19.043,-15.625,-19.531,-14.648,0.000
1673805397.520,-13.672,-17.090,-18.555,-8.789,0.000
1673805397.524,-15.137,-19.043,-19.531,-7.324,0.000
1673805397.528,-26.855,-17.090,-18.066,-18.066,0.000
1673805397.532,-28.809,-21.484,-21.484,-15.625,0.000
1673805397.536,-23.926,-18.555,-19.043,-11.719,0.000
1673805397.540,-22.949,-15.137,-17.578,-10.742,0.000
1673805397.544,-31.250,-22.949,-25.391,-10.742,0.000
1673805397.547,-32.715,-18.066,-26.855,-12.695,0.000
1673805397.551,-19.531,-9.766,-23.438,-9.277,0.000
1673805397.555,-21.484,-20.508,-23.438,-4.883,0.000
1673805397.559,-28.320,-29.297,-27.832,-16.602,0.000
1673805397.563,-20.020,-22.949,-30.273,-22.461,0.000
1673805397.567,-14.160,-22.949,-29.297,-13.672,0.000
1673805397.571,-27.832,-23.926,-31.250,-11.230,0.000
1673805397.575,-19.531,-19.043,-35.156,-14.648,0.000
1673805397.579,-11.719,-20.996,-37.598,-15.625,0.000
1673805397.583,-18.066,-20.996,-36.133,-20.996,0.000
1673805397.587,-13.184,-18.555,-27.344,-21.484,0.000
1673805397.590,-14.648,-23.438,-22.949,-9.277,0.000
1673805397.594,-10.254,-21.484,-23.926,-0.977,0.000
1673805397.598,0.977,-21.484,-17.578,4.883,0.000
1673805397.602,-0.977,-26.855,-20.996,0.488,0.000
1673805397.606,-16.602,-24.902,-26.367,-14.648,0.000
1673805397.610,-37.598,-24.902,-24.414,-10.254,0.000
1673805397.614,-33.691,-19.043,-27.832,-5.859,0.000
1673805397.618,-32.715,-16.113,-31.250,-18.555,0.000
1673805397.622,-42.480,-26.855,-25.879,-16.602,0.000
1673805397.626,-27.832,-29.297,-19.531,-4.883,0.000
1673805397.629,-19.043,-30.762,-23.438,-12.695,0.000
1673805397.633,-24.902,-21.973,-27.832,-17.578,0.000
1673805397.637,-34.668,-22.949,-26.367,-16.602,0.000
1673805397.641,-24.902,-25.879,-28.809,-18.066,0.000
1673805397.645,-4.883,-24.902,-30.762,-18.066,0.000
1673805397.649,-8.789,-32.227,-20.020,-22.461,0.000
1673805397.653,-15.137,-33.691,-14.160,-21.973,0.000
1673805397.657,-16.113,-24.902,-15.137,-11.719,0.000
1673805397.661,-18.066,-21.973,-14.648,-10.742,0.000
1673805397.665,-20.508,-28.809,-16.113,-9.766,0.000
1673805397.669,-15.625,-40.039,-19.531,-10.742,0.000
1673805397.672,-15.137,-36.133,-21.484,-10.742,0.000
1673805397.676,-28.809,-21.484,-15.137,-5.371,0.000
1673805397.680,-41.504,-25.879,-13.672,-10.742,0.000
1673805397.684,-48.340,-26.367,-16.602,-12.207,0.000
1673805397.688,-28.320,-17.090,-14.160,-8.789,0.000
1673805397.692,-18.555,-19.531,-20.508,-11.230,0.000
1673805397.696,-14.160,-20.508,-29.297,-19.531,0.000
1673805397.700,-13.672,-20.020,-28.809,-32.227,0.000
1673805397.704,-24.902,-20.020,-29.785,-23.438,0.000
1673805397.708,-31.250,-15.625,-28.320,-4.395,0.000
1673805397.712,-38.574,-23.438,-27.832,-11.230,0.000
1673805397.715,-27.344,-24.902,-29.785,-18.555,0.000
1673805397.719,-15.625,-18.555,-21.973,-13.184,0.000
1673805397.723,-24.902,-21.484,-19.043,-14.648,0.000
1673805397.727,-20.508,-26.367,-20.996,-13.184,0.000
1673805397.731,-20.020,-22.461,-23.926,-6.836,0.000
1673805397.735,-28.320,-15.137,-27.832,-5.859,0.000
1673805397.739,-25.391,-15.625,-32.715,-14.648,0.000
1673805397.743,-23.438,-20.996,-32.227,-23.926,0.000
1673805397.747,-22.949,-20.508,-27.344,-16.602,0.000
1673805397.751,-28.320,-21.484,-23.926,-11.719,0.000
1673805397.754,-29.297,-22.949,-19.531,-12.695,0.000
1673805397.758,-31.738,-28.809,-26.855,-13.184,0.000
1673805397.762,-30.762,-30.273,-32.227,-19.531,0.000
1673805397.766,-15.625,-29.785,-32.227,-24.902,0.000
1673805397.770,-0.977,-24.414,-29.785,-16.602,0.000
1673805397.774,-10.254,-18.555,-29.785,-5.371,0.000
1673805397.778,-24.414,-21.973,-30.762,-5.371,0.000
1673805397.782,-26.367,-25.879,-22.949,-9.277,0.000
1673805397.786,-26.855,-27.832,-26.367,-14.160,0.000
1673805397.790,-22.949,-29.785,-28.809,-8.301,0.000
1673805397.794,-23.926,-24.902,-24.414,-7.812,0.000
1673805397.797,-24.902,-24.414,-28.320,-14.648,0.000
1673805397.801,-20.996,-36.133,-23.438,-4.395,0.000
1673805397.805,-32.715,-39.062,-16.113,-13.184,0.000
1673805397.809,-30.273,-26.367,-20.508,-34.668,0.000
1673805397.813,-22.949,-24.902,-25.391,-29.297,0.000
1673805397.817,-25.391,-31.738,-26.367,-27.832,0.000
1673805397.821,-17.578,-28.809,-27.832,-23.926,0.000
1673805397.825,-20.508,-20.996,-27.832,-19.043,0.000
1673805397.829,-21.484,-23.926,-24.902,-25.391,0.000
1673805397.833,-23.438,-36.133,-28.320,-30.762,0.000
1673805397.837,-25.879,-34.668,-27.832,-33.691,0.000
1673805397.840,-30.273,-29.297,-26.367,-21.973,0.000
1673805397.844,-38.086,-30.273,-28.809,-20.996,0.000
1673805397.848,-34.180,-28.809,-24.414,-27.344,0.000
1673805397.852,-29.297,-26.855,-21.484,-20.020,0.000
1673805397.856,-32.227,-26.367,-25.879,-21.973,0.000
1673805397.860,-35.645,-25.879,-31.250,-34.180,0.000
1673805397.864,-28.809,-28.320,-31.250,-45.410,0.000
1673805397.868,-24.414,-29.785,-28.809,-44.922,0.000
1673805397.872,-25.391,-27.344,-30.273,-33.203,0.000
1673805397.876,-31.738,-35.156,-27.832,-28.320,0.000
1673805397.879,-46.387,-40.527,-28.809,-28.320,0.000
1673805397.883,-43.457,-35.645,-32.715,-23.438,0.000
1673805397.887,-35.156,-36.621,-30.273,-19.531,0.000
1673805397.891,-32.715,-45.898,-25.391,-21.973,0.000
1673805397.895,-36.133,-42.969,-23.438,-26.855,0.000
1673805397.899,-43.945,-33.691,-20.508,-29.297,0.000
1673805397.903,-49.316,-35.645,-21.973,-23.438,0.000
1673805397.907,-47.852,-29.785,-22.949,-11.230,0.000
1673805397.911,-37.598,-39.062,-20.508,-19.043,0.000
1673805397.915,-35.156,-52.734,-23.926,-25.879,0.000
1673805397.919,-32.715,-50.293,-24.902,-26.367,0.000
1673805397.922,-26.367,-45.410,-24.414,-26.367,0.000
1673805397.926,-20.020,-41.992,-19.531,-19.043,0.000
1673805397.930,-34.668,-45.410,-20.508,-21.484,0.000
1673805397.934,-44.922,-43.457,-27.344,-23.926,0.000
1673805397.938,-22.949,-35.156,-26.855,-18.555,0.000
1673805397.942,-7.812,-29.297,-18.066,-13.672,0.000
1673805397.946,-13.672,-33.203,-18.066,-24.414,0.000
1673805397.950,-11.230,-32.715,-24.902,-26.367,0.000
1673805397.954,-2.441,-30.273,-24.414,-25.391,0.000
1673805397.958,-10.742,-26.855,-21.973,-10.254,0.000
1673805397.962,-14.160,-30.273,-28.809,-9.766,0.000
1673805397.965,-20.508,-37.598,-34.668,-19.531,0.000
1673805397.969,-18.066,-28.809,-25.391,-20.508,0.000
1673805397.973,-14.648,-24.902,-20.508,-13.184,0.000
1673805397.977,-32.227,-29.297,-21.973,-5.371,0.000
1673805397.981,-35.645,-34.668,-21.973,-16.113,0.000
1673805397.985,-28.809,-33.203,-26.367,-13.672,0.000
1673805397.989,-22.949,-34.180,-26.367,3.418,0.000
1673805397.993,-26.367,-41.992,-27.832,-2.441,0.000
1673805397.997,-34.180,-46.387,-25.391,-15.137,0.000
1673805398.001,-28.809,-41.992,-20.996,-13.184,0.000
1673805398.004,-23.438,-36.133,-25.879,-13.672,0.000
1673805398.008,-26.855,-36.621,-27.832,-13.184,0.000
1673805398.012,-29.785,-33.203,-29.785,-6.836,0.000
1673805398.016,-28.809,-31.250,-31.250,-19.043,0.000
1673805398.020,-23.926,-28.320,-28.809,-17.090,0.000
1673805398.024,-29.297,-34.180,-28.809,-12.207,0.000
1673805398.028,-26.855,-31.738,-35.156,-25.391,0.000
1673805398.032,-10.742,-20.508,-35.645,-22.461,0.000
1673805398.036,-12.207,-25.391,-33.691,-20.020,0.000
1673805398.040,-20.996,-32.227,-34.668,-18.066,0.000
1673805398.044,-14.648,-26.855,-34.180,-21.973,0.000
1673805398.047,-16.113,-25.879,-37.109,-30.273,0.000
1673805398.051,-36.621,-33.203,-41.992,-25.391,0.000
1673805398.055,-25.391,-28.809,-39.551,-23.438,0.000
1673805398.059,-24.902,-27.832,-31.738,-31.250,0.000
1673805398.063,-36.133,-29.297,-33.203,-32.715,0.000
1673805398.067,-29.785,-30.762,-30.273,-25.391,0.000
1673805398.071,-26.367,-35.645,-23.926,-29.785,0.000
1673805398.075,-43.457,-36.621,-30.762,-29.785,0.000
1673805398.079,-55.176,-40.527,-35.645,-22.461,0.000
1673805398.083,-46.387,-38.086,-33.691,-25.879,0.000
1673805398.087,-41.016,-34.668,-31.738,-37.109,0.000
1673805398.090,-40.039,-31.250,-32.715,-43.457,0.000
1673805398.094,-30.273,-29.785,-33.203,-38.574,0.000
1673805398.098,-20.996,-26.855,-32.715,-36.621,0.000
1673805398.102,-27.344,-29.297,-33.203,-34.180,0.000
1673805398.106,-42.480,-31.738,-34.668,-33.691,0.000
1673805398.110,-42.969,-28.320,-31.738,-27.832,0.000
1673805398.114,-47.363,-29.297,-34.180,-28.809,0.000
1673805398.118,-53.223,-25.879,-37.598,-40.039,0.000
1673805398.122,-49.805,-32.715,-39.062,-40.527,0.000
1673805398.126,-48.340,-36.133,-40.039,-39.551,0.000
1673805398.129,-38.574,-24.902,-37.598,-40.527,0.000
1673805398.133,-29.297,-26.367,-29.785,-36.621,0.000
1673805398.137,-22.949,-32.227,-25.391,-26.367,0.000
1673805398.141,-21.484,-33.203,-24.902,-32.715,0.000
1673805398.145,-19.531,-31.250,-26.855,-39.062,0.000
1673805398.149,-14.648,-29.297,-30.273,-40.527,0.000
1673805398.153,-10.742,-29.297,-31.738,-33.691,0.000
1673805398.157,-7.324,-22.949,-31.738,-30.762,0.000
1673805398.161,-14.648,-20.996,-25.391,-29.297,0.000
1673805398.165,-19.531,-24.902,-32.227,-25.879,0.000
1673805398.169,-14.648,-28.809,-29.297,-18.066,0.000
1673805398.172,-20.996,-33.203,-20.996,-17.090,0.000
1673805398.176,-22.461,-28.809,-24.414,-32.227,0.000
1673805398.180,-23.438,-28.809,-21.973,-28.320,0.000
1673805398.184,-17.578,-35.645,-18.066,-12.207,0.000
1673805398.188,-10.254,-29.785,-24.902,-9.277,0.000
1673805398.192,-11.719,-23.926,-25.879,-15.625,0.000
1673805398.196,-13.672,-29.297,-18.066,-13.184,0.000
1673805398.200,-8.789,-25.879,-20.508,-13.672,0.000
1673805398.204,-5.371,-19.531,-19.043,-13.672,0.000
1673805398.208,-13.184,-19.043,-16.113,-0.488,0.000
1673805398.212,-21.973,-18.066,-15.625,9.277,0.000
1673805398.215,-26.855,-15.625,-16.113,6.348,0.000
1673805398.219,-31.250,-19.043,-16.113,1.465,0.000
1673805398.223,-37.109,-22.461,-14.160,5.371,0.000
1673805398.227,-30.762,-18.555,-8.789,-2.930,0.000
1673805398.231,-16.602,-19.043,-9.277,-16.602,0.000
1673805398.235,-6.348,-16.602,-9.766,-6.836,0.000
1673805398.239,-8.789,-19.043,-9.277,1.953,0.000
1673805398.243,-10.742,-24.902,-14.160,8.789,0.000
1673805398.247,-9.766,-19.531,-11.719,23.926,0.000
1673805398.251,-26.855,-19.531,-7.812,21.484,0.000
1673805398.254,-37.598,-22.949,-11.230,11.719,0.000
1673805398.258,-26.855,-15.137,-11.230,11.719,0.000
1673805398.262,-17.090,-16.113,-8.301,-1.465,0.000
1673805398.266,-19.531,-22.461,-12.695,-19.043,0.000
1673805398.270,-16.113,-17.578,-13.672,-14.648,0.000
1673805398.274,-5.859,-19.531,-12.207,-6.836,0.000
1673805398.278,-6.348,-17.090,-11.230,-7.812,0.000
1673805398.282,-13.672,-16.602,-15.137,-20.508,0.000
1673805398.286,-20.020,-23.926,-18.555,-22.461,0.000
1673805398.290,-28.320,-22.949,-18.555,-14.648,0.000
1673805398.294,-20.996,-22.949,-24.414,-23.438,0.000
1673805398.297,0.977,-23.438,-26.855,-28.809,0.000
1673805398.301,5.371,-30.762,-25.879,-25.391,0.000
1673805398.305,-16.602,-17.578,-21.973,-7.324,0.000
1673805398.309,-27.832,-0.488,-19.043,-0.977,0.000
1673805398.313,-30.762,-10.254,-27.344,-12.695,0.000
1673805398.317,-32.227,-17.090,-29.785,-15.625,0.000
1673805398.321,-31.738,-20.996,-25.879,-17.090,0.000
1673805398.325,-27.832,-22.949,-28.809,-13.184,0.000
1673805398.329,-28.809,-18.555,-23.926,-12.695,0.000
1673805398.333,-27.344,-16.602,-21.484,-18.555,0.000
1673805398.337,-20.996,-20.996,-27.344,-12.207,0.000
1673805398.340,-15.137,-24.414,-20.996,-10.254,0.000
1673805398.344,-18.066,-24.902,-16.602,-14.648,0.000
1673805398.348,-26.855,-21.484,-17.578,-17.578,0.000
1673805398.352,-16.113,-25.391,-21.973,-20.996,0.000
1673805398.356,-21.973,-29.297,-25.391,-15.137,0.000
1673805398.360,-35.156,-19.531,-21.484,-8.789,0.000
1673805398.364,-36.133,-23.926,-25.391,-17.578,0.000
1673805398.368,-30.762,-28.320,-28.320,-17.090,0.000
1673805398.372,-25.391,-32.227,-27.832,-24.902,0.000
1673805398.376,-20.020,-33.691,-25.879,-28.809,0.000
1673805398.379,-8.789,-25.879,-26.855,-20.508,0.000
1673805398.383,-15.625,-30.273,-33.691,-22.949,0.000
1673805398.387,-30.762,-34.668,-33.203,-25.391,0.000
1673805398.391,-27.832,-34.668,-29.297,-16.602,0.000
1673805398.395,-10.254,-39.551,-26.367,3.418,0.000
1673805398.399,-13.184,-34.668,-28.320,1.465,0.000
1673805398.403,-9.277,-24.902,-30.273,-16.113,0.000
1673805398.407,-11.230,-25.879,-22.461,-19.043,0.000
1673805398.411,-19.043,-24.902,-17.090,-9.766,0.000
1673805398.415,-11.230,-18.555,-21.973,-8.789,0.000
1673805398.419,-3.906,-13.672,-24.902,-16.602,0.000
1673805398.422,-3.906,-17.578,-25.879,-18.066,0.000
1673805398.426,-5.859,-21.973,-25.879,-21.484,0.000
1673805398.430,0.977,-29.297,-27.832,-24.414,0.000
1673805398.434,-9.277,-40.039,-31.250,-20.508,0.000
1673805398.438,-20.020,-28.320,-26.855,-8.301,0.000
1673805398.442,-22.949,-20.996,-26.367,-6.348,0.000
1673805398.446,-23.926,-33.691,-28.320,-16.602,0.000
1673805398.450,-15.625,-35.156,-26.367,-14.160,0.000
1673805398.454,-14.648,-23.926,-25.879,-11.230,0.000
1673805398.458,-27.344,-29.297,-21.973,-5.859,0.000
1673805398.462,-37.109,-24.414,-23.438,-13.672,0.000
1673805398.465,-42.480,-18.066,-24.414,-20.020,0.000
1673805398.469,-41.504,-27.344,-19.043,-0.488,0.000
1673805398.473,-31.738,-23.438,-17.578,-5.371,0.000
1673805398.477,-22.949,-16.602,-17.578,-24.414,0.000
1673805398.481,-8.301,-14.648,-13.184,-17.578,0.000
1673805398.485,-10.254,-22.949,-15.625,-7.812,0.000
1673805398.489,-25.391,-27.344,-20.508,-17.090,0.000
1673805398.493,-27.344,-22.461,-22.949,-21.484,0.000
1673805398.497,-23.438,-22.461,-24.414,-14.648,0.000
1673805398.501,-26.855,-23.926,-23.438,-9.277,0.000
1673805398.504,-26.855,-27.344,-25.391,-9.277,0.000
1673805398.508,-26.367,-24.414,-22.461,-10.254,0.000
1673805398.512,-16.113,-20.508,-11.719,-1.953,0.000
1673805398.516,-8.789,-24.414,-6.836,-0.977,0.000
1673805398.520,-19.043,-23.926,-10.254,-10.254,0.000
1673805398.524,-28.809,-24.414,-14.160,-19.043,0.000
1673805398.528,-25.879,-24.414,-19.043,-19.043,0.000
1673805398.532,-20.020,-23.438,-22.461,-17.090,0.000
1673805398.536,-27.344,-27.344,-26.367,-23.926,0.000
1673805398.540,-24.902,-31.738,-24.902,-29.297,0.000
1673805398.544,-17.090,-31.738,-23.926,-22.949,0.000
1673805398.547,-24.414,-33.203,-23.926,-22.949,0.000
1673805398.551,-31.250,-40.039,-21.973,-27.344,0.000
1673805398.555,-35.645,-40.039,-22.949,-22.461,0.000
1673805398.559,-33.203,-38.086,-26.367,-20.020,0.000
1673805398.563,-33.691,-36.133,-31.250,-23.438,0.000
1673805398.567,-39.062,-39.551,-30.762,-19.531,0.000
1673805398.571,-41.016,-37.598,-29.297,-14.160,0.000
1673805398.575,-41.016,-33.691,-27.344,-5.859,0.000
1673805398.579,-37.598,-37.598,-29.785,-2.930,0.000
1673805398.583,-34.180,-24.902,-33.691,-11.719,0.000
1673805398.587,-23.438,-18.066,-28.809,-20.020,0.000
1673805398.590,-24.902,-26.367,-27.832,-18.066,0.000
1673805398.594,-30.762,-29.297,-28.320,-21.484,0.000
1673805398.598,-21.484,-33.203,-26.367,-22.461,0.000
1673805398.602,-14.160,-30.273,-27.344,-13.184,0.000
1673805398.606,-24.414,-30.273,-31.250,-13.184,0.000
1673805398.610,-29.297,-37.598,-35.156,-32.715,0.000
1673805398.614,-28.320,-34.668,-33.203,-49.805,0.000
1673805398.618,-25.391,-34.668,-30.762,-40.039,0.000
1673805398.622,-10.742,-30.273,-31.738,-25.391,0.000
1673805398.626,-12.695,-30.762,-24.902,-15.137,0.000
1673805398.629,-24.902,-35.645,-24.902,-17.090,0.000
1673805398.633,-7.812,-28.809,-33.203,-12.695,0.000
1673805398.637,-12.695,-32.227,-31.250,-10.254,0.000
1673805398.641,-28.320,-33.691,-26.855,-16.113,0.000
1673805398.645,-15.625,-25.879,-25.391,-15.137,0.000
1673805398.649,-16.113,-34.668,-25.391,-15.625,0.000
1673805398.653,-29.785,-42.969,-23.926,-15.625,0.000
1673805398.657,-38.574,-35.156,-23.438,-15.625,0.000
1673805398.661,-28.320,-29.785,-20.020,-4.395,0.000
1673805398.665,-12.695,-28.320,-19.531,-4.883,0.000
1673805398.669,-18.066,-27.832,-24.902,-20.996,0.000
1673805398.672,-37.109,-42.969,-31.250,-31.738,0.000
1673805398.676,-35.156,-55.664,-30.762,-30.273,0.000
1673805398.680,-24.902,-34.668,-34.668,-35.645,0.000
1673805398.684,-30.273,-23.438,-40.527,-29.297,0.000
1673805398.688,-31.738,-30.273,-36.621,-26.367,0.000
1673805398.692,-31.738,-33.691,-30.273,-29.785,0.000
1673805398.696,-25.879,-31.738,-25.879,-21.973,0.000
1673805398.700,-23.926,-33.203,-28.809,-23.926,0.000
1673805398.704,-34.180,-36.133,-33.203,-21.484,0.000
1673805398.708,-34.668,-35.156,-33.203,-7.324,0.000
1673805398.712,-37.109,-29.297,-28.320,-10.254,0.000
1673805398.715,-35.645,-27.344,-22.949,-17.578,0.000
1673805398.719,-27.832,-25.391,-23.926,-16.113,0.000
1673805398.723,-21.973,-20.508,-25.391,-18.066,0.000
1673805398.727,-20.996,-24.902,-26.855,-35.156,0.000
1673805398.731,-19.531,-30.273,-30.273,-43.457,0.000
1673805398.735,-26.855,-29.785,-26.367,-30.762,0.000
1673805398.739,-33.203,-34.180,-21.484,-15.625,0.000
1673805398.743,-34.180,-29.785,-22.461,-5.371,0.000
1673805398.747,-26.367,-21.973,-23.438,-4.883,0.000
1673805398.751,-21.484,-25.391,-23.438,-18.555,0.000
1673805398.754,-23.926,-31.250,-25.391,-32.227,0.000
1673805398.758,-27.344,-34.180,-27.344,-32.227,0.000
1673805398.762,-15.137,-30.273,-26.367,-24.414,0.000
1673805398.766,-11.719,-29.297,-31.250,-19.043,0.000
1673805398.770,-32.715,-30.273,-34.180,-13.672,0.000
1673805398.774,-39.551,-27.344,-27.832,-12.695,0.000
1673805398.778,-39.551,-29.297,-28.320,-20.508,0.000
1673805398.782,-29.297,-26.855,-24.414,-27.344,0.000
1673805398.786,-15.137,-20.996,-16.602,-27.344,0.000
1673805398.790,-15.625,-32.227,-21.484,-20.020,0.000
1673805398.794,-7.812,-29.297,-21.973,-22.461,0.000
1673805398.797,-3.906,-16.113,-21.973,-36.621,0.000
1673805398.801,-32.715,-26.367,-26.367,-35.156,0.000
1673805398.805,-46.875,-30.762,-29.297,-18.066,0.000
1673805398.809,-34.668,-22.949,-28.320,-16.113,0.000
1673805398.813,-16.602,-30.273,-27.832,-19.531,0.000
1673805398.817,-10.742,-33.691,-33.203,-8.789,0.000
1673805398.821,-16.113,-29.297,-34.180,1.953,0.000
1673805398.825,-10.254,-30.762,-31.250,4.883,0.000
1673805398.829,-14.648,-27.832,-31.738,-12.695,0.000
1673805398.833,-19.531,-32.715,-29.297,-19.531,0.000
1673805398.837,-12.207,-40.527,-32.715,-19.531,0.000
1673805398.840,-11.719,-36.621,-33.203,-21.973,0.000
1673805398.844,-24.902,-33.203,-26.367,-11.719,0.000
1673805398.848,-29.297,-41.016,-29.785,-15.625,0.000
1673805398.852,-29.297,-46.875,-30.273,-20.508,0.000
1673805398.856,-35.156,-40.039,-30.762,-15.625,0.000
1673805398.860,-34.180,-43.945,-33.203,-15.625,0.000
1673805398.864,-31.738,-41.992,-32.715,-30.273,0.000
1673805398.868,-34.180,-39.551,-39.062,-36.133,0.000
1673805398.872,-34.668,-40.527,-38.574,-31.738,0.000
1673805398.876,-45.898,-36.133,-37.109,-31.738,0.000
1673805398.879,-55.176,-37.598,-37.598,-32.227,0.000
1673805398.883,-44.922,-42.969,-36.621,-45.410,0.000
1673805398.887,-35.645,-42.969,-34.668,-41.016,0.000
1673805398.891,-27.832,-39.551,-35.645,-40.527,0.000
1673805398.895,-24.902,-39.062,-40.039,-52.734,0.000
1673805398.899,-31.250,-35.645,-39.551,-42.480,0.000
1673805398.903,-24.414,-39.551,-35.156,-25.391,0.000
1673805398.907,-21.973,-41.504,-35.156,-20.508,0.000
1673805398.911,-39.062,-40.527,-35.156,-18.555,0.000
1673805398.915,-48.828,-34.668,-27.344,-15.625,0.000
1673805398.919,-39.551,-30.273,-21.973,-18.555,0.000
1673805398.922,-19.043,-39.551,-27.344,-21.484,0.000
1673805398.926,-19.531,-33.691,-28.809,-34.180,0.000
1673805398.930,-29.297,-26.367,-25.391,-31.250,0.000
1673805398.934,-37.598,-32.227,-28.320,-20.020,0.000
1673805398.938,-44.434,-40.039,-31.250,-20.508,0.000
1673805398.942,-33.203,-34.668,-27.344,-11.719,0.000
1673805398.946,-28.320,-32.715,-26.367,-14.160,0.000
1673805398.950,-19.043,-32.715,-28.809,-18.066,0.000
1673805398.954,-18.555,-33.691,-33.203,-4.395,0.000
1673805398.958,-25.879,-34.668,-31.250,-4.395,0.000
1673805398.962,-15.625,-34.668,-28.320,-10.254,0.000
1673805398.965,-21.973,-35.645,-30.273,-4.395,0.000
1673805398.969,-30.762,-31.738,-32.227,-10.254,0.000
1673805398.973,-20.996,-32.227,-35.645,-29.785,0.000
1673805398.977,-18.066,-26.855,-36.133,-37.109,0.000
1673805398.981,-10.254,-16.602,-25.879,-14.160,0.000
1673805398.985,-9.277,-20.020,-18.555,-3.906,0.000
1673805398.989,-13.672,-28.809,-20.996,-12.207,0.000
1673805398.993,-23.926,-28.320,-21.484,-5.859,0.000
1673805398.997,-15.137,-24.902,-23.438,-14.160,0.000
1673805399.001,-3.906,-28.809,-25.879,-27.832,0.000
1673805399.004,-9.277,-31.738,-24.414,-18.555,0.000
1673805399.008,-7.324,-21.973,-20.020,-18.555,0.000
1673805399.012,-19.043,-21.484,-19.043,-19.043,0.000
1673805399.016,-31.250,-24.902,-16.113,-13.184,0.000
1673805399.020,-24.902,-18.555,-8.301,0.488,0.000
1673805399.024,-26.367,-13.184,-6.836,10.254,0.000
1673805399.028,-32.227,-20.020,-13.184,-16.113,0.000
1673805399.032,-22.949,-27.344,-22.461,-40.039,0.000
1673805399.036,-9.277,-25.879,-21.484,-23.438,0.000
1673805399.040,-14.160,-22.461,-16.113,-20.020,0.000
1673805399.044,-13.672,-14.648,-18.066,-20.508,0.000
1673805399.047,-7.324,-15.625,-20.508,-25.879,0.000
1673805399.051,-27.832,-20.020,-14.648,-30.762,0.000
1673805399.055,-23.926,-12.695,-11.719,-14.648,0.000
1673805399.059,-12.695,-15.137,-15.625,-14.160,0.000
1673805399.063,-12.695,-22.461,-19.531,-24.414,0.000
1673805399.067,-20.508,-18.066,-15.625,-15.625,0.000
1673805399.071,-34.668,-14.160,-14.160,-1.465,0.000
1673805399.075,-32.715,-18.066,-20.020,-2.930,0.000
1673805399.079,-30.762,-21.484,-22.949,-5.371,0.000
1673805399.083,-25.879,-18.555,-21.484,-0.977,0.000
1673805399.087,-16.113,-18.066,-21.973,4.395,0.000
1673805399.090,-2.930,-22.949,-18.555,-0.488,0.000
1673805399.094,6.348,-20.508,-15.625,-5.859,0.000
1673805399.098,1.465,-16.113,-13.672,-4.883,0.000
1673805399.102,-0.488,-17.090,-17.578,-5.859,0.000
1673805399.106,-0.488,-19.531,-23.926,-9.766,0.000
1673805399.110,-3.418,-15.625,-21.484,-15.137,0.000
1673805399.114,1.953,-13.184,-22.949,-13.672,0.000
1673805399.118,-9.766,-20.996,-29.785,-12.207,0.000
1673805399.122,-38.086,-25.391,-31.250,-13.184,0.000
1673805399.126,-42.480,-20.996,-22.949,2.441,0.000
1673805399.129,-15.137,-23.438,-21.973,-8.789,0.000
1673805399.133,-4.395,-30.273,-28.320,-20.508,0.000
1673805399.137,-25.879,-31.738,-25.879,-6.836,0.000
1673805399.141,-24.414,-32.715,-21.973,-3.418,0.000
1673805399.145,-13.672,-29.297,-19.531,-7.324,0.000
1673805399.149,-21.484,-27.344,-20.996,-11.719,0.000
1673805399.153,-25.879,-22.949,-22.949,-10.742,0.000
1673805399.157,-17.090,-20.508,-24.902,-10.254,0.000
1673805399.161,-12.207,-18.555,-29.785,-7.324,0.000
1673805399.165,-11.719,-15.625,-32.715,-12.695,0.000
1673805399.169,0.488,-22.461,-35.645,-14.648,0.000
1673805399.172,-10.742,-31.250,-34.180,-4.883,0.000
1673805399.176,-29.297,-29.785,-28.320,-6.348,0.000
1673805399.180,-9.766,-27.344,-28.320,-22.461,0.000
1673805399.184,7.324,-22.461,-30.762,-18.066,0.000
1673805399.188,5.371,-17.578,-28.320,-5.371,0.000
1673805399.192,-6.348,-23.926,-32.227,-13.672,0.000
1673805399.196,-32.715,-24.414,-33.691,-16.113,0.000
1673805399.200,-31.250,-24.902,-26.855,-8.301,0.000
1673805399.204,-12.207,-31.738,-21.484,-0.488,0.000
1673805399.208,-11.230,-28.320,-20.996,-3.906,0.000
1673805399.212,-8.301,-24.414,-26.367,-22.461,0.000
1673805399.215,-20.508,-28.809,-30.273,-28.320,0.000
1673805399.219,-36.621,-31.738,-33.203,-20.996,0.000
1673805399.223,-26.855,-31.738,-33.691,-18.555,0.000
1673805399.227,-19.531,-29.785,-29.297,-20.508,0.000
1673805399.231,-6.836,-24.902,-30.273,-27.344,0.000
1673805399.235,-9.766,-18.555,-35.645,-23.926,0.000
1673805399.239,-19.043,-14.648,-41.992,-21.973,0.000
1673805399.243,-9.277,-18.555,-37.109,-26.855,0.000
1673805399.247,-24.902,-25.391,-32.227,-20.020,0.000
1673805399.251,-38.574,-27.344,-33.691,-12.695,0.000
1673805399.254,-27.344,-30.273,-33.203,-27.344,0.000
1673805399.258,-16.113,-25.879,-29.297,-27.344,0.000
1673805399.262,-17.090,-23.926,-27.832,-22.949,0.000
1673805399.266,-20.996,-28.809,-31.250,-31.250,0.000
1673805399.270,-9.277,-20.020,-33.203,-29.785,0.000
1673805399.274,-20.996,-20.508,-31.738,-26.367,0.000
1673805399.278,-25.391,-27.344,-29.785,-29.785,0.000
1673805399.282,-27.344,-27.344,-36.133,-26.855,0.000
1673805399.286,-41.504,-31.250,-36.621,-17.090,0.000
1673805399.290,-39.062,-30.273,-27.344,-8.789,0.000
1673805399.294,-34.180,-23.926,-24.414,-7.812,0.000
1673805399.297,-20.508,-24.414,-23.438,-15.137,0.000
1673805399.301,-11.719,-30.273,-23.926,-28.809,0.000
1673805399.305,-11.230,-34.180,-31.738,-34.180,0.000
1673805399.309,-25.391,-34.180,-31.738,-25.879,0.000
1673805399.313,-36.133,-36.133,-30.273,-19.043,0.000
1673805399.317,-24.414,-30.762,-29.785,-23.438,0.000
1673805399.321,-20.996,-27.344,-28.320,-22.949,0.000
1673805399.325,-29.297,-37.109,-28.809,-20.996,0.000
1673805399.329,-31.250,-37.598,-25.391,-23.438,0.000
1673805399.333,-21.973,-26.367,-26.855,-26.367,0.000
1673805399.337,-11.719,-26.855,-25.391,-19.043,0.000
1673805399.340,-10.742,-32.715,-26.855,-18.555,0.000
1673805399.344,-17.578,-30.762,-25.879,-20.020,0.000
1673805399.348,-30.273,-25.879,-22.461,-12.695,0.000
1673805399.352,-27.832,-26.855,-24.414,-5.859,0.000
1673805399.356,-26.855,-33.203,-22.949,0.977,0.000
1673805399.360,-10.742,-30.762,-27.344,-6.348,0.000
1673805399.364,-1.953,-26.367,-29.785,-9.766,0.000
1673805399.368,-18.066,-25.391,-26.367,0.000,0.000
1673805399.372,-13.184,-21.484,-24.902,0.000,0.000
1673805399.376,-9.277,-24.902,-26.367,-5.859,0.000
1673805399.379,-17.090,-36.621,-27.344,-11.719,0.000
1673805399.383,-22.949,-34.180,-27.344,-9.277,0.000
1673805399.387,-22.949,-31.738,-30.273,-10.254,0.000
1673805399.391,-15.137,-30.273,-31.738,-19.531,0.000
1673805399.395,-9.766,-27.344,-29.785,-28.320,0.000
1673805399.399,-5.859,-39.062,-32.227,-33.203,0.000
1673805399.403,-23.926,-36.621,-30.762,-27.344,0.000
1673805399.407,-27.344,-26.855,-27.832,-24.902,0.000
1673805399.411,-25.391,-30.273,-26.855,-27.832,0.000
1673805399.415,-33.691,-31.738,-27.344,-27.832,0.000
1673805399.419,-19.531,-22.461,-27.344,-24.414,0.000
1673805399.422,-30.762,-29.297,-23.438,-12.695,0.000
1673805399.426,-34.668,-42.480,-22.949,-7.812,0.000
1673805399.430,-22.949,-39.062,-22.949,-13.184,0.000
1673805399.434,-24.902,-41.016,-25.391,-18.555,0.000
1673805399.438,-27.344,-35.645,-28.320,-17.578,0.000
1673805399.442,-28.809,-29.297,-23.438,-13.184,0.000
1673805399.446,-27.344,-33.691,-21.484,-19.043,0.000
1673805399.450,-24.414,-34.180,-28.809,-29.785,0.000
1673805399.454,-8.789,-33.203,-26.367,-13.184,0.000
1673805399.458,-2.441,-25.879,-24.902,-5.859,0.000
1673805399.462,-23.926,-23.926,-27.832,-13.672,0.000
1673805399.465,-22.461,-28.809,-25.879,-12.207,0.000
1673805399.469,-19.531,-26.367,-28.809,-17.090,0.000
1673805399.473,-23.926,-24.902,-31.250,-14.648,0.000
1673805399.477,-19.531,-30.273,-34.668,-16.602,0.000
1673805399.481,-28.320,-36.621,-36.133,-20.996,0.000
1673805399.485,-35.156,-41.504,-30.273,-15.137,0.000
1673805399.489,-36.621,-45.410,-31.250,-18.555,0.000
1673805399.493,-39.551,-40.527,-31.250,-25.391,0.000
1673805399.497,-44.434,-34.180,-26.367,-23.926,0.000
1673805399.501,-38.574,-35.645,-26.367,-20.996,0.000
1673805399.504,-33.203,-39.062,-28.320,-25.879,0.000
1673805399.508,-27.832,-41.016,-23.438,-25.879,0.000
1673805399.512,-20.020,-42.969,-21.484,-20.020,0.000
1673805399.516,-28.320,-35.645,-32.715,-15.137,0.000
1673805399.520,-30.273,-25.879,-36.621,-12.207,0.000
1673805399.524,-20.996,-28.320,-40.039,-27.832,0.000
1673805399.528,-24.902,-31.250,-39.551,-32.715,0.000
1673805399.532,-28.320,-28.320,-36.621,-36.133,0.000
1673805399.536,-38.086,-27.344,-35.645,-35.645,0.000
1673805399.540,-29.297,-23.926,-34.668,-21.973,0.000
1673805399.544,-22.461,-21.484,-32.715,-17.090,0.000
1673805399.547,-25.879,-27.832,-37.109,-13.672,0.000
1673805399.551,-17.090,-36.621,-39.062,-16.602,0.000
1673805399.555,-0.977,-27.832,-32.715,-16.602,0.000
1673805399.559,-5.859,-19.531,-31.738,-23.926,0.000
1673805399.563,-19.043,-33.691,-25.391,-27.832,0.000
1673805399.567,-20.020,-39.551,-26.855,-39.062,0.000
1673805399.571,-26.367,-32.227,-32.227,-44.434,0.000
1673805399.575,-31.738,-30.273,-26.855,-32.715,0.000
1673805399.579,-28.809,-31.250,-23.438,-31.738,0.000
1673805399.583,-23.926,-37.598,-26.367,-35.156,0.000
1673805399.587,-27.344,-43.457,-26.367,-29.297,0.000
1673805399.590,-23.438,-41.016,-22.949,-20.508,0.000
1673805399.594,-32.227,-42.969,-26.367,-24.902,0.000
1673805399.598,-27.832,-38.086,-32.715,-30.762,0.000
1673805399.602,-24.414,-32.715,-29.785,-33.203,0.000
1673805399.606,-28.809,-40.039,-25.879,-26.855,0.000
1673805399.610,-30.273,-40.039,-26.367,-12.695,0.000
1673805399.614,-42.969,-29.785,-25.879,-16.113,0.000
1673805399.618,-41.504,-31.250,-26.367,-26.855,0.000
1673805399.622,-40.527,-39.062,-28.320,-16.602,0.000
1673805399.626,-45.410,-36.621,-23.926,-10.254,0.000
1673805399.629,-41.016,-32.715,-24.902,-20.508,0.000
1673805399.633,-27.832,-32.227,-25.391,-15.137,0.000
1673805399.637,-19.531,-26.855,-23.438,-12.207,0.000
1673805399.641,-18.066,-26.855,-25.391,-24.902,0.000
1673805399.645,-26.367,-34.668,-31.250,-37.598,0.000
1673805399.649,-27.832,-40.039,-32.715,-37.109,0.000
1673805399.653,-34.180,-40.039,-28.320,-17.578,0.000
1673805399.657,-33.203,-31.738,-33.203,-17.090,0.000
1673805399.661,-32.227,-33.203,-39.551,-20.996,0.000
1673805399.665,-31.738,-36.621,-41.016,-16.602,0.000
1673805399.669,-28.809,-38.086,-37.598,-17.090,0.000
1673805399.672,-37.109,-46.387,-32.715,-13.184,0.000
1673805399.676,-26.367,-41.504,-29.297,-9.766,0.000
1673805399.680,-15.137,-35.645,-29.785,-17.578,0.000
1673805399.684,-41.016,-41.992,-29.297,-26.367,0.000
1673805399.688,-44.434,-39.551,-31.738,-17.090,0.000
1673805399.692,-16.113,-33.203,-38.574,-15.137,0.000
1673805399.696,-19.531,-36.621,-37.109,-31.250,0.000
1673805399.700,-19.531,-40.039,-35.156,-34.668,0.000
1673805399.704,-24.414,-40.039,-35.156,-31.738,0.000
1673805399.708,-39.551,-33.203,-35.645,-29.785,0.000
1673805399.712,-21.484,-23.926,-29.297,-25.879,0.000
1673805399.715,-6.836,-28.809,-32.715,-10.742,0.000
1673805399.719,-14.160,-32.227,-33.691,-7.812,0.000
1673805399.723,-12.207,-30.762,-24.414,-10.742,0.000
1673805399.727,-8.301,-32.715,-24.414,-8.301,0.000
1673805399.731,-9.766,-31.250,-25.391,-11.230,0.000
1673805399.735,-0.977,-30.273,-29.785,-18.066,0.000
1673805399.739,-16.113,-30.273,-33.203,-20.508,0.000
1673805399.743,-33.203,-33.691,-35.645,-21.973,0.000
1673805399.747,-40.039,-31.738,-37.109,-23.926,0.000
1673805399.751,-28.809,-30.762,-36.133,-13.184,0.000
1673805399.754,-27.832,-34.180,-33.691,-9.766,0.000
1673805399.758,-37.109,-26.367,-23.926,-15.137,0.000
1673805399.762,-29.297,-21.484,-22.949,-16.113,0.000
1673805399.766,-23.926,-29.785,-27.832,-9.277,0.000
1673805399.770,-14.648,-34.180,-23.438,3.418,0.000
1673805399.774,-21.484,-26.855,-21.973,0.000,0.000
1673805399.778,-17.090,-25.879,-21.484,-7.324,0.000
1673805399.782,-8.301,-21.973,-24.902,-7.324,0.000
1673805399.786,-24.414,-14.648,-23.438,-13.672,0.000
1673805399.790,-17.578,-12.207,-18.555,-17.090,0.000
1673805399.794,-6.348,-9.277,-19.043,-20.508,0.000
1673805399.797,-14.160,-21.484,-21.973,-21.973,0.000
1673805399.801,-4.883,-18.555,-20.508,-17.578,0.000
1673805399.805,6.348,-7.324,-18.066,-9.766,0.000
1673805399.809,0.488,-19.043,-20.020,-13.184,0.000
1673805399.813,-8.301,-30.273,-19.531,-20.508,0.000
1673805399.817,-5.859,-25.391,-17.578,-10.254,0.000
1673805399.821,3.418,-13.672,-13.672,-6.348,0.000
1673805399.825,-4.395,-7.324,-14.648,-4.883,0.000
1673805399.829,-14.648,-9.766,-9.766,0.000,0.000
1673805399.833,-7.812,-14.648,-7.324,-0.977,0.000
1673805399.837,-10.742,-15.625,-15.137,-1.465,0.000
1673805399.840,-19.531,-16.113,-12.695,-0.977,0.000
1673805399.844,-16.113,-17.578,-10.254,-13.184,0.000
1673805399.848,-5.371,-18.555,-11.719,-10.742,0.000
1673805399.852,-5.371,-29.297,-10.254,9.766,0.000
1673805399.856,-9.766,-36.621,-13.184,-3.418,0.000
1673805399.860,-9.766,-20.996,-13.672,-9.277,0.000
1673805399.864,-8.789,-13.184,-10.742,-4.395,0.000
1673805399.868,-22.949,-14.160,-9.766,-2.930,0.000
1673805399.872,-30.762,-14.160,-8.789,6.836,0.000
1673805399.876,-15.137,-16.602,-10.254,9.766,0.000
1673805399.879,-7.812,-16.602,-17.090,3.906,0.000
1673805399.883,-3.418,-20.996,-18.555,-6.348,0.000
1673805399.887,-3.906,-27.344,-14.648,-10.742,0.000
1673805399.891,-24.414,-22.461,-16.602,-11.719,0.000
1673805399.895,-19.531,-24.414,-18.555,-20.020,0.000
1673805399.899,-10.742,-26.367,-17.578,-22.461,0.000
1673805399.903,-13.184,-26.855,-20.020,-12.207,0.000
1673805399.907,-6.836,-32.227,-21.484,-2.441,0.000
1673805399.911,-6.348,-30.273,-19.043,-2.441,0.000
1673805399.915,0.000,-20.020,-16.602,-12.207,0.000
1673805399.919,-5.859,-8.789,-12.207,-8.789,0.000
1673805399.922,-29.785,-18.066,-15.137,-13.672,0.000
1673805399.926,-44.434,-25.879,-20.996,-12.695,0.000
1673805399.930,-47.852,-24.902,-20.020,0.000,0.000
1673805399.934,-27.832,-28.809,-21.973,-10.742,0.000
1673805399.938,-12.695,-29.785,-22.949,-13.184,0.000
1673805399.942,-7.324,-36.621,-22.461,-19.043,0.000
1673805399.946,-20.508,-37.109,-26.367,-28.809,0.000
1673805399.950,-36.621,-22.461,-24.414,-28.809,0.000
1673805399.954,-29.297,-15.137,-23.438,-26.855,0.000
1673805399.958,-30.273,-20.508,-27.344,-21.973,0.000
