timestamp,TP9,AF7,AF8,TP10,Right AUX
0.000,-77.637,-46.875,-20.996,-60.059,0.000
4.000,-83.496,-31.250,-21.484,-62.500,0.000
8.000,-103.027,-32.715,-29.785,-75.684,0.000
12.000,-90.332,-31.738,-28.809,-71.289,0.000
16.000,-74.219,-26.855,-23.438,-64.941,0.000
20.000,-81.543,-21.973,-24.414,-71.289,0.000
23.000,-90.332,-23.926,-20.996,-68.359,0.000
27.000,-82.031,-25.391,-18.066,-57.617,0.000
31.000,-70.312,-20.996,-16.602,-56.152,0.000
35.000,-71.777,-20.996,-20.996,-70.312,0.000
39.000,-68.848,-34.668,-19.043,-71.289,0.000
43.000,-73.730,-48.828,-15.625,-57.129,0.000
47.000,-70.312,-32.715,-13.672,-49.316,0.000
51.000,-64.453,-3.906,-13.184,-48.340,0.000
55.000,-72.754,-26.367,-20.020,-52.734,0.000
59.000,-73.242,-50.781,-25.391,-51.758,0.000
62.000,-71.289,-27.344,-21.973,-49.316,0.000
66.000,-61.523,-22.461,-14.160,-51.758,0.000
70.000,-47.852,-21.484,-11.230,-45.898,0.000
74.000,-47.363,-22.949,-17.090,-36.133,0.000
78.000,-43.457,-29.785,-25.879,-44.922,0.000
82.000,-33.691,-22.949,-16.602,-42.480,0.000
86.000,-48.340,-26.855,-14.160,-35.156,0.000
90.000,-67.871,-28.320,-20.996,-42.969,0.000
94.000,-78.613,-29.785,-16.602,-33.691,0.000
98.000,-57.617,-33.691,-9.766,-23.926,0.000
102.000,-39.551,-11.230,-2.930,-26.855,0.000
105.000,-61.035,-11.230,-12.695,-38.574,0.000
109.000,-55.176,-21.973,-20.508,-40.039,0.000
113.000,-45.410,-26.855,-18.066,-38.086,0.000
117.000,-60.547,-29.785,-14.160,-36.621,0.000
121.000,-47.363,-29.785,-12.207,-28.320,0.000
125.000,-41.016,-28.809,-19.531,-29.297,0.000
129.000,-32.227,-27.832,-28.320,-30.273,0.000
133.000,-14.160,-13.184,-27.832,-17.578,0.000
137.000,-20.996,-15.137,-23.438,-13.672,0.000
141.000,-35.156,-20.996,-24.414,-20.508,0.000
145.000,-22.949,-12.695,-21.484,-11.230,0.000
148.000,0.000,-11.719,-20.508,-7.812,0.000
152.000,-1.465,-12.695,-21.484,-14.160,0.000
156.000,-6.836,-18.555,-20.996,-15.625,0.000
160.000,-3.418,-21.973,-21.973,-15.625,0.000
164.000,-9.766,-19.043,-18.555,-8.789,0.000
168.000,-9.277,-24.414,-15.625,-12.695,0.000
172.000,-27.344,-21.973,-16.113,-15.625,0.000
176.000,-41.016,-23.438,-20.020,-17.578,0.000
180.000,-26.855,-19.531,-22.949,-15.625,0.000
184.000,-12.207,-17.578,-21.484,-17.090,0.000
187.000,-21.973,-25.391,-20.020,-28.320,0.000
191.000,-25.879,-15.137,-20.508,-24.902,0.000
195.000,-16.113,-10.742,-20.020,-15.137,0.000
199.000,-21.973,-11.719,-24.902,-10.742,0.000
203.000,-19.531,-17.578,-22.949,-16.113,0.000
207.000,-20.020,-23.926,-15.137,-24.902,0.000
211.000,-25.391,-13.672,-20.020,-23.438,0.000
215.000,-26.855,-16.113,-27.344,-27.832,0.000
219.000,-14.648,-19.043,-20.020,-25.879,0.000
223.000,-8.301,-7.812,-12.207,-13.184,0.000
227.000,-5.859,-8.789,-11.719,-16.113,0.000
230.000,5.371,-14.160,-13.184,-23.926,0.000
234.000,-4.395,-19.043,-19.531,-28.320,0.000
238.000,-26.367,-21.973,-18.555,-30.273,0.000
242.000,-29.785,-16.602,-11.230,-26.367,0.000
246.000,-35.645,-12.695,-14.648,-22.461,0.000
250.000,-37.598,-10.254,-19.043,-16.602,0.000
254.000,-26.855,-6.836,-15.625,-15.625,0.000
258.000,-16.602,-12.695,-15.625,-25.391,0.000
262.000,-3.418,-14.160,-11.719,-32.715,0.000
266.000,1.465,-12.695,-12.695,-24.902,0.000
270.000,-18.066,-10.254,-17.090,-8.301,0.000
273.000,-42.480,-14.648,-21.484,-19.531,0.000
277.000,-39.062,-20.996,-20.020,-23.438,0.000
281.000,-27.344,-20.996,-16.113,-16.113,0.000
285.000,-27.344,-25.879,-20.508,-21.484,0.000
289.000,-28.809,-11.230,-14.648,-13.672,0.000
293.000,-22.461,-1.465,-4.883,-5.371,0.000
297.000,-15.625,-7.324,-11.230,-10.742,0.000
301.000,-12.207,-14.160,-11.719,-10.742,0.000
305.000,-13.184,-17.090,-11.230,-17.578,0.000
309.000,-12.207,-9.277,-8.301,-16.602,0.000
312.000,-9.766,-13.184,-5.371,-2.930,0.000
316.000,-21.973,-13.672,-19.531,-17.090,0.000
320.000,-24.414,-13.672,-27.344,-31.250,0.000
324.000,-10.742,-19.043,-21.973,-23.438,0.000
328.000,-11.719,-22.949,-20.996,-22.949,0.000
332.000,-26.855,-28.809,-22.949,-28.320,0.000
336.000,-32.715,-21.973,-23.926,-34.180,0.000
340.000,-32.715,-17.578,-20.996,-32.227,0.000
344.000,-24.902,-23.438,-14.648,-20.996,0.000
348.000,-20.508,-30.273,-18.066,-19.043,0.000
352.000,3.418,-26.367,-16.602,-3.418,0.000
355.000,12.695,-15.625,-8.301,2.441,0.000
359.000,-25.391,-17.578,-16.113,-31.738,0.000
363.000,-42.480,-20.996,-22.461,-42.480,0.000
367.000,-41.504,-21.973,-21.973,-38.574,0.000
371.000,-31.250,-21.973,-34.668,-41.992,0.000
375.000,-30.273,-22.461,-41.504,-33.203,0.000
379.000,-27.832,-27.344,-36.621,-27.832,0.000
383.000,-23.438,-32.227,-34.668,-25.391,0.000
387.000,-20.508,-28.809,-32.715,-18.555,0.000
391.000,-27.344,-31.250,-33.691,-20.996,0.000
395.000,-23.438,-34.180,-35.645,-24.902,0.000
398.000,-23.926,-32.715,-40.039,-28.809,0.000
402.000,-20.996,-31.250,-36.133,-26.367,0.000
406.000,-10.254,-28.320,-30.762,-16.602,0.000
410.000,0.000,-29.785,-34.180,-20.508,0.000
414.000,2.441,-29.785,-31.738,-11.719,0.000
418.000,-8.789,-27.832,-31.250,-6.836,0.000
422.000,-14.160,-32.227,-32.227,-12.207,0.000
426.000,-24.414,-35.645,-30.762,-15.625,0.000
430.000,-19.531,-30.273,-29.785,-18.066,0.000
434.000,-2.930,-22.949,-25.391,-16.602,0.000
437.000,11.230,-15.625,-21.484,-13.672,0.000
441.000,6.348,-15.137,-20.996,-12.695,0.000
445.000,-7.812,-19.043,-26.367,-9.277,0.000
449.000,-16.602,-29.785,-23.438,-7.812,0.000
453.000,-27.832,-34.180,-20.020,-20.020,0.000
457.000,-30.273,-28.809,-18.066,-23.438,0.000
461.000,-23.438,-22.461,-19.043,-24.414,0.000
465.000,-28.809,-23.438,-25.879,-21.973,0.000
469.000,-45.410,-31.250,-26.367,-20.996,0.000
473.000,-37.109,-24.902,-20.508,-19.043,0.000
477.000,-23.926,-16.113,-20.996,-20.020,0.000
480.000,-7.812,-13.672,-18.555,-12.695,0.000
484.000,3.906,-10.742,-12.207,-12.207,0.000
488.000,-5.371,-11.230,-13.672,-23.926,0.000
492.000,-2.441,-15.137,-17.578,-11.719,0.000
496.000,-10.742,-18.066,-16.113,-9.277,0.000
500.000,-26.855,-16.113,-15.137,-18.555,0.000
504.000,-24.902,-16.602,-14.648,-19.043,0.000
508.000,-25.391,-21.484,-20.020,-26.367,0.000
512.000,-22.461,-20.996,-22.949,-28.320,0.000
516.000,-27.832,-21.973,-14.648,-18.066,0.000
520.000,-41.504,-23.926,-13.672,-19.531,0.000
523.000,-36.621,-24.902,-21.484,-24.414,0.000
527.000,-30.762,-30.273,-22.949,-22.949,0.000
531.000,-26.855,-26.855,-14.160,-17.090,0.000
535.000,-18.555,-24.902,-11.719,-12.207,0.000
539.000,-10.742,-28.809,-20.020,-15.625,0.000
543.000,-19.531,-27.832,-24.902,-21.973,0.000
547.000,-22.949,-26.855,-20.996,-18.066,0.000
551.000,-26.855,-27.344,-16.113,-11.719,0.000
555.000,-35.156,-24.414,-19.043,-17.578,0.000
559.000,-29.297,-21.973,-20.996,-17.578,0.000
562.000,-24.414,-24.414,-21.484,-9.766,0.000
566.000,-22.461,-24.414,-25.879,-8.789,0.000
570.000,-17.578,-22.461,-21.484,-15.137,0.000
574.000,-9.277,-17.578,-20.508,-20.996,0.000
578.000,-11.719,-21.484,-25.391,-18.555,0.000
582.000,-10.254,-23.438,-22.949,-18.555,0.000
586.000,-15.137,-18.066,-15.625,-21.484,0.000
590.000,-33.203,-19.531,-14.648,-15.137,0.000
594.000,-31.738,-24.414,-20.020,-14.648,0.000
598.000,-17.578,-23.926,-20.996,-15.625,0.000
602.000,-13.672,-22.461,-26.367,-22.461,0.000
605.000,-25.391,-23.926,-30.762,-27.832,0.000
609.000,-39.551,-26.855,-27.832,-19.531,0.000
613.000,-48.340,-32.227,-30.762,-25.879,0.000
617.000,-42.969,-29.297,-32.715,-30.273,0.000
621.000,-38.574,-30.762,-33.691,-30.762,0.000
625.000,-40.039,-31.250,-32.715,-25.391,0.000
629.000,-28.320,-26.855,-32.227,-22.461,0.000
633.000,-18.066,-33.203,-36.621,-23.926,0.000
637.000,-11.230,-31.738,-29.297,-21.484,0.000
641.000,-15.137,-21.484,-22.461,-21.973,0.000
645.000,-25.391,-24.902,-29.785,-16.113,0.000
648.000,-22.949,-31.250,-34.668,-17.090,0.000
652.000,-26.855,-23.926,-30.762,-20.020,0.000
656.000,-20.996,-18.555,-32.227,-25.391,0.000
660.000,-8.789,-20.020,-28.809,-30.762,0.000
664.000,-8.301,-23.438,-26.855,-22.949,0.000
668.000,-18.555,-25.391,-28.809,-19.043,0.000
672.000,-37.598,-26.367,-31.738,-26.855,0.000
676.000,-34.668,-26.855,-31.738,-25.879,0.000
680.000,-19.531,-33.691,-27.832,-17.578,0.000
684.000,-18.066,-30.273,-22.461,-14.160,0.000
687.000,-21.484,-21.484,-20.508,-20.020,0.000
691.000,-16.113,-22.949,-24.902,-23.926,0.000
695.000,-6.836,-25.879,-25.879,-24.902,0.000
699.000,-15.137,-28.320,-24.902,-31.250,0.000
703.000,-32.227,-29.785,-23.438,-28.809,0.000
707.000,-39.062,-32.227,-26.367,-32.227,0.000
711.000,-39.062,-33.691,-27.344,-39.551,0.000
715.000,-32.227,-33.691,-20.508,-35.156,0.000
719.000,-32.227,-33.691,-21.484,-28.809,0.000
723.000,-33.691,-34.180,-22.949,-30.762,0.000
727.000,-14.648,-36.133,-20.508,-30.273,0.000
730.000,0.000,-38.574,-23.438,-16.602,0.000
734.000,-28.809,-40.039,-23.926,-26.855,0.000
738.000,-48.828,-37.598,-20.996,-38.086,0.000
742.000,-52.246,-35.645,-19.531,-45.898,0.000
746.000,-62.988,-36.133,-18.066,-68.848,0.000
750.000,-58.594,-43.945,-14.648,-72.754,0.000
754.000,-61.035,-51.270,-15.625,-65.430,0.000
758.000,-61.035,-57.129,-16.602,-65.430,0.000
762.000,-57.129,-59.570,-13.672,-62.988,0.000
766.000,-76.660,-41.016,-18.066,-70.801,0.000
770.000,-76.660,-30.762,-15.137,-76.660,0.000
773.000,-53.223,-46.387,-8.301,-64.453,0.000
777.000,-51.270,-49.316,-14.648,-72.754,0.000
781.000,-55.176,-36.133,-21.973,-91.309,0.000
785.000,-55.664,-28.320,-21.973,-100.098,0.000
789.000,-74.219,-29.297,-17.090,-100.098,0.000
793.000,-98.633,-46.875,-21.484,-95.215,0.000
797.000,-91.309,-39.551,-26.855,-93.750,0.000
801.000,-75.684,-35.645,-19.043,-89.355,0.000
805.000,-72.266,-53.711,-20.020,-83.984,0.000
809.000,-66.406,-24.414,-19.531,-78.125,0.000
812.000,-54.688,-14.160,-2.930,-63.965,0.000
816.000,-56.152,-31.250,-10.254,-62.500,0.000
820.000,-77.148,-24.414,-25.879,-69.336,0.000
824.000,-88.379,-32.227,-18.066,-59.570,0.000
828.000,-68.359,-30.273,-17.578,-50.293,0.000
832.000,-49.316,-30.273,-21.973,-51.270,0.000
836.000,-63.477,-48.340,-17.090,-48.828,0.000
840.000,-71.289,-49.316,-18.066,-40.527,0.000
844.000,-64.453,-22.461,-22.461,-44.922,0.000
848.000,-35.156,-4.883,-5.859,-37.598,0.000
852.000,-20.508,-8.301,6.836,-21.973,0.000
855.000,-57.617,-20.508,-12.207,-35.645,0.000
859.000,-54.199,-28.320,-26.367,-38.086,0.000
863.000,-23.926,-10.254,-14.648,-26.855,0.000
867.000,-31.250,-8.789,-8.789,-17.090,0.000
871.000,-38.086,-18.555,-16.602,-15.137,0.000
875.000,-38.574,-18.555,-16.113,-35.645,0.000
879.000,-29.785,-40.039,-18.066,-41.504,0.000
883.000,-38.086,-48.828,-22.461,-26.367,0.000
887.000,-60.059,-18.066,-13.672,-19.531,0.000
891.000,-55.664,-17.578,-5.859,-30.762,0.000
895.000,-44.434,-16.113,-7.324,-38.086,0.000
898.000,-24.414,-3.418,-7.324,-28.320,0.000
902.000,-18.066,-14.648,-7.324,-22.461,0.000
906.000,-20.996,-17.578,-11.719,-25.879,0.000
910.000,-28.320,-8.301,-8.301,-33.691,0.000
914.000,-42.480,-4.883,-2.930,-38.086,0.000
918.000,-43.945,-13.672,-9.766,-34.180,0.000
922.000,-51.270,-16.113,-16.113,-37.109,0.000
926.000,-62.500,-8.301,-18.066,-39.551,0.000
930.000,-39.062,-4.883,-17.090,-30.762,0.000
934.000,-25.391,-9.277,-19.531,-38.086,0.000
937.000,-33.691,-22.461,-19.531,-44.922,0.000
941.000,-42.480,-24.414,-20.996,-46.875,0.000
945.000,-53.223,-21.973,-24.902,-44.922,0.000
949.000,-52.246,-15.625,-29.297,-49.805,0.000
953.000,-58.105,-6.836,-27.832,-55.664,0.000
957.000,-66.406,-10.254,-23.926,-53.711,0.000
961.000,-57.617,-4.883,-18.555,-55.176,0.000
965.000,-54.199,-20.508,-21.973,-55.176,0.000
969.000,-78.125,-30.762,-34.668,-61.523,0.000
973.000,-91.309,-22.461,-35.645,-59.570,0.000
977.000,-74.219,-27.344,-31.738,-61.035,0.000
980.000,-56.152,-20.020,-33.691,-58.105,0.000
984.000,-37.109,-8.789,-34.668,-50.781,0.000
988.000,-24.902,-11.719,-28.320,-50.781,0.000
992.000,-31.250,-5.371,-21.973,-52.246,0.000
996.000,-36.621,-19.531,-27.344,-55.176,0.000
1000.000,-41.504,-19.531,-27.344,-52.246,0.000
1004.000,-43.457,3.906,-24.902,-40.527,0.000
1008.000,-32.715,-7.812,-21.973,-35.156,0.000
1012.000,-12.207,-10.742,-12.695,-25.391,0.000
1016.000,-13.184,-10.254,-7.812,-19.531,0.000
1020.000,-29.785,-13.672,-9.766,-24.414,0.000
1023.000,-19.531,-10.742,-10.742,-23.438,0.000
1027.000,9.766,-16.113,-4.883,-8.789,0.000
1031.000,21.484,-17.578,4.883,14.160,0.000
1035.000,15.625,-14.160,6.348,12.695,0.000
1039.000,11.719,-8.789,-6.836,-8.301,0.000
1043.000,3.906,-2.441,-11.719,-15.625,0.000
1047.000,-5.859,-14.160,-4.883,-14.648,0.000
1051.000,-20.508,-24.902,-5.371,-14.160,0.000
1055.000,-33.691,-4.883,-5.371,-15.137,0.000
1059.000,-23.438,3.906,0.977,-13.184,0.000
1062.000,-11.230,0.977,3.418,-9.766,0.000
1066.000,-21.973,-6.836,0.000,-16.602,0.000
1070.000,-30.273,-14.160,-3.906,-27.344,0.000
1074.000,-36.621,-19.531,-4.395,-24.902,0.000
1078.000,-50.781,-26.855,-6.348,-17.090,0.000
1082.000,-49.316,-25.879,-11.230,-20.020,0.000
1086.000,-51.270,-31.250,-16.602,-29.297,0.000
1090.000,-54.199,-32.715,-22.461,-33.691,0.000
1094.000,-47.363,-20.508,-22.949,-38.574,0.000
1098.000,-44.434,-17.578,-23.438,-37.598,0.000
1102.000,-52.246,-18.066,-26.855,-39.062,0.000
1105.000,-45.898,-14.648,-20.020,-37.109,0.000
1109.000,-32.715,-9.277,-16.602,-29.297,0.000
1113.000,-29.785,-13.672,-14.648,-30.273,0.000
1117.000,-15.137,-16.113,-9.766,-25.391,0.000
1121.000,-18.066,-14.648,-15.625,-21.484,0.000
1125.000,-31.250,-11.230,-16.602,-22.949,0.000
1129.000,-10.254,-6.836,-13.184,-20.020,0.000
1133.000,-12.207,-13.672,-16.602,-19.043,0.000
1137.000,-8.301,-7.324,-16.113,-4.395,0.000
1141.000,-16.602,-7.812,-19.531,-5.371,0.000
1145.000,-36.133,-18.066,-11.719,-9.277,0.000
1148.000,-29.785,-21.973,-16.113,-2.930,0.000
1152.000,-39.062,-32.227,-35.645,-16.602,0.000
1156.000,-48.828,-45.410,-37.598,-21.484,0.000
1160.000,-40.527,-34.668,-40.039,-16.113,0.000
1164.000,-24.414,-21.484,-36.621,-12.207,0.000
1168.000,-22.461,-29.297,-35.645,-15.625,0.000
1172.000,-28.809,-37.109,-42.480,-10.742,0.000
1176.000,-21.973,-35.645,-42.480,2.441,0.000
1180.000,-8.301,-32.227,-37.109,8.789,0.000
1184.000,-10.742,-36.133,-39.551,-0.488,0.000
1187.000,-10.254,-41.504,-40.527,3.418,0.000
1191.000,-6.348,-39.551,-31.738,14.160,0.000
1195.000,4.395,-36.621,-31.738,15.137,0.000
1199.000,7.324,-37.109,-35.156,16.602,0.000
1203.000,-2.441,-36.133,-29.297,17.090,0.000
1207.000,-0.977,-29.785,-26.855,17.090,0.000
1211.000,8.301,-29.785,-28.320,16.113,0.000
1215.000,25.879,-32.227,-28.320,18.066,0.000
1219.000,36.133,-30.762,-33.691,19.531,0.000
1223.000,33.203,-29.785,-33.691,17.578,0.000
1227.000,40.527,-28.320,-28.320,14.648,0.000
1230.000,35.645,-32.715,-27.344,7.812,0.000
1234.000,15.137,-34.180,-26.367,6.836,0.000
1238.000,-0.488,-31.250,-24.902,4.395,0.000
1242.000,1.465,-34.180,-24.902,5.371,0.000
1246.000,8.789,-37.109,-23.438,0.000,0.000
1250.000,7.324,-32.715,-24.414,-8.789,0.000
1254.000,-11.230,-32.715,-27.832,-22.949,0.000
1258.000,-22.949,-35.156,-26.855,-40.039,0.000
1262.000,-14.160,-33.691,-26.855,-36.621,0.000
1266.000,-4.395,-35.156,-22.461,-40.527,0.000
1270.000,-13.184,-38.574,-21.484,-58.594,0.000
1273.000,-20.020,-43.457,-26.855,-56.641,0.000
1277.000,-3.418,-36.621,-25.391,-36.621,0.000
1281.000,-1.465,-33.691,-28.320,-41.016,0.000
1285.000,-7.324,-36.133,-29.785,-48.828,0.000
1289.000,-16.113,-35.645,-25.391,-37.598,0.000
1293.000,-19.531,-35.156,-27.832,-41.504,0.000
1297.000,-3.906,-21.973,-26.367,-45.410,0.000
1301.000,9.277,-14.160,-23.438,-28.320,0.000
1305.000,3.418,-16.113,-24.414,-26.855,0.000
1309.000,-1.953,-18.066,-20.508,-23.438,0.000
1312.000,0.000,-16.113,-15.137,-9.277,0.000
1316.000,-9.277,-17.090,-15.625,-12.695,0.000
1320.000,-17.578,-15.625,-13.672,-14.160,0.000
1324.000,-16.602,-17.578,-16.113,-16.113,0.000
1328.000,-11.230,-23.438,-19.043,-15.625,0.000
1332.000,-7.324,-25.879,-15.137,-14.160,0.000
1336.000,-12.207,-27.832,-13.184,-12.207,0.000
1340.000,-32.227,-28.320,-7.324,-8.301,0.000
1344.000,-32.715,-27.344,-4.395,-10.254,0.000
1348.000,-3.418,-19.531,-6.836,-4.395,0.000
1352.000,-3.418,-14.160,-9.277,-6.348,0.000
1355.000,-16.113,-20.020,-10.742,-18.066,0.000
1359.000,-11.230,-15.625,-11.230,-19.043,0.000
1363.000,-8.789,-16.602,-13.184,-8.301,0.000
1367.000,-6.348,-21.484,-9.277,-10.742,0.000
1371.000,0.977,-16.113,-8.789,-5.371,0.000
1375.000,6.348,-8.789,-11.230,0.000,0.000
1379.000,19.043,-1.953,-7.812,-8.789,0.000
1383.000,22.949,-5.371,-7.812,-12.207,0.000
1387.000,4.395,-11.719,-13.184,-21.484,0.000
1391.000,1.953,-0.977,-8.789,-22.949,0.000
1395.000,12.695,7.812,-2.441,-16.602,0.000
1398.000,8.789,-6.836,-8.301,-26.855,0.000
1402.000,-16.602,-17.578,-13.672,-31.738,0.000
1406.000,-46.387,-19.531,-16.113,-28.809,0.000
1410.000,-39.062,-14.648,-19.043,-34.180,0.000
1414.000,-27.832,-18.066,-18.555,-47.363,0.000
1418.000,-38.574,-20.508,-17.578,-41.016,0.000
1422.000,-52.734,-14.648,-25.879,-26.855,0.000
1426.000,-48.340,-16.113,-27.344,-31.738,0.000
1430.000,-38.086,-19.043,-20.508,-29.785,0.000
1434.000,-31.250,-22.461,-28.320,-37.598,0.000
1437.000,-35.156,-28.809,-35.645,-41.504,0.000
1441.000,-40.527,-30.273,-37.109,-30.762,0.000
1445.000,-41.016,-23.926,-36.621,-29.297,0.000
1449.000,-56.152,-22.949,-28.320,-31.738,0.000
1453.000,-61.523,-30.273,-28.809,-33.691,0.000
1457.000,-52.734,-32.227,-36.133,-36.133,0.000
1461.000,-28.320,-32.715,-33.691,-35.645,0.000
1465.000,-21.484,-37.598,-35.156,-37.109,0.000
1469.000,-32.715,-32.715,-34.668,-35.156,0.000
1473.000,-32.715,-25.391,-27.832,-29.785,0.000
1477.000,-25.391,-29.785,-22.949,-30.762,0.000
1480.000,-32.715,-30.762,-24.414,-25.879,0.000
1484.000,-34.668,-32.227,-23.438,-21.484,0.000
1488.000,-27.832,-37.598,-23.438,-28.809,0.000
1492.000,-26.855,-33.691,-28.809,-34.180,0.000
1496.000,-21.484,-26.367,-26.855,-36.133,0.000
1500.000,-10.254,-25.879,-28.809,-40.039,0.000
1504.000,-9.766,-23.926,-30.762,-37.598,0.000
1508.000,-21.484,-22.949,-30.762,-42.480,0.000
1512.000,-20.508,-20.020,-29.785,-39.062,0.000
1516.000,-17.090,-17.090,-29.297,-31.738,0.000
1520.000,-18.066,-20.020,-24.902,-30.762,0.000
1523.000,-20.996,-19.043,-22.461,-29.785,0.000
1527.000,-15.625,-14.648,-21.973,-27.832,0.000
1531.000,-10.254,-17.090,-20.020,-20.020,0.000
1535.000,-3.906,-15.625,-23.926,-18.066,0.000
1539.000,-7.812,-17.578,-24.414,-26.855,0.000
1543.000,-13.184,-19.531,-17.578,-18.555,0.000
1547.000,0.977,-18.066,-16.602,3.418,0.000
1551.000,-15.137,-24.414,-23.926,-20.508,0.000
1555.000,-48.828,-31.738,-24.414,-49.316,0.000
1559.000,-62.500,-31.738,-20.020,-52.734,0.000
1562.000,-53.223,-35.645,-22.461,-50.781,0.000
1566.000,-41.504,-32.227,-19.043,-49.316,0.000
1570.000,-60.059,-23.438,-20.508,-67.871,0.000
1574.000,-73.242,-16.113,-21.484,-73.730,0.000
1578.000,-58.105,-9.277,-11.230,-53.223,0.000
1582.000,-59.570,-33.203,-11.230,-51.758,0.000
1586.000,-73.242,-47.852,-20.996,-72.754,0.000
1590.000,-97.656,-53.223,-22.949,-88.379,0.000
1594.000,-96.191,-46.875,-17.578,-77.637,0.000
1598.000,-79.102,-32.715,-11.719,-68.848,0.000
1602.000,-84.961,-41.992,-22.949,-85.449,0.000
1605.000,-101.074,-56.152,-29.297,-93.262,0.000
1609.000,-92.773,-61.035,-21.973,-93.262,0.000
1613.000,-59.082,-25.391,-15.137,-82.031,0.000
1617.000,-68.359,-1.953,-16.113,-76.660,0.000
1621.000,-93.262,-25.879,-26.367,-90.820,0.000
1625.000,-78.613,-42.480,-28.320,-86.426,0.000
1629.000,-72.266,-35.645,-20.996,-72.266,0.000
1633.000,-74.707,-34.180,-19.531,-73.730,0.000
1637.000,-66.406,-26.855,-18.066,-75.684,0.000
1641.000,-60.547,-22.949,-9.277,-77.637,0.000
1645.000,-62.988,-29.297,-9.766,-68.359,0.000
1648.000,-90.332,-33.203,-11.230,-73.242,0.000
1652.000,-88.867,-41.992,-13.184,-70.312,0.000
1656.000,-81.055,-31.250,-14.160,-64.941,0.000
1660.000,-76.172,-30.762,-6.836,-65.918,0.000
1664.000,-78.125,-36.133,-5.859,-63.477,0.000
1668.000,-100.098,-6.348,4.395,-69.336,0.000
1672.000,-114.258,-3.906,10.254,-67.871,0.000
1676.000,-113.770,-20.996,3.418,-74.219,0.000
1680.000,-104.004,-20.020,4.395,-79.590,0.000
1684.000,-114.746,-16.113,-1.465,-83.496,0.000
1687.000,-117.188,-29.785,-1.953,-89.844,0.000
1691.000,-120.117,-43.457,3.418,-84.473,0.000
1695.000,-124.512,-33.691,-0.488,-86.914,0.000
1699.000,-102.539,-69.336,2.930,-82.031,0.000
1703.000,-98.145,-66.406,-0.977,-76.660,0.000
1707.000,-100.098,-3.906,-7.812,-78.613,0.000
1711.000,-78.613,2.441,-9.766,-72.754,0.000
1715.000,-62.500,0.977,-3.906,-58.594,0.000
1719.000,-68.848,-12.695,-2.441,-50.293,0.000
1723.000,-90.332,-41.016,-20.996,-60.547,0.000
1727.000,-83.984,-42.480,-21.973,-46.387,0.000
1730.000,-64.941,-35.156,-9.277,-35.156,0.000
1734.000,-57.129,-36.621,-18.066,-36.621,0.000
1738.000,-53.711,-19.043,-20.508,-25.879,0.000
1742.000,-44.434,-17.578,-9.277,-20.996,0.000
1746.000,-28.320,-22.461,-11.230,-20.996,0.000
1750.000,-27.344,-13.184,-19.043,-19.043,0.000
1754.000,-26.367,-8.301,-25.879,-21.973,0.000
1758.000,-30.762,-20.996,-20.020,-13.184,0.000
1762.000,-33.203,-29.785,-20.508,-20.996,0.000
1766.000,-13.184,-13.184,-33.691,-33.691,0.000
1770.000,0.488,-23.438,-30.762,-16.602,0.000
1773.000,-23.926,-30.273,-27.344,-5.859,0.000
1777.000,-50.781,-20.508,-27.344,-12.207,0.000
1781.000,-38.086,-19.043,-32.715,-22.461,0.000
1785.000,-30.762,-21.973,-37.598,-27.832,0.000
1789.000,-44.434,-29.785,-31.250,-31.738,0.000
1793.000,-38.086,-22.949,-33.691,-29.785,0.000
1797.000,-31.738,-22.949,-36.621,-29.297,0.000
1801.000,-25.879,-41.992,-24.414,-30.762,0.000
1805.000,-27.344,-35.156,-19.531,-27.344,0.000
1809.000,-38.574,-11.719,-24.902,-15.137,0.000
1812.000,-33.691,-9.277,-21.973,-6.836,0.000
1816.000,-32.715,-15.137,-13.184,-9.277,0.000
1820.000,-38.086,-27.344,-12.695,-10.742,0.000
1824.000,-43.945,-19.043,-20.020,-14.160,0.000
1828.000,-35.156,-10.254,-13.672,-1.465,0.000
1832.000,-11.719,-16.602,-9.766,8.789,0.000
1836.000,-20.508,-22.949,-24.414,3.906,0.000
1840.000,-32.227,-23.438,-35.156,0.977,0.000
1844.000,-17.090,-40.039,-27.832,1.953,0.000
1848.000,-1.953,-33.691,-17.578,14.160,0.000
1852.000,-4.395,-15.625,-22.461,12.695,0.000
1855.000,-5.371,-35.156,-28.809,7.812,0.000
1859.000,0.488,-39.551,-24.414,6.348,0.000
1863.000,11.230,-9.766,-20.996,2.441,0.000
1867.000,21.484,-0.488,-18.066,5.859,0.000
1871.000,12.207,-6.836,-17.578,4.395,0.000
1875.000,-5.859,-8.301,-13.184,10.742,0.000
1879.000,-8.789,-16.113,-13.672,12.207,0.000
1883.000,-9.766,-23.438,-11.719,0.000,0.000
1887.000,-18.555,-22.461,-4.883,-2.930,0.000
1891.000,-24.902,-17.090,0.977,7.324,0.000
1895.000,-10.742,-11.719,-2.441,6.348,0.000
1898.000,-2.930,-17.578,-11.230,-1.465,0.000
1902.000,-24.902,-25.879,-13.672,-0.488,0.000
1906.000,-43.945,-29.785,-24.414,-11.719,0.000
1910.000,-41.016,-22.949,-30.762,-19.531,0.000
1914.000,-29.785,-25.391,-30.273,-10.742,0.000
1918.000,-20.996,-34.180,-18.066,-2.441,0.000
1922.000,-25.879,-52.734,-15.625,-9.277,0.000
1926.000,-25.879,-51.758,-26.367,-14.160,0.000
1930.000,-23.926,5.371,-29.785,-12.695,0.000
1934.000,-27.832,19.531,-25.879,-15.625,0.000
1937.000,-31.738,-9.766,-22.461,-12.207,0.000
1941.000,-44.922,-19.043,-27.832,-17.578,0.000
1945.000,-45.410,-11.719,-25.391,-7.324,0.000
1949.000,-33.691,-22.461,-23.438,5.859,0.000
1953.000,-32.715,-33.691,-26.367,-7.324,0.000
1957.000,-32.227,-14.648,-21.973,-16.113,0.000
1961.000,-10.742,-8.789,-7.812,0.000,0.000
1965.000,5.859,-20.996,-11.719,13.672,0.000
1969.000,-14.648,-20.020,-31.250,-15.625,0.000
1973.000,-48.828,-22.461,-40.527,-49.316,0.000
1977.000,-48.340,-28.809,-42.480,-43.945,0.000
1980.000,-20.020,-31.738,-38.086,-28.809,0.000
1984.000,-7.324,-39.551,-35.156,-24.902,0.000
1988.000,-12.207,-24.414,-32.227,-22.461,0.000
1992.000,-21.973,-18.555,-37.598,-13.672,0.000
1996.000,-8.301,-30.273,-37.598,-4.395,0.000
2000.000,5.859,-17.578,-36.133,-6.836,0.000
2004.000,-3.906,-3.418,-39.062,-10.254,0.000
2008.000,-9.766,-4.395,-41.504,-11.230,0.000
2012.000,-4.883,-10.254,-37.598,-6.348,0.000
2016.000,1.465,-11.719,-32.227,-3.906,0.000
2020.000,-8.301,-11.719,-34.668,-20.020,0.000
2023.000,-18.066,-16.113,-38.086,-35.645,0.000
2027.000,-16.602,-20.508,-38.574,-33.203,0.000
2031.000,-29.297,-20.996,-37.598,-35.645,0.000
2035.000,-41.504,-17.090,-37.598,-38.086,0.000
2039.000,-45.898,-18.066,-35.156,-36.621,0.000
2043.000,-49.805,-21.484,-36.133,-43.457,0.000
2047.000,-41.016,-26.855,-34.668,-42.969,0.000
2051.000,-40.039,-32.715,-36.133,-45.898,0.000
2055.000,-61.523,-25.879,-42.480,-68.848,0.000
2059.000,-78.125,-25.879,-39.062,-81.543,0.000
2062.000,-85.449,-28.320,-31.250,-75.195,0.000
2066.000,-90.332,-26.367,-29.785,-77.637,0.000
2070.000,-87.402,-14.160,-23.926,-74.219,0.000
2074.000,-80.566,-20.996,-21.484,-66.406,0.000
2078.000,-88.379,-32.227,-29.785,-69.336,0.000
2082.000,-93.750,-24.902,-27.344,-66.895,0.000
2086.000,-90.332,-25.879,-27.344,-76.172,0.000
2090.000,-96.680,-26.367,-29.785,-77.148,0.000
2094.000,-77.637,-23.438,-24.902,-62.500,0.000
2098.000,-62.012,-21.973,-25.391,-60.059,0.000
2102.000,-79.102,-29.297,-31.738,-69.824,0.000
2105.000,-75.195,-36.621,-35.156,-71.777,0.000
2109.000,-61.035,-34.668,-29.785,-55.664,0.000
2113.000,-47.363,-33.691,-30.273,-44.434,0.000
2117.000,-27.344,-33.203,-34.180,-41.992,0.000
2121.000,-11.719,-30.762,-30.273,-33.203,0.000
2125.000,7.812,-30.762,-21.973,-12.695,0.000
2129.000,15.625,-26.367,-19.043,8.789,0.000
2133.000,15.625,-28.320,-26.855,8.789,0.000
2137.000,19.043,-39.551,-28.809,14.648,0.000
2141.000,20.996,-37.109,-21.484,31.250,0.000
2145.000,39.551,-36.621,-19.531,38.086,0.000
2148.000,42.480,-38.086,-20.020,42.480,0.000
2152.000,31.250,-38.574,-19.531,45.898,0.000
2156.000,34.180,-38.574,-17.090,53.223,0.000
2160.000,35.156,-39.551,-16.602,58.105,0.000
2164.000,43.945,-34.668,-23.438,63.965,0.000
2168.000,54.199,-25.391,-25.391,75.195,0.000
2172.000,59.570,-22.461,-22.949,82.520,0.000
2176.000,52.246,-23.926,-22.461,74.707,0.000
2180.000,34.668,-26.855,-19.531,63.477,0.000
2184.000,33.203,-26.367,-8.301,73.730,0.000
2187.000,37.109,-29.297,-3.418,71.777,0.000
2191.000,30.762,-30.762,-10.254,53.711,0.000
2195.000,22.949,-22.461,-14.648,41.992,0.000
2199.000,35.645,-19.043,-18.555,35.156,0.000
2203.000,41.504,-22.461,-20.508,33.691,0.000
2207.000,38.086,-19.531,-16.113,27.344,0.000
2211.000,40.527,-20.020,-19.043,9.277,0.000
2215.000,45.410,-17.090,-22.461,8.301,0.000
2219.000,48.340,-10.254,-23.438,18.066,0.000
2223.000,39.062,-12.695,-24.414,5.859,0.000
2227.000,34.180,-17.578,-22.949,-0.488,0.000
2230.000,41.016,-15.625,-24.902,3.418,0.000
2234.000,25.879,-11.230,-29.785,8.301,0.000
2238.000,6.836,-14.648,-25.879,13.672,0.000
2242.000,11.719,-29.785,-26.855,13.672,0.000
2246.000,22.949,-23.438,-31.250,15.137,0.000
2250.000,29.297,-10.254,-29.297,19.531,0.000
2254.000,7.812,-16.113,-24.902,20.996,0.000
2258.000,3.418,-15.625,-20.508,16.602,0.000
2262.000,20.508,-16.113,-23.926,15.625,0.000
2266.000,25.391,-26.367,-27.832,24.902,0.000
2270.000,4.883,-28.809,-23.438,23.926,0.000
2273.000,-18.555,-28.809,-21.484,13.184,0.000
2277.000,-11.230,-34.668,-20.996,15.625,0.000
2281.000,3.418,-35.156,-21.484,15.137,0.000
2285.000,11.230,-30.273,-24.414,8.301,0.000
2289.000,1.953,-29.785,-21.973,8.301,0.000
2293.000,0.000,-30.273,-18.555,17.090,0.000
2297.000,7.812,-23.926,-19.531,23.438,0.000
2301.000,13.184,-19.043,-19.531,22.461,0.000
2305.000,17.090,-17.090,-18.555,20.020,0.000
2309.000,14.160,-13.672,-17.090,22.949,0.000
2312.000,11.230,-16.113,-20.996,26.855,0.000
2316.000,7.324,-19.043,-23.438,27.344,0.000
2320.000,7.812,-22.949,-17.578,33.203,0.000
2324.000,14.160,-16.113,-12.695,34.668,0.000
2328.000,27.344,-14.648,-13.672,30.762,0.000
2332.000,35.645,-23.926,-15.137,31.250,0.000
2336.000,23.438,-20.996,-16.602,31.250,0.000
2340.000,15.137,-17.090,-24.414,22.949,0.000
2344.000,14.648,-20.508,-25.391,21.484,0.000
2348.000,14.160,-19.531,-22.461,16.113,0.000
2352.000,12.695,-14.160,-20.020,5.859,0.000
2355.000,8.789,-17.578,-18.066,3.906,0.000
2359.000,20.020,-15.137,-21.484,11.719,0.000
2363.000,39.551,-3.418,-17.090,25.391,0.000
2367.000,23.926,-3.418,-13.184,11.719,0.000
2371.000,-18.066,-17.578,-21.484,-14.648,0.000
2375.000,-32.715,-37.109,-25.391,-24.902,0.000
2379.000,-41.992,-58.105,-20.996,-41.504,0.000
2383.000,-44.922,-42.969,-14.160,-49.805,0.000
2387.000,-37.109,-25.879,-11.230,-45.898,0.000
2391.000,-61.523,-44.434,-24.414,-68.359,0.000
2395.000,-76.660,-32.227,-20.996,-78.125,0.000
2398.000,-73.242,-25.879,-12.207,-75.195,0.000
2402.000,-83.008,-39.062,-16.602,-94.238,0.000
2406.000,-90.332,-44.922,-24.902,-106.934,0.000
2410.000,-82.031,-36.621,-24.414,-88.379,0.000
2414.000,-80.078,-34.668,-21.973,-82.031,0.000
2418.000,-86.426,-57.129,-32.715,-102.051,0.000
2422.000,-91.797,-32.227,-30.273,-97.168,0.000
2426.000,-99.121,-14.648,-26.367,-79.102,0.000
2430.000,-100.098,-29.785,-24.414,-85.938,0.000
2434.000,-89.355,-34.180,-13.672,-85.449,0.000
2437.000,-73.242,-32.715,0.000,-75.684,0.000
2441.000,-69.336,-33.691,-0.488,-62.500,0.000
2445.000,-87.891,-47.852,-12.695,-71.777,0.000
2449.000,-90.332,-30.273,-30.762,-82.520,0.000
2453.000,-74.707,-14.160,-26.855,-75.684,0.000
2457.000,-73.242,-17.578,-8.301,-82.031,0.000
2461.000,-76.172,-7.812,-20.996,-83.984,0.000
2465.000,-70.312,-13.184,-28.320,-78.613,0.000
2469.000,-64.453,-21.973,-18.555,-78.125,0.000
2473.000,-70.801,-29.785,-8.301,-73.730,0.000
2477.000,-74.219,-36.621,-4.395,-62.500,0.000
2480.000,-68.848,-22.949,-3.906,-56.152,0.000
2484.000,-78.125,-20.508,-7.812,-70.801,0.000
2488.000,-78.125,-28.809,-3.418,-62.988,0.000
2492.000,-51.758,-33.203,11.719,-37.598,0.000
2496.000,-46.387,-25.391,0.977,-42.969,0.000
2500.000,-50.781,0.000,-9.277,-43.945,0.000
2504.000,-59.082,-11.719,-9.277,-48.828,0.000
2508.000,-62.988,-31.738,-23.926,-58.105,0.000
2512.000,-54.199,-20.996,-20.020,-49.805,0.000
2516.000,-63.477,-28.320,-9.277,-52.734,0.000
2520.000,-70.801,-17.578,-10.742,-55.176,0.000
2523.000,-76.660,-46.387,-11.719,-54.199,0.000
2527.000,-72.266,-69.824,-25.879,-52.734,0.000
2531.000,-69.336,-27.344,-38.086,-62.012,0.000
2535.000,-77.148,20.020,-38.086,-66.895,0.000
2539.000,-95.703,-13.672,-37.109,-75.195,0.000
2543.000,-90.820,-43.945,-18.066,-69.824,0.000
2547.000,-72.266,-0.977,-8.301,-63.477,0.000
2551.000,-69.824,-30.762,-19.531,-68.359,0.000
2555.000,-58.105,-37.109,-19.531,-65.918,0.000
2559.000,-71.289,7.324,-31.250,-69.824,0.000
2562.000,-92.285,17.578,-36.621,-77.637,0.000
2566.000,-99.609,-27.832,-28.320,-86.914,0.000
2570.000,-83.496,-83.496,-34.668,-80.566,0.000
2574.000,-46.875,-50.293,-41.992,-54.199,0.000
2578.000,-32.715,-2.441,-20.996,-49.316,0.000
2582.000,-45.410,23.438,-29.297,-68.848,0.000
2586.000,-55.664,-0.488,-54.199,-76.172,0.000
2590.000,-59.082,-21.484,-44.434,-69.824,0.000
2594.000,-62.988,13.672,-47.363,-62.012,0.000
2598.000,-54.688,18.555,-53.223,-59.570,0.000
2602.000,-54.199,-11.230,-45.898,-68.359,0.000
2605.000,-47.363,-19.531,-46.387,-67.383,0.000
2609.000,-47.363,6.836,-45.410,-61.523,0.000
2613.000,-35.156,19.043,-42.969,-59.082,0.000
2617.000,-36.133,9.766,-43.945,-59.082,0.000
2621.000,-44.922,16.113,-36.621,-56.152,0.000
2625.000,-43.945,-24.902,-37.598,-51.758,0.000
2629.000,-43.457,-3.418,-41.016,-55.664,0.000
2633.000,-18.066,36.621,-37.598,-54.199,0.000
2637.000,-34.180,-6.836,-54.688,-78.125,0.000
2641.000,-45.410,-0.488,-66.406,-82.520,0.000
2645.000,-33.203,11.719,-64.453,-73.730,0.000
2648.000,-52.246,10.742,-51.758,-85.449,0.000
2652.000,-43.945,17.578,-42.969,-62.500,0.000
2656.000,-29.297,-4.395,-23.926,-54.688,0.000
2660.000,-44.434,-10.254,-12.207,-55.664,0.000
2664.000,-44.434,25.391,-26.855,-47.363,0.000
2668.000,-49.805,30.273,-38.574,-63.477,0.000
2672.000,-56.152,14.160,-41.504,-55.664,0.000
2676.000,-51.270,11.719,-44.434,-41.504,0.000
2680.000,-50.293,-0.977,-38.574,-56.641,0.000
2684.000,-43.457,3.418,-54.199,-51.758,0.000
2687.000,-49.805,1.953,-74.707,-44.922,0.000
2691.000,-71.289,-9.766,-52.734,-52.246,0.000
2695.000,-70.312,2.930,-31.250,-41.016,0.000
2699.000,-58.105,-14.160,-21.973,-40.039,0.000
2703.000,-51.270,-19.043,-25.879,-34.668,0.000
2707.000,-51.270,4.395,-31.738,-26.367,0.000
2711.000,-51.270,-3.906,-15.137,-30.273,0.000
2715.000,-43.457,-10.742,-4.883,-30.762,0.000
2719.000,-51.758,-17.578,-19.531,-43.457,0.000
2723.000,-51.270,-12.695,-32.227,-39.551,0.000
2727.000,-40.527,-27.832,-30.273,-30.273,0.000
2730.000,-40.039,-53.223,-33.203,-32.227,0.000
2734.000,-42.969,-27.832,-43.945,-46.387,0.000
2738.000,-41.504,-17.578,-17.578,-46.387,0.000
2742.000,-51.270,-33.691,6.348,-28.809,0.000
2746.000,-50.781,-6.836,0.000,-22.949,0.000
2750.000,-42.480,-21.484,-13.184,-29.297,0.000
2754.000,-53.711,-42.480,-17.578,-30.762,0.000
2758.000,-41.992,-31.738,-6.348,-31.250,0.000
2762.000,-10.254,-34.180,-7.324,-20.020,0.000
2766.000,-8.789,-27.344,-12.207,-6.836,0.000
2770.000,-43.945,-41.992,-19.531,-8.301,0.000
2773.000,-62.988,-48.828,-20.996,-3.906,0.000
2777.000,-50.293,-47.363,-5.371,1.465,0.000
2781.000,-43.457,-48.340,-1.465,-8.789,0.000
2785.000,-37.109,-57.129,-7.324,-12.695,0.000
2789.000,-48.340,-62.012,-14.648,-11.230,0.000
2793.000,-44.922,-54.688,-24.414,-20.020,0.000
2797.000,-21.484,-53.711,-20.996,-16.113,0.000
2801.000,-33.691,-45.410,-12.207,-13.184,0.000
2805.000,-44.922,-45.410,-23.926,-23.438,0.000
2809.000,-49.316,-84.961,-32.715,-26.367,0.000
2812.000,-55.664,-68.848,-22.461,-25.391,0.000
2816.000,-55.176,-34.668,-28.809,-27.344,0.000
2820.000,-41.016,-40.527,-28.320,-17.578,0.000
2824.000,-13.672,-44.922,-23.926,-1.465,0.000
2828.000,-30.273,-48.340,-32.715,-24.414,0.000
2832.000,-45.410,-50.781,-28.809,-45.898,0.000
2836.000,-36.621,-55.664,-31.738,-36.621,0.000
2840.000,-53.711,-40.039,-37.109,-38.086,0.000
2844.000,-55.664,-36.621,-34.668,-38.574,0.000
2848.000,-39.062,-43.945,-37.109,-26.855,0.000
2852.000,-32.715,-37.109,-34.180,-29.785,0.000
2855.000,-26.855,-29.785,-22.461,-35.156,0.000
2859.000,-22.461,-43.457,-26.367,-30.762,0.000
2863.000,-24.414,-39.062,-35.156,-31.250,0.000
2867.000,-8.301,-28.809,-33.203,-28.809,0.000
2871.000,-4.395,-29.297,-20.996,-18.555,0.000
2875.000,-33.203,-28.320,-15.625,-26.855,0.000
2879.000,-50.781,-40.527,-27.832,-39.551,0.000
2883.000,-50.293,-46.875,-30.762,-41.992,0.000
2887.000,-47.363,-41.504,-22.949,-47.852,0.000
2891.000,-46.387,-43.457,-19.531,-46.875,0.000
2895.000,-45.410,-41.504,-18.555,-42.969,0.000
2898.000,-43.457,-35.645,-10.742,-48.828,0.000
2902.000,-57.129,-42.969,-10.254,-56.152,0.000
2906.000,-64.453,-44.922,-15.137,-48.340,0.000
2910.000,-66.406,-41.992,-15.625,-48.340,0.000
2914.000,-62.500,-42.969,-6.836,-57.617,0.000
2918.000,-60.547,-35.645,0.000,-53.223,0.000
2922.000,-67.383,-32.227,-8.789,-52.734,0.000
2926.000,-62.988,-41.504,-7.324,-52.246,0.000
2930.000,-51.758,-37.109,-7.324,-58.594,0.000
2934.000,-45.898,-28.809,-4.883,-53.223,0.000
2937.000,-66.406,-29.785,-2.441,-59.570,0.000
2941.000,-80.078,-29.297,-7.812,-63.965,0.000
2945.000,-56.641,-34.180,-8.301,-56.152,0.000
2949.000,-40.039,-33.691,-12.207,-51.758,0.000
2953.000,-52.246,-30.762,-13.184,-42.969,0.000
2957.000,-55.176,-25.391,-8.789,-40.527,0.000
2961.000,-40.527,-22.949,-8.301,-37.109,0.000
2965.000,-13.672,-22.949,-7.812,-26.367,0.000
2969.000,-5.371,-20.508,-7.812,-23.438,0.000
2973.000,-33.691,-19.043,-8.789,-28.809,0.000
2977.000,-46.875,-17.578,-11.230,-31.250,0.000
2980.000,-29.785,-16.113,-18.555,-26.367,0.000
2984.000,-27.344,-20.508,-19.043,-17.578,0.000
2988.000,-24.414,-24.902,-25.879,-17.090,0.000
2992.000,-16.602,-18.066,-29.297,-3.418,0.000
2996.000,6.348,-14.648,-13.184,18.066,0.000
3000.000,17.090,-20.508,-11.230,17.090,0.000
3004.000,17.090,-20.020,-11.719,16.602,0.000
3008.000,20.996,-17.090,-13.184,26.855,0.000
3012.000,29.297,-12.695,-15.137,41.992,0.000
3016.000,42.969,-13.672,-7.324,55.176,0.000
3020.000,42.969,-15.625,-5.859,58.594,0.000
3023.000,44.922,-14.648,-4.883,57.129,0.000
3027.000,45.410,-10.742,-10.742,51.758,0.000
3031.000,62.988,-14.160,-8.301,63.477,0.000
3035.000,87.891,-14.160,0.000,72.266,0.000
3039.000,78.613,-10.254,-6.348,71.289,0.000
3043.000,52.734,-18.066,-15.137,62.988,0.000
3047.000,50.781,-17.578,-19.043,52.734,0.000
3051.000,66.895,-9.766,-15.137,64.941,0.000
3055.000,67.871,-3.418,-6.836,64.941,0.000
3059.000,53.223,-13.184,-0.977,52.734,0.000
3062.000,64.453,-24.902,-1.953,59.082,0.000
3066.000,75.684,-14.648,-8.301,68.359,0.000
3070.000,66.406,-6.836,-8.301,72.754,0.000
3074.000,62.500,-16.113,-11.230,59.082,0.000
3078.000,54.688,-21.484,-17.578,43.457,0.000
3082.000,46.387,-19.531,-15.137,43.945,0.000
3086.000,41.016,-26.855,-17.578,35.156,0.000
3090.000,34.180,-25.879,-25.391,28.809,0.000
3094.000,35.156,-26.855,-27.832,31.250,0.000
3098.000,36.133,-30.762,-22.949,34.180,0.000
3102.000,38.086,-26.367,-25.879,33.691,0.000
3105.000,34.668,-20.020,-32.715,22.461,0.000
3109.000,26.367,-15.625,-26.855,23.438,0.000
3113.000,38.574,-16.113,-20.996,32.715,0.000
3117.000,36.133,-14.648,-29.785,30.762,0.000
3121.000,20.508,-8.789,-32.715,21.484,0.000
3125.000,28.320,-13.184,-30.273,22.461,0.000
3129.000,38.574,-18.066,-32.715,26.367,0.000
3133.000,26.855,-17.090,-33.691,21.484,0.000
3137.000,20.508,-16.602,-30.273,20.508,0.000
3141.000,26.367,-14.648,-23.438,25.391,0.000
3145.000,24.902,-6.348,-23.926,25.391,0.000
3148.000,19.043,-13.184,-20.996,28.320,0.000
3152.000,23.926,-22.949,-20.996,20.508,0.000
3156.000,32.715,-15.137,-19.043,16.113,0.000
3160.000,34.180,-16.113,-10.742,26.855,0.000
3164.000,32.715,-11.719,-14.648,20.996,0.000
3168.000,17.090,-6.836,-19.531,14.160,0.000
3172.000,8.789,-11.230,-18.555,16.113,0.000
3176.000,19.531,-7.812,-17.578,18.066,0.000
3180.000,34.180,-13.184,-18.555,24.902,0.000
3184.000,33.203,-20.020,-15.625,21.973,0.000
3187.000,24.902,-16.602,-11.719,15.625,0.000
3191.000,23.438,-9.766,-8.301,16.602,0.000
3195.000,31.250,-7.812,-3.906,22.949,0.000
3199.000,37.109,-11.719,-8.301,31.738,0.000
3203.000,24.902,-15.625,-16.602,23.926,0.000
3207.000,18.066,-26.367,-20.020,14.648,0.000
3211.000,17.090,-29.297,-15.137,13.184,0.000
3215.000,15.137,-22.949,-13.184,16.602,0.000
3219.000,12.695,-13.672,-12.695,20.996,0.000
3223.000,16.113,-5.371,-6.348,16.113,0.000
3227.000,16.113,-17.578,-6.348,15.137,0.000
3230.000,21.973,-25.879,-6.348,18.555,0.000
3234.000,26.367,-18.555,-0.977,7.812,0.000
3238.000,15.137,-24.902,-9.277,-4.395,0.000
3242.000,10.254,-28.809,-19.043,0.977,0.000
3246.000,26.855,-19.043,-11.719,14.160,0.000
3250.000,26.855,-20.996,-8.301,22.949,0.000
3254.000,-8.789,-25.879,-6.836,0.000,0.000
3258.000,-19.531,-26.855,-6.348,-31.250,0.000
3262.000,-7.812,-33.203,-14.160,-28.320,0.000
3266.000,-21.484,-55.664,-16.602,-33.691,0.000
3270.000,-31.738,-49.316,-5.371,-50.293,0.000
3273.000,-46.875,-22.461,5.371,-56.641,0.000
3277.000,-70.801,-41.016,-3.418,-73.730,0.000
3281.000,-65.918,-63.477,-16.602,-88.867,0.000
3285.000,-76.660,-49.316,-22.461,-92.773,0.000
3289.000,-95.703,-31.738,-28.320,-97.656,0.000
3293.000,-89.355,-26.367,-23.926,-102.051,0.000
3297.000,-93.750,-26.367,-9.766,-95.703,0.000
3301.000,-91.797,-46.387,-17.578,-97.168,0.000
3305.000,-92.285,-41.992,-28.320,-105.469,0.000
3309.000,-106.934,-31.250,-31.738,-111.816,0.000
3312.000,-117.676,-35.645,-41.016,-116.699,0.000
3316.000,-115.234,-35.645,-39.062,-109.863,0.000
3320.000,-106.934,-39.062,-42.480,-98.145,0.000
3324.000,-109.863,-46.875,-35.645,-93.750,0.000
3328.000,-111.328,-38.086,-14.648,-97.168,0.000
3332.000,-116.211,-28.320,-12.695,-117.188,0.000
3336.000,-121.094,-34.668,-15.137,-126.465,0.000
3340.000,-127.441,-38.574,-3.906,-120.605,0.000
3344.000,-119.629,-45.898,-4.395,-122.070,0.000
3348.000,-106.445,-45.410,-13.184,-123.047,0.000
3352.000,-123.047,-11.719,-19.043,-132.812,0.000
3355.000,-126.953,2.441,-17.090,-140.137,0.000
3359.000,-134.766,-17.578,-12.695,-145.996,0.000
3363.000,-138.672,-22.949,-2.930,-137.207,0.000
3367.000,-118.652,-14.160,-0.977,-118.652,0.000
3371.000,-124.512,-23.926,-9.277,-120.605,0.000
3375.000,-127.930,-26.367,3.906,-118.652,0.000
3379.000,-107.422,-22.949,10.254,-101.562,0.000
3383.000,-84.473,-25.391,1.953,-83.496,0.000
3387.000,-92.773,-30.762,14.648,-71.777,0.000
3391.000,-101.562,-30.273,23.926,-64.453,0.000
3395.000,-102.051,-11.719,4.395,-62.988,0.000
3398.000,-108.887,-9.277,-13.672,-71.289,0.000
3402.000,-106.934,-28.809,-20.508,-73.730,0.000
3406.000,-98.145,-24.414,-13.184,-63.965,0.000
3410.000,-72.754,-13.672,-2.930,-43.945,0.000
3414.000,-54.688,-17.578,-6.348,-36.133,0.000
3418.000,-55.664,-13.184,-11.719,-44.434,0.000
3422.000,-63.965,-17.090,-18.555,-47.363,0.000
3426.000,-57.129,-19.043,-17.090,-42.480,0.000
3430.000,-40.527,-9.766,-23.438,-33.691,0.000
3434.000,-37.109,-17.578,-26.855,-32.227,0.000
3437.000,-39.062,-32.227,-8.789,-33.203,0.000
3441.000,-36.621,-30.762,-10.254,-36.621,0.000
3445.000,-26.367,-19.043,-22.461,-29.297,0.000
3449.000,-22.949,-29.785,-26.855,-28.320,0.000
3453.000,-28.809,-28.809,-24.902,-37.598,0.000
3457.000,-38.574,-14.648,-21.973,-33.203,0.000
3461.000,-27.832,-20.996,-21.973,-21.484,0.000
3465.000,-4.395,-22.949,-28.320,-16.602,0.000
3469.000,-14.160,-19.043,-31.250,-21.973,0.000
3473.000,-11.719,-18.555,-20.020,-17.090,0.000
3477.000,-11.719,-17.090,-13.672,-9.277,0.000
3480.000,-32.715,-14.648,-20.508,-14.648,0.000
3484.000,-30.273,-17.578,-28.320,-13.672,0.000
3488.000,-26.367,-17.090,-22.949,-3.906,0.000
3492.000,-22.949,-9.766,-11.230,3.418,0.000
3496.000,-33.691,-16.113,-9.766,3.418,0.000
3500.000,-32.227,-35.645,-21.484,-10.254,0.000
3504.000,-25.391,-35.645,-17.090,-10.254,0.000
3508.000,-34.668,-29.785,-16.602,-1.465,0.000
3512.000,-34.668,-29.297,-27.832,0.977,0.000
3516.000,-21.973,-19.043,-25.391,0.488,0.000
3520.000,-20.020,-35.645,-17.090,4.395,0.000
3523.000,-21.484,-42.480,-17.090,8.301,0.000
3527.000,-4.883,-17.090,-11.719,18.066,0.000
3531.000,5.859,-26.367,-2.930,23.926,0.000
3535.000,9.277,-41.992,-6.348,21.484,0.000
3539.000,3.418,-25.391,-8.789,22.461,0.000
3543.000,-2.441,-22.949,-12.695,17.578,0.000
3547.000,18.555,-18.066,-18.066,19.531,0.000
3551.000,29.297,-2.930,-14.160,23.438,0.000
3555.000,21.973,4.395,-8.301,23.438,0.000
3559.000,18.555,0.000,-12.207,22.461,0.000
3562.000,11.719,-12.207,-24.902,11.230,0.000
3566.000,13.184,-13.672,-31.250,6.348,0.000
3570.000,6.836,-16.602,-25.879,7.324,0.000
3574.000,2.441,-18.555,-24.902,6.348,0.000
3578.000,15.137,-14.648,-22.949,18.066,0.000
3582.000,14.160,-5.859,-14.648,19.043,0.000
3586.000,-10.742,-11.719,-22.461,6.348,0.000
3590.000,-43.945,-33.691,-41.504,-9.766,0.000
3594.000,-45.898,-31.738,-41.992,-17.578,0.000
3598.000,-34.180,-21.484,-28.320,2.441,0.000
3602.000,-39.551,-27.344,-25.879,4.395,0.000
3605.000,-37.109,-21.973,-23.438,-8.301,0.000
3609.000,-27.344,-20.996,-17.090,-1.465,0.000
3613.000,-31.738,-47.363,-26.855,-4.883,0.000
3617.000,-46.387,-46.875,-37.109,-11.230,0.000
3621.000,-62.012,-30.273,-40.527,-20.508,0.000
3625.000,-55.176,-42.969,-36.133,-23.926,0.000
3629.000,-31.738,-46.387,-27.344,-19.043,0.000
3633.000,-17.090,-30.273,-26.367,-8.789,0.000
3637.000,-32.227,-9.277,-34.180,-20.996,0.000
3641.000,-38.086,0.977,-30.762,-37.109,0.000
3645.000,-20.508,-17.578,-33.203,-31.738,0.000
3648.000,-19.043,-23.926,-29.785,-33.691,0.000
3652.000,-12.695,-14.160,-10.254,-23.438,0.000
3656.000,-36.133,-33.203,-22.949,-35.645,0.000
3660.000,-55.664,-41.504,-47.852,-47.852,0.000
3664.000,-20.508,-47.852,-33.691,-34.180,0.000
3668.000,-9.766,-35.645,-9.766,-26.855,0.000
3672.000,-39.062,-24.414,-17.578,-29.297,0.000
3676.000,-59.082,-27.344,-18.066,-37.109,0.000
3680.000,-51.270,-13.672,-19.531,-40.039,0.000
3684.000,-32.715,-19.043,-28.320,-29.785,0.000
3687.000,-21.484,-12.207,-8.789,-8.301,0.000
3691.000,-30.762,6.836,-7.324,-17.090,0.000
3695.000,-36.133,-15.625,-24.902,-36.621,0.000
3699.000,-23.438,-31.250,-23.926,-28.809,0.000
3703.000,-14.648,-20.508,-17.578,-25.391,0.000
3707.000,-13.672,-10.742,-12.695,-26.855,0.000
3711.000,-7.324,-13.184,-7.324,-15.625,0.000
3715.000,8.301,-27.832,-5.371,-2.930,0.000
3719.000,9.766,-30.762,-4.395,-2.441,0.000
3723.000,-12.695,-1.953,-5.859,-7.324,0.000
3727.000,-25.391,8.789,-10.254,-11.230,0.000
3730.000,-8.301,-7.812,-5.859,-14.160,0.000
3734.000,2.441,-14.648,3.418,-14.160,0.000
3738.000,-15.137,-7.324,2.441,-20.508,0.000
3742.000,-32.715,-17.090,-5.371,-28.320,0.000
3746.000,-20.996,-21.973,-6.348,-18.066,0.000
3750.000,-14.160,-16.602,-17.578,-23.926,0.000
3754.000,-21.484,-12.207,-26.855,-49.805,0.000
3758.000,-21.484,-17.578,-29.785,-51.270,0.000
3762.000,-6.836,-23.926,-26.855,-47.363,0.000
3766.000,-5.859,-23.926,-27.832,-43.945,0.000
3770.000,-19.531,-16.602,-30.762,-43.945,0.000
3773.000,-25.879,-10.254,-27.344,-49.805,0.000
3777.000,-29.297,-10.742,-24.414,-34.668,0.000
3781.000,-19.531,-9.277,-23.926,-29.785,0.000
3785.000,-10.254,-14.648,-26.855,-22.461,0.000
3789.000,-24.414,-21.973,-24.902,-23.438,0.000
3793.000,-13.672,-17.578,-23.926,-18.555,0.000
3797.000,0.488,-19.531,-28.320,-13.672,0.000
3801.000,-12.695,-28.809,-34.180,-30.273,0.000
3805.000,-28.320,-27.344,-35.156,-38.086,0.000
3809.000,-49.805,-34.180,-34.180,-31.738,0.000
3812.000,-39.551,-41.016,-34.180,-16.113,0.000
3816.000,-28.809,-39.551,-31.738,-11.719,0.000
3820.000,-26.855,-37.109,-26.855,-10.254,0.000
3824.000,-31.738,-39.551,-29.785,-15.137,0.000
3828.000,-21.484,-46.387,-35.645,-14.160,0.000
3832.000,-20.020,-49.805,-28.320,-11.230,0.000
3836.000,-57.129,-48.340,-18.555,-13.672,0.000
3840.000,-70.312,-46.387,-15.625,-20.508,0.000
3844.000,-58.594,-44.434,-16.113,-26.367,0.000
3848.000,-39.062,-39.551,-17.090,-31.250,0.000
3852.000,-33.691,-40.039,-19.531,-36.621,0.000
3855.000,-49.805,-31.250,-19.043,-34.668,0.000
3859.000,-58.105,-23.438,-12.207,-30.762,0.000
3863.000,-51.758,-20.996,-12.695,-32.715,0.000
3867.000,-39.551,-19.531,-19.043,-39.551,0.000
3871.000,-64.453,-25.391,-22.949,-52.734,0.000
3875.000,-84.961,-23.926,-22.461,-62.012,0.000
3879.000,-64.941,-12.207,-17.090,-55.664,0.000
3883.000,-45.898,-9.766,-17.578,-51.270,0.000
3887.000,-38.086,-11.719,-20.996,-47.363,0.000
3891.000,-40.039,-13.184,-26.367,-54.688,0.000
3895.000,-33.691,-10.742,-26.367,-62.988,0.000
3898.000,-16.113,-6.836,-24.902,-51.758,0.000
3902.000,-9.277,-5.859,-31.738,-45.410,0.000
3906.000,-15.137,-8.301,-34.668,-35.645,0.000
3910.000,-27.344,-10.254,-30.273,-15.625,0.000
3914.000,-29.785,-8.789,-27.344,-5.371,0.000
3918.000,-28.809,-10.742,-32.227,-11.719,0.000
3922.000,-20.020,-12.695,-26.367,-11.719,0.000
3926.000,-2.441,-10.742,-23.438,-10.742,0.000
3930.000,16.113,-12.207,-25.391,-4.883,0.000
3934.000,36.133,-10.254,-27.344,2.930,0.000
3937.000,34.668,-12.695,-26.367,0.977,0.000
3941.000,2.930,-20.020,-23.438,16.113,0.000
3945.000,9.766,-13.672,-21.484,37.109,0.000
3949.000,30.273,-8.789,-17.578,43.457,0.000
3953.000,31.250,-13.672,-18.555,46.875,0.000
3957.000,39.062,-21.484,-18.555,43.945,0.000
3961.000,35.156,-22.949,-16.602,42.480,0.000
3965.000,34.668,-23.438,-18.066,39.062,0.000
3969.000,23.926,-27.344,-23.926,30.273,0.000
3973.000,13.184,-24.902,-21.484,39.062,0.000
3977.000,37.109,-20.996,-16.113,46.387,0.000
3980.000,62.500,-17.578,-10.254,48.828,0.000
3984.000,57.617,-14.160,-6.836,44.434,0.000
3988.000,39.551,-10.742,-11.719,27.344,0.000
3992.000,35.645,-10.742,-9.277,19.043,0.000
3996.000,46.875,-7.324,-5.371,30.762,0.000
4000.000,52.246,-4.883,-7.812,36.621,0.000
4004.000,49.316,-9.277,-3.906,36.621,0.000
4008.000,46.875,-9.766,0.488,40.039,0.000
4012.000,48.828,-8.301,-1.953,38.086,0.000
4016.000,63.477,-5.371,1.465,36.133,0.000
4020.000,62.500,-6.348,4.883,37.598,0.000
4023.000,42.969,-9.277,0.977,32.227,0.000
4027.000,49.316,-5.371,-1.953,28.809,0.000
4031.000,59.570,0.000,-1.953,25.879,0.000
4035.000,47.363,0.977,-2.441,25.391,0.000
4039.000,28.809,-1.465,-3.906,21.973,0.000
4043.000,3.418,-4.883,-6.836,19.531,0.000
4047.000,-1.953,-8.789,-4.883,20.996,0.000
4051.000,5.859,-12.207,-5.859,19.043,0.000
4055.000,-10.254,-16.602,-13.672,18.066,0.000
4059.000,-15.625,-19.531,-15.137,18.555,0.000
4062.000,-3.906,-23.438,-13.672,13.672,0.000
4066.000,-1.465,-21.484,-14.648,5.859,0.000
4070.000,-3.418,-26.855,-16.113,-1.953,0.000
4074.000,-11.230,-31.738,-17.090,-9.766,0.000
4078.000,0.000,-19.043,-19.531,-2.930,0.000
4082.000,20.996,-12.207,-19.531,1.953,0.000
4086.000,22.949,-8.789,-22.949,-3.418,0.000
4090.000,10.742,-6.836,-26.855,-8.789,0.000
4094.000,13.672,-9.277,-24.902,-8.789,0.000
4098.000,19.531,-7.324,-28.809,-7.324,0.000
4102.000,4.883,-8.301,-30.762,-13.184,0.000
4105.000,3.418,-12.695,-27.832,-24.902,0.000
4109.000,13.184,-7.812,-26.855,-26.367,0.000
4113.000,15.137,-6.348,-25.879,-24.414,0.000
4117.000,8.789,-15.625,-29.297,-24.902,0.000
4121.000,-5.859,-16.602,-32.227,-19.531,0.000
4125.000,-19.043,-16.113,-26.855,-12.695,0.000
4129.000,-16.113,-26.367,-31.250,-13.184,0.000
4133.000,-11.719,-29.297,-34.180,-12.695,0.000
4137.000,-14.160,-26.367,-25.391,-15.137,0.000
4141.000,-14.160,-25.391,-20.508,-15.137,0.000
4145.000,-13.672,-29.297,-21.484,-9.277,0.000
4148.000,-19.531,-38.574,-27.344,-6.348,0.000
4152.000,-26.367,-39.062,-28.320,-6.836,0.000
4156.000,-4.395,-32.227,-18.555,8.789,0.000
4160.000,0.488,-34.668,-16.113,11.230,0.000
4164.000,-22.949,-26.855,-22.461,-16.602,0.000
4168.000,-12.207,-17.090,-20.020,-7.812,0.000
4172.000,-14.160,-33.203,-10.742,-11.719,0.000
4176.000,-33.203,-45.410,-11.230,-34.180,0.000
4180.000,-22.949,-18.555,-8.789,-18.555,0.000
4184.000,-24.414,-7.324,-11.719,-17.578,0.000
4187.000,-41.016,-21.973,-20.508,-34.668,0.000
4191.000,-47.852,-19.531,-14.648,-35.645,0.000
4195.000,-58.105,-27.344,-19.531,-53.223,0.000
4199.000,-53.711,-31.250,-21.484,-58.594,0.000
4203.000,-56.641,-38.086,-17.090,-50.781,0.000
4207.000,-72.754,-44.922,-22.949,-59.082,0.000
4211.000,-58.105,-18.066,-14.648,-56.152,0.000
4215.000,-42.969,-12.695,-9.277,-58.594,0.000
4219.000,-49.805,-21.484,-19.531,-67.383,0.000
4223.000,-55.176,-11.719,-21.484,-57.129,0.000
4227.000,-57.617,-5.371,-29.297,-64.941,0.000
4230.000,-50.781,-5.371,-26.367,-75.195,0.000
4234.000,-61.035,-29.297,-22.949,-74.707,0.000
4238.000,-81.055,-33.691,-40.527,-79.102,0.000
4242.000,-68.848,-21.484,-41.504,-73.242,0.000
4246.000,-59.082,-36.621,-21.484,-66.406,0.000
4250.000,-65.430,-53.711,-18.555,-69.336,0.000
4254.000,-54.199,-29.297,-16.113,-62.988,0.000
4258.000,-58.594,5.371,-10.742,-51.758,0.000
4262.000,-65.918,8.789,-16.113,-57.617,0.000
4266.000,-48.340,-8.301,-15.137,-48.828,0.000
4270.000,-46.387,-7.324,-13.184,-44.434,0.000
4273.000,-50.781,-12.695,-10.742,-45.898,0.000
4277.000,-48.340,-23.926,-18.066,-37.109,0.000
4281.000,-55.664,-25.391,-28.809,-52.246,0.000
4285.000,-69.336,-18.066,-25.879,-62.012,0.000
4289.000,-67.871,-16.113,-19.043,-47.852,0.000
4293.000,-62.988,-28.809,-18.066,-38.574,0.000
4297.000,-58.105,-35.645,-17.090,-37.598,0.000
4301.000,-54.688,-37.109,-17.090,-37.598,0.000
4305.000,-49.805,-21.484,-23.926,-29.297,0.000
4309.000,-63.965,-26.855,-34.180,-42.969,0.000
4312.000,-78.125,-44.922,-43.945,-51.270,0.000
4316.000,-72.754,-43.945,-36.621,-56.641,0.000
4320.000,-70.801,-36.621,-12.207,-62.012,0.000
4324.000,-60.547,-21.973,-8.301,-41.504,0.000
4328.000,-59.570,-31.250,-21.973,-46.875,0.000
4332.000,-70.801,-35.645,-29.297,-63.477,0.000
4336.000,-70.801,-40.039,-33.691,-67.871,0.000
4340.000,-57.617,-45.410,-24.414,-48.828,0.000
4344.000,-47.363,-27.344,-18.555,-39.062,0.000
4348.000,-51.270,-27.344,-31.250,-58.105,0.000
4352.000,-44.922,-13.672,-31.250,-53.711,0.000
4355.000,-58.594,-24.414,-30.762,-68.848,0.000
4359.000,-78.125,-42.480,-42.480,-92.285,0.000
4363.000,-67.871,-23.438,-44.922,-85.449,0.000
4367.000,-59.570,-19.043,-43.945,-77.148,0.000
4371.000,-68.848,-24.414,-38.574,-85.449,0.000
4375.000,-77.637,-20.996,-33.691,-91.797,0.000
4379.000,-92.773,-12.207,-40.527,-93.750,0.000
4383.000,-101.074,-27.344,-43.945,-95.215,0.000
4387.000,-83.984,-15.625,-36.621,-80.078,0.000
4391.000,-90.820,-1.953,-38.086,-84.473,0.000
4395.000,-104.492,-19.531,-51.758,-96.680,0.000
4398.000,-83.008,-21.973,-42.969,-89.844,0.000
4402.000,-80.566,-20.996,-37.598,-83.984,0.000
4406.000,-112.305,-33.203,-48.828,-85.449,0.000
4410.000,-113.281,-29.297,-48.828,-83.008,0.000
4414.000,-107.910,-29.785,-54.688,-88.867,0.000
4418.000,-94.238,-41.504,-54.199,-91.309,0.000
4422.000,-86.426,-40.039,-41.992,-81.543,0.000
4426.000,-88.867,-28.809,-45.410,-75.684,0.000
4430.000,-72.266,-18.555,-42.969,-62.012,0.000
4434.000,-57.129,-22.949,-30.273,-55.176,0.000
4437.000,-43.945,-21.973,-35.156,-58.105,0.000
4441.000,-61.523,-14.648,-32.715,-50.781,0.000
4445.000,-79.590,-18.066,-31.738,-56.152,0.000
4449.000,-65.430,-19.531,-28.809,-66.406,0.000
4453.000,-59.570,-38.086,-28.809,-68.848,0.000
4457.000,-68.848,-30.762,-35.645,-67.871,0.000
4461.000,-65.918,-27.344,-25.391,-60.059,0.000
4465.000,-46.875,-50.293,-12.207,-51.270,0.000
4469.000,-41.016,-33.203,-3.418,-43.945,0.000
4473.000,-42.969,-29.297,-6.836,-44.434,0.000
4477.000,-40.527,-23.926,-20.020,-43.457,0.000
4480.000,-43.457,-8.789,-11.230,-24.902,0.000
4484.000,-44.434,-29.297,8.301,-17.578,0.000
4488.000,-62.500,-34.180,-4.395,-46.387,0.000
4492.000,-79.102,-16.602,-23.926,-53.223,0.000
4496.000,-72.754,-16.113,-29.297,-45.410,0.000
4500.000,-57.617,-21.973,-20.020,-38.574,0.000
4504.000,-48.828,-15.137,-6.836,-31.250,0.000
4508.000,-63.477,-10.254,-0.488,-37.109,0.000
4512.000,-67.383,-14.648,-2.441,-38.574,0.000
4516.000,-58.105,-21.973,-5.859,-33.691,0.000
4520.000,-45.410,-14.160,-6.348,-29.297,0.000
4523.000,-55.664,-18.066,-20.020,-46.875,0.000
4527.000,-54.688,-32.715,-27.832,-49.316,0.000
4531.000,-25.879,-30.762,-28.320,-34.668,0.000
4535.000,-25.391,-20.996,-33.203,-36.133,0.000
4539.000,-52.246,-30.273,-48.340,-50.781,0.000
4543.000,-63.477,-22.949,-45.410,-46.875,0.000
4547.000,-57.129,-20.020,-33.691,-25.391,0.000
4551.000,-57.129,-28.320,-32.227,-28.809,0.000
4555.000,-59.082,-23.926,-40.527,-40.527,0.000
4559.000,-56.152,-26.367,-44.922,-41.992,0.000
4562.000,-44.434,-20.996,-26.855,-47.363,0.000
4566.000,-26.855,-7.324,-17.578,-44.434,0.000
4570.000,-31.250,-5.859,-27.344,-36.133,0.000
4574.000,-50.293,-33.203,-37.598,-45.410,0.000
4578.000,-46.875,-49.805,-26.367,-38.574,0.000
4582.000,-37.109,-44.434,-21.973,-29.785,0.000
4586.000,-42.480,-45.410,-39.062,-41.504,0.000
4590.000,-58.594,-41.504,-51.758,-49.805,0.000
4594.000,-67.383,-32.715,-43.945,-45.898,0.000
4598.000,-53.711,-17.090,-33.691,-34.668,0.000
4602.000,-40.527,-33.203,-26.855,-32.715,0.000
4605.000,-33.203,-38.086,-18.555,-30.762,0.000
4609.000,-20.508,-32.715,-23.438,-22.461,0.000
4613.000,-5.371,-35.645,-31.738,-21.484,0.000
4617.000,-10.742,-30.762,-22.949,-18.066,0.000
4621.000,-21.973,-23.438,-20.020,-20.996,0.000
4625.000,-27.832,-32.227,-23.438,-32.715,0.000
4629.000,-35.645,-60.059,-20.996,-20.020,0.000
4633.000,-29.297,-41.016,-11.719,-4.883,0.000
4637.000,-29.297,-16.602,-11.230,-6.348,0.000
4641.000,-29.785,-16.113,-13.184,-6.348,0.000
4645.000,-10.254,-4.395,1.465,7.812,0.000
4648.000,-16.113,-13.672,-6.836,-5.859,0.000
4652.000,-40.039,-13.672,-25.391,-23.438,0.000
4656.000,-42.969,-20.508,-28.320,-24.902,0.000
4660.000,-28.809,-30.762,-33.203,-20.996,0.000
4664.000,-25.879,-20.508,-38.574,-17.090,0.000
4668.000,-24.414,-17.578,-34.180,-20.020,0.000
4672.000,-27.344,-14.160,-34.180,-20.508,0.000
4676.000,-21.484,-0.977,-20.508,-11.230,0.000
4680.000,-15.625,16.113,-4.883,-10.254,0.000
4684.000,-32.715,10.254,-15.137,-25.879,0.000
4687.000,-39.551,0.000,-25.879,-32.715,0.000
4691.000,-43.457,-8.789,-42.480,-33.691,0.000
4695.000,-44.434,-42.969,-56.641,-39.062,0.000
4699.000,-28.320,-37.598,-50.781,-32.227,0.000
4703.000,-29.297,-21.484,-30.762,-26.855,0.000
4707.000,-37.598,-26.367,-20.020,-30.273,0.000
4711.000,-24.902,-4.395,-19.531,-10.742,0.000
4715.000,-18.555,-0.977,-38.574,-20.020,0.000
4719.000,4.395,-7.324,-56.152,-12.695,0.000
4723.000,-10.742,0.977,-51.270,-6.348,0.000
4727.000,-59.082,-11.230,-32.715,-25.391,0.000
4730.000,-69.824,-30.762,-30.762,-32.715,0.000
4734.000,-60.059,-34.668,-42.480,-36.621,0.000
4738.000,-36.133,-36.621,-38.086,-21.973,0.000
4742.000,-19.043,-38.574,-36.133,-17.090,0.000
4746.000,-1.465,-32.715,-40.039,-22.949,0.000
4750.000,-5.371,-34.668,-40.527,-27.344,0.000
4754.000,-28.320,-42.969,-43.457,-33.691,0.000
4758.000,-29.297,-40.527,-38.086,-25.391,0.000
4762.000,-26.855,-35.645,-31.738,-10.742,0.000
4766.000,-37.598,-36.133,-33.203,-12.695,0.000
4769.000,-50.293,-37.598,-26.367,-32.715,0.000
4773.000,-64.941,-38.086,-22.949,-58.105,0.000
4777.000,-64.453,-30.762,-23.438,-55.176,0.000
4781.000,-60.059,-29.785,-21.484,-55.176,0.000
4785.000,-59.082,-33.203,-16.602,-59.570,0.000
4789.000,-61.523,-28.809,-11.719,-55.176,0.000
4793.000,-68.848,-30.762,-9.766,-68.848,0.000
4797.000,-78.613,-30.273,-10.254,-71.777,0.000
4801.000,-80.566,-31.250,-13.184,-75.195,0.000
4805.000,-76.172,-29.785,-14.648,-78.613,0.000
4809.000,-74.707,-26.367,-12.695,-72.754,0.000
4812.000,-53.711,-29.297,-13.184,-57.129,0.000
4816.000,-29.297,-24.414,-14.648,-44.434,0.000
4820.000,-31.250,-22.461,-12.695,-62.500,0.000
4824.000,-47.852,-19.531,-11.230,-69.824,0.000
4828.000,-22.949,-8.789,0.488,-35.156,0.000
4832.000,2.930,-17.578,3.906,-18.555,0.000
4836.000,-20.996,-29.785,-15.137,-39.062,0.000
4840.000,-21.484,-17.578,-25.391,-36.621,0.000
4844.000,-6.348,-17.090,-24.902,-19.531,0.000
4848.000,-10.742,-25.879,-19.043,-3.418,0.000
4852.000,-0.977,-21.484,-12.695,6.348,0.000
4855.000,16.602,-24.414,-13.184,9.277,0.000
4859.000,22.949,-31.250,-16.113,16.602,0.000
4863.000,39.551,-27.832,-18.066,24.414,0.000
4867.000,48.340,-23.438,-19.043,29.785,0.000
4871.000,25.879,-18.555,-17.578,33.203,0.000
4875.000,15.625,-24.902,-19.531,31.250,0.000
4879.000,34.668,-30.273,-24.414,26.855,0.000
4883.000,37.598,-26.855,-24.414,29.297,0.000
4887.000,21.484,-21.973,-17.090,36.133,0.000
4891.000,11.230,-25.879,-17.578,22.949,0.000
4894.000,24.902,-24.902,-20.020,15.137,0.000
4898.000,34.180,-28.320,-21.484,18.555,0.000
4902.000,26.367,-44.434,-22.949,20.996,0.000
4906.000,24.902,-48.828,-23.926,19.531,0.000
4910.000,9.766,-50.293,-24.902,14.160,0.000
4914.000,2.930,-41.016,-27.344,12.207,0.000
4918.000,2.930,-34.180,-30.273,8.789,0.000
4922.000,-4.395,-34.668,-31.250,6.836,0.000
4926.000,-11.230,-35.156,-34.180,-0.977,0.000
4930.000,-4.883,-35.156,-30.273,6.836,0.000
4934.000,3.418,-27.344,-33.203,12.695,0.000
4937.000,-3.418,-20.020,-35.156,12.695,0.000
4941.000,-6.348,-25.879,-28.320,18.066,0.000
4945.000,4.395,-25.879,-26.855,13.672,0.000
4949.000,13.672,-18.555,-28.809,6.348,0.000
4953.000,21.484,-21.973,-31.250,-2.441,0.000
4957.000,17.090,-16.113,-28.809,-2.930,0.000
4961.000,14.648,-16.113,-32.227,1.953,0.000
4965.000,22.949,-26.855,-29.785,4.395,0.000
4969.000,27.344,-18.555,-26.367,-1.465,0.000
4973.000,28.320,-10.254,-22.461,-1.953,0.000
4977.000,16.602,-13.672,-26.855,9.277,0.000
4980.000,8.789,-1.953,-21.973,20.020,0.000
4984.000,10.254,-5.371,-17.578,20.996,0.000
4988.000,0.977,-21.484,-26.855,10.742,0.000
4992.000,-6.836,-18.066,-25.391,8.301,0.000
4996.000,13.184,-12.695,-21.973,17.090,0.000
5000.000,18.555,-15.625,-28.320,15.625,0.000
5004.000,8.789,-22.949,-28.809,15.625,0.000
5008.000,6.836,-18.066,-20.508,19.531,0.000
5012.000,18.066,-4.395,-12.207,23.926,0.000
5016.000,26.367,-2.930,-13.672,20.996,0.000
5019.000,15.137,-4.883,-13.184,21.973,0.000
5023.000,11.230,-7.324,-6.348,21.973,0.000
5027.000,14.160,-9.766,-7.324,18.066,0.000
5031.000,16.113,-6.348,-6.836,24.902,0.000
5035.000,19.043,-8.789,-8.789,22.949,0.000
5039.000,17.578,-13.184,-10.254,19.043,0.000
5043.000,16.602,-13.672,-1.465,27.832,0.000
5047.000,20.996,-15.137,-0.977,22.949,0.000
5051.000,24.414,-23.438,-6.836,10.742,0.000
5055.000,13.184,-21.484,-4.395,13.184,0.000
5059.000,4.883,-16.113,0.488,20.996,0.000
5062.000,-0.977,-18.066,-3.906,18.555,0.000
5066.000,-7.324,-17.090,-4.883,13.184,0.000
5070.000,-1.465,-9.277,0.488,8.301,0.000
5074.000,-7.324,-17.090,-8.789,8.301,0.000
5078.000,-6.836,-39.062,-16.602,11.719,0.000
5082.000,-4.395,-39.551,-10.742,9.766,0.000
5086.000,-13.184,-28.809,-8.301,7.812,0.000
5090.000,-14.160,-23.438,-11.230,-3.906,0.000
5094.000,-14.160,-23.438,-17.090,-13.672,0.000
5098.000,-18.066,-26.855,-21.484,-16.602,0.000
5102.000,-22.461,-29.297,-17.090,-19.043,0.000
5105.000,-22.949,-33.691,-7.324,-19.043,0.000
5109.000,-5.859,-30.273,-5.371,-9.277,0.000
5113.000,14.648,-8.789,-14.160,6.836,0.000
5117.000,-9.277,-9.766,-22.949,-13.672,0.000
5121.000,-46.387,-29.297,-27.344,-38.086,0.000
5125.000,-52.246,-25.879,-27.344,-39.551,0.000
5129.000,-41.016,-25.879,-23.926,-25.391,0.000
5133.000,-32.227,-24.902,-16.602,-10.254,0.000
5137.000,-33.691,-20.996,-17.090,-22.461,0.000
5141.000,-56.152,-19.043,-24.414,-37.109,0.000
5144.000,-60.059,-31.738,-26.367,-41.504,0.000
5148.000,-27.832,-32.715,-16.113,-38.574,0.000
5152.000,-32.715,-3.906,-20.996,-43.457,0.000
5156.000,-53.711,-2.930,-27.832,-55.176,0.000
5160.000,-53.711,-1.953,-21.973,-60.547,0.000
5164.000,-61.035,-3.906,-21.484,-58.594,0.000
5168.000,-70.801,-11.230,-17.578,-62.988,0.000
5172.000,-83.008,-32.715,-14.160,-71.777,0.000
5176.000,-77.148,-37.109,-3.418,-64.941,0.000
5180.000,-65.430,-21.484,0.488,-62.500,0.000
5184.000,-72.754,-29.297,-9.277,-75.195,0.000
5187.000,-89.355,-18.555,-4.883,-83.008,0.000
5191.000,-110.840,-18.066,-3.418,-99.121,0.000
5195.000,-113.770,-22.949,-10.254,-106.934,0.000
5199.000,-104.980,-35.645,-7.324,-101.562,0.000
5203.000,-116.699,-56.152,-15.137,-111.816,0.000
5207.000,-140.137,-27.832,-16.113,-137.207,0.000
5211.000,-132.812,2.441,4.395,-130.859,0.000
5215.000,-113.281,-8.789,12.207,-114.258,0.000
5219.000,-116.211,-24.414,4.395,-131.836,0.000
5223.000,-130.371,-16.602,4.883,-139.648,0.000
5227.000,-132.324,-15.137,-3.906,-140.625,0.000
5230.000,-128.418,-4.395,-23.926,-143.555,0.000
5234.000,-127.930,-6.348,-27.832,-133.789,0.000
5238.000,-119.629,-37.598,-21.484,-128.418,0.000
5242.000,-110.352,-75.684,-9.766,-116.699,0.000
5246.000,-90.820,-33.203,3.906,-88.867,0.000
5250.000,-96.680,34.180,-7.812,-96.680,0.000
5254.000,-127.930,-4.395,-30.762,-117.676,0.000
5258.000,-127.930,-24.414,-29.785,-98.145,0.000
5262.000,-104.980,-20.020,-24.414,-82.520,0.000
5266.000,-92.773,-34.668,-34.668,-83.008,0.000
5269.000,-83.984,-25.879,-32.715,-82.520,0.000
5273.000,-72.266,-9.277,-19.531,-71.289,0.000
5277.000,-54.199,-20.996,-13.184,-60.547,0.000
5281.000,-45.898,-43.457,-29.297,-54.199,0.000
5285.000,-35.156,-9.277,-24.902,-37.598,0.000
5289.000,-29.297,8.789,-2.930,-27.344,0.000
5293.000,-57.617,-22.949,-23.438,-41.504,0.000
5297.000,-64.453,-32.227,-51.270,-50.781,0.000
5301.000,-54.199,-19.043,-38.574,-50.293,0.000
5305.000,-41.992,-21.973,-10.742,-28.320,0.000
5309.000,-29.297,-17.090,-13.184,-14.160,0.000
5312.000,-28.809,-17.578,-27.344,-31.738,0.000
5316.000,-22.461,-9.277,-33.691,-27.344,0.000
5320.000,-11.719,18.066,-24.414,-20.996,0.000
5324.000,-15.625,2.441,-9.766,-26.855,0.000
5328.000,-2.930,-1.465,-8.789,-23.438,0.000
5332.000,21.484,4.883,-13.184,-16.113,0.000
5336.000,8.789,-1.465,-24.902,-8.301,0.000
5340.000,-7.324,-22.461,-22.949,-9.277,0.000
5344.000,0.000,-23.926,-12.207,-13.672,0.000
5348.000,8.301,0.000,-10.254,-9.766,0.000
5352.000,-7.812,-29.297,-8.789,-21.973,0.000
5355.000,-42.480,-15.625,2.930,-28.320,0.000
5359.000,-59.570,18.555,-0.488,-21.973,0.000
5363.000,-54.199,4.395,-19.531,-27.832,0.000
5367.000,-36.621,1.465,-20.996,-28.809,0.000
5371.000,-36.621,-14.648,-12.207,-30.273,0.000
5375.000,-50.293,-34.180,-17.090,-39.062,0.000
5379.000,-46.875,-32.227,-20.020,-41.016,0.000
5383.000,-41.504,-38.086,-15.625,-35.645,0.000
5387.000,-38.086,-51.758,-25.391,-33.691,0.000
5391.000,-49.316,-26.367,-31.738,-44.434,0.000
5394.000,-59.082,-17.578,-31.738,-52.246,0.000
5398.000,-44.434,-25.879,-32.715,-42.969,0.000
5402.000,-37.598,-16.602,-33.691,-38.574,0.000
5406.000,-49.316,-25.879,-41.992,-50.781,0.000
5410.000,-38.574,-29.297,-50.293,-50.293,0.000
5414.000,-18.066,-32.715,-43.457,-32.715,0.000
5418.000,-45.410,-61.035,-43.945,-43.945,0.000
5422.000,-72.266,-64.453,-53.711,-61.035,0.000
5426.000,-59.082,-39.062,-31.250,-49.316,0.000
5430.000,-42.480,-38.086,-21.484,-32.715,0.000
5434.000,-37.109,-36.621,-37.598,-37.109,0.000
5437.000,-42.969,-30.273,-32.715,-34.180,0.000
5441.000,-50.781,-42.480,-30.762,-29.785,0.000
5445.000,-46.387,-43.457,-27.344,-38.086,0.000
5449.000,-35.645,-25.391,-22.461,-32.715,0.000
5453.000,-6.836,-20.508,-24.902,-8.789,0.000
5457.000,-8.301,-37.109,-35.645,-18.066,0.000
5461.000,-20.996,-48.340,-48.340,-37.109,0.000
5465.000,-16.113,-20.508,-52.246,-31.738,0.000
5469.000,-1.465,-12.695,-28.320,-15.625,0.000
5473.000,0.000,-19.531,-29.297,-10.742,0.000
5477.000,-19.531,-20.020,-33.691,-20.020,0.000
5480.000,-25.391,-26.367,-18.555,-20.996,0.000
5484.000,-1.465,-35.156,-11.719,-8.301,0.000
5488.000,19.531,-22.949,-13.672,1.953,0.000
5492.000,24.902,-42.480,-19.043,2.441,0.000
5496.000,16.602,-47.852,-21.484,0.000,0.000
5500.000,-8.789,2.930,-15.137,2.441,0.000
5504.000,-6.348,-12.695,-20.996,19.043,0.000
5508.000,-20.508,-38.086,-28.809,12.695,0.000
5512.000,-34.180,-13.672,-16.113,0.000,0.000
5516.000,-32.715,-26.855,0.977,-0.977,0.000
5519.000,-25.391,-44.434,-0.488,-5.859,0.000
5523.000,-17.090,-42.480,-18.066,-7.324,0.000
5527.000,-13.672,-8.789,-15.137,-6.836,0.000
5531.000,-7.324,14.648,-9.277,-11.230,0.000
5535.000,-7.812,-4.395,-6.836,-14.160,0.000
5539.000,-12.695,-4.395,-8.789,-21.484,0.000
5543.000,-17.090,-11.719,-12.695,-33.203,0.000
5547.000,-8.789,-16.602,-11.719,-30.762,0.000
5551.000,-2.930,-14.160,-6.348,-18.555,0.000
5555.000,-13.184,-23.926,-25.391,-28.320,0.000
5559.000,-24.902,-54.688,-53.711,-45.898,0.000
5562.000,-26.855,-48.828,-41.992,-45.898,0.000
5566.000,-24.414,-18.555,-33.203,-33.203,0.000
5570.000,-3.906,-8.789,-19.043,-10.742,0.000
5574.000,-11.719,-13.184,-14.648,-24.902,0.000
5578.000,-45.410,-20.996,-31.250,-55.176,0.000
5582.000,-33.203,-22.949,-41.992,-48.340,0.000
5586.000,-19.043,-26.367,-38.574,-28.320,0.000
5590.000,-11.719,-28.809,-35.645,-20.020,0.000
5594.000,-26.367,-51.270,-56.641,-29.785,0.000
5598.000,-47.363,-69.824,-71.777,-39.551,0.000
5602.000,-41.504,-50.781,-60.059,-33.203,0.000
5605.000,-30.273,-31.250,-47.363,-16.113,0.000
5609.000,-29.297,-16.113,-41.992,-24.902,0.000
5613.000,-20.508,-28.320,-52.246,-31.250,0.000
5617.000,-11.230,-55.176,-71.289,-13.184,0.000
5621.000,-22.461,-32.715,-52.734,-11.719,0.000
5625.000,-14.160,-22.461,-40.039,-14.648,0.000
5629.000,16.602,-38.086,-35.156,-1.465,0.000
5633.000,19.043,-32.227,-35.156,3.418,0.000
5637.000,-20.020,-32.715,-58.105,0.000,0.000
5641.000,-39.551,-29.785,-51.270,-6.836,0.000
5644.000,-20.508,-30.762,-34.180,-8.789,0.000
5648.000,13.184,-32.715,-36.621,6.836,0.000
5652.000,41.016,-21.484,-47.852,14.160,0.000
5656.000,27.344,-26.367,-40.527,-2.441,0.000
5660.000,23.926,-50.781,-33.691,-5.859,0.000
5664.000,47.852,-48.340,-33.691,0.488,0.000
5668.000,37.109,-18.066,-41.016,3.418,0.000
5672.000,21.973,-20.508,-44.434,13.672,0.000
5676.000,10.254,-37.598,-42.969,14.160,0.000
5680.000,13.672,-42.480,-41.016,18.555,0.000
5684.000,29.297,-35.645,-42.480,27.832,0.000
5687.000,11.230,-31.250,-52.734,17.090,0.000
5691.000,-10.742,-32.715,-50.293,0.488,0.000
5695.000,-6.348,-29.297,-45.410,-4.395,0.000
5699.000,15.137,-23.438,-41.504,9.766,0.000
5703.000,12.695,-24.902,-30.273,11.230,0.000
5707.000,-8.301,-23.438,-30.273,-10.742,0.000
5711.000,-24.414,-45.410,-39.062,-27.344,0.000
5715.000,-20.508,-72.266,-40.039,-20.508,0.000
5719.000,-12.207,-58.105,-57.617,-17.090,0.000
5723.000,-20.508,-20.508,-46.387,-26.367,0.000
5727.000,-28.320,-15.137,-22.461,-39.551,0.000
5730.000,-27.832,-26.855,-30.762,-45.898,0.000
5734.000,-30.273,-28.320,-35.156,-41.504,0.000
5738.000,-37.598,-29.785,-35.156,-38.574,0.000
5742.000,-45.410,-28.320,-30.273,-34.180,0.000
5746.000,-38.086,-50.781,-34.180,-24.902,0.000
5750.000,-20.020,-57.129,-39.062,-13.672,0.000
5754.000,-22.949,-64.453,-32.227,-16.602,0.000
5758.000,-36.133,-62.988,-34.668,-19.531,0.000
5762.000,-28.320,-13.672,-41.504,-18.555,0.000
5766.000,-14.648,-2.441,-39.551,-31.738,0.000
5769.000,-21.973,-18.066,-33.203,-41.504,0.000
5773.000,-34.180,-20.508,-25.879,-43.945,0.000
5777.000,-23.438,-20.508,-17.578,-40.039,0.000
5781.000,-6.348,-42.969,-20.020,-37.598,0.000
5785.000,0.000,-43.457,-21.973,-34.668,0.000
5789.000,-6.836,-16.602,-15.137,-20.996,0.000
5793.000,-22.949,-18.066,-19.043,-18.555,0.000
5797.000,-17.090,-27.832,-25.879,-28.320,0.000
5801.000,-7.324,-29.297,-24.414,-29.785,0.000
5805.000,-11.719,-23.438,-19.043,-18.555,0.000
5809.000,-20.996,-25.879,-21.484,-17.578,0.000
5812.000,-24.902,-28.320,-18.555,-16.602,0.000
5816.000,-0.977,-18.066,-11.230,-2.930,0.000
5820.000,18.555,-13.184,-10.742,-4.883,0.000
5824.000,9.277,-30.762,-10.254,-18.066,0.000
5828.000,-11.719,-43.457,-26.367,-12.207,0.000
5832.000,-32.227,-19.531,-40.527,-12.207,0.000
5836.000,-42.969,-10.254,-23.926,-23.926,0.000
5840.000,-39.551,-36.621,-19.043,-21.973,0.000
5844.000,-33.203,-25.879,-26.855,-21.484,0.000
5848.000,-12.695,0.000,-19.531,-4.395,0.000
5852.000,-4.883,-6.348,-11.719,-0.488,0.000
5855.000,-51.270,-21.484,-15.625,-39.551,0.000
5859.000,-62.988,-28.809,-16.113,-41.992,0.000
5863.000,-54.688,-25.879,-5.859,-41.504,0.000
5867.000,-73.730,-33.203,-8.789,-60.059,0.000
5871.000,-75.195,-35.645,-18.066,-62.012,0.000
5875.000,-75.684,-38.086,-16.602,-61.523,0.000
5879.000,-74.707,-33.691,-6.836,-55.664,0.000
5883.000,-71.289,-27.832,-9.277,-63.477,0.000
5887.000,-69.824,-38.574,-20.996,-74.219,0.000
5891.000,-66.406,-33.203,-21.973,-64.941,0.000
5894.000,-65.430,-20.508,-27.832,-66.406,0.000
5898.000,-92.773,-37.598,-30.762,-90.820,0.000
5902.000,-124.512,-38.086,-17.090,-111.328,0.000
5906.000,-134.766,-10.742,-6.348,-120.605,0.000
5910.000,-156.250,-2.930,-13.184,-135.742,0.000
5914.000,-171.875,-9.277,-15.625,-151.367,0.000
5918.000,-165.039,-0.977,-1.465,-148.926,0.000
5922.000,-169.922,-2.441,2.441,-146.484,0.000
5926.000,-187.988,-17.090,-20.508,-163.086,0.000
5930.000,-178.223,-5.371,-16.113,-171.875,0.000
5934.000,-169.434,-11.230,-1.953,-178.711,0.000
5937.000,-175.781,-12.207,-6.836,-181.641,0.000
5941.000,-181.641,15.625,0.488,-169.434,0.000
5945.000,-186.523,5.371,-0.488,-174.316,0.000
5949.000,-175.781,-5.371,-19.531,-178.223,0.000
5953.000,-195.312,-16.602,-23.926,-169.922,0.000
5957.000,-202.637,-15.137,-10.254,-159.180,0.000
5961.000,-154.785,11.230,18.555,-126.953,0.000
5965.000,-136.230,-6.836,11.719,-118.652,0.000
5969.000,-136.719,-36.133,-3.906,-128.418,0.000
5973.000,-136.719,-30.273,-2.441,-125.000,0.000
5977.000,-110.840,-32.715,0.488,-106.445,0.000
5980.000,-83.984,-16.113,-1.953,-85.938,0.000
5984.000,-86.426,-7.812,-26.855,-80.566,0.000
5988.000,-104.492,-54.199,-19.531,-82.031,0.000
5992.000,-92.773,-49.316,-5.371,-69.824,0.000
5996.000,-52.246,-10.742,-12.207,-41.016,0.000
6000.000,-41.016,-13.184,-15.625,-30.273,0.000
6004.000,-46.875,-14.160,-12.207,-42.480,0.000
6008.000,-44.434,-19.531,-4.883,-29.297,0.000
6012.000,-26.855,-39.062,2.930,3.906,0.000
6016.000,-14.648,-34.180,0.000,-3.906,0.000
6019.000,-14.648,-18.555,-15.625,-10.742,0.000
6023.000,-34.180,-22.461,-31.250,-6.348,0.000
6027.000,-45.410,-28.809,-30.762,-1.953,0.000
6031.000,-8.789,-33.203,-10.742,17.090,0.000
6035.000,-1.953,-65.918,-5.859,9.766,0.000
6039.000,-24.414,-54.688,-19.043,-8.301,0.000
6043.000,-18.555,-30.762,-39.551,-12.695,0.000
6047.000,2.441,-40.039,-55.664,-4.883,0.000
6051.000,13.672,0.488,-41.504,-5.371,0.000
6055.000,13.184,11.719,-16.602,1.953,0.000
6059.000,1.465,-17.090,-11.230,3.418,0.000
6062.000,-15.625,-38.086,-35.645,-16.602,0.000
6066.000,-1.465,-48.340,-34.668,-19.043,0.000
6070.000,9.766,-58.594,-23.438,-12.207,0.000
6074.000,4.883,-53.223,-30.273,-8.301,0.000
6078.000,0.488,-24.414,-10.254,-11.719,0.000
6082.000,3.418,-1.465,-4.883,-14.160,0.000
6086.000,16.602,18.066,-10.254,10.254,0.000
6090.000,2.930,0.488,-24.902,13.672,0.000
6094.000,-7.324,-30.273,-24.902,1.953,0.000
6098.000,2.441,-16.602,-16.602,0.977,0.000
6102.000,-13.184,-24.414,-13.184,-2.441,0.000
6105.000,-27.344,-32.715,-8.789,-1.465,0.000
6109.000,-19.043,-24.414,-33.203,-5.371,0.000
6113.000,-11.719,-25.391,-47.363,-15.625,0.000
6117.000,-28.809,-23.438,-25.391,-12.207,0.000
6121.000,-46.875,-24.414,-12.695,-7.324,0.000
6125.000,-29.785,-14.648,-10.254,-5.371,0.000
6129.000,-17.578,-32.715,-19.043,-4.395,0.000
6133.000,-19.043,-50.293,-41.016,-11.230,0.000
6137.000,-6.348,-47.363,-3.418,0.000,0.000
6141.000,-20.508,-59.570,13.672,1.953,0.000
6144.000,-34.180,-35.156,-18.555,-7.324,0.000
6148.000,-21.484,-24.414,-28.809,-14.648,0.000
6152.000,-18.555,-30.762,-23.926,-21.973,0.000
6156.000,-13.672,-6.348,-15.625,-14.160,0.000
6160.000,-13.184,-13.184,-11.230,-0.488,0.000
6164.000,-33.691,-22.949,-17.578,-5.859,0.000
6168.000,-29.297,-14.648,-13.672,-13.672,0.000
6172.000,-24.902,-18.555,-19.043,-13.672,0.000
6176.000,-33.691,-33.691,-22.461,-19.531,0.000
6180.000,0.977,-29.297,-8.789,-12.207,0.000
6184.000,8.789,-31.738,-20.020,-13.672,0.000
6187.000,-14.648,-34.180,-22.949,-24.414,0.000
6191.000,-34.180,-15.137,-29.297,-29.297,0.000
6195.000,-36.621,-3.906,-41.992,-21.973,0.000
6199.000,-19.531,0.488,-22.949,-4.395,0.000
6203.000,-12.207,-0.488,-4.395,-5.859,0.000
6207.000,-18.066,-7.812,-5.371,-21.484,0.000
6211.000,-5.371,-31.738,-20.508,-15.625,0.000
6215.000,2.441,-54.199,-38.574,-16.602,0.000
6219.000,-16.602,-46.387,-38.574,-37.598,0.000
6223.000,-33.203,-15.137,-31.738,-48.828,0.000
6227.000,-45.410,-22.461,-19.531,-38.574,0.000
6230.000,-39.062,-35.645,-14.160,-26.367,0.000
6234.000,-44.922,-18.066,-31.250,-29.785,0.000
6238.000,-71.777,-14.160,-38.574,-40.527,0.000
6242.000,-57.129,-28.320,-31.250,-35.645,0.000
6246.000,-27.832,-16.602,-26.367,-20.996,0.000
6250.000,-37.598,-20.508,-40.039,-27.832,0.000
6254.000,-48.828,-47.363,-46.387,-38.086,0.000
6258.000,-54.199,-42.969,-35.156,-45.898,0.000
6262.000,-46.387,-17.578,-33.203,-41.992,0.000
6266.000,-29.785,-27.832,-26.855,-22.949,0.000
6269.000,-25.879,-50.293,-45.410,-12.695,0.000
6273.000,-15.625,-18.066,-53.711,-18.555,0.000
6277.000,-13.184,12.207,-16.602,-25.391,0.000
6281.000,-16.602,-15.137,-9.766,-33.691,0.000
6285.000,-32.715,-21.973,-22.461,-35.156,0.000
6289.000,-40.039,-36.133,-24.902,-31.738,0.000
6293.000,-31.250,-38.574,-21.484,-23.438,0.000
6297.000,-17.578,-7.812,-22.949,-15.137,0.000
6301.000,-2.930,8.789,-26.855,-23.438,0.000
6305.000,-6.348,9.277,-27.344,-24.902,0.000
6309.000,3.906,-20.020,-18.555,2.441,0.000
6312.000,24.902,-16.602,-0.488,30.273,0.000
6316.000,22.949,-6.348,-12.695,25.391,0.000
6320.000,-10.254,-15.625,-30.273,-3.418,0.000
6324.000,-19.531,-17.090,-10.742,-12.695,0.000
6328.000,-8.301,-21.484,-21.973,-10.742,0.000
6332.000,12.695,-25.879,-34.668,-4.395,0.000
6336.000,11.230,-23.438,-25.879,-12.695,0.000
6340.000,-5.859,-12.695,-25.879,-25.879,0.000
6344.000,-20.996,-7.324,-41.016,-16.602,0.000
6348.000,-25.391,-23.438,-34.668,-4.395,0.000
6352.000,-3.906,-25.879,-12.207,0.000,0.000
6355.000,-8.301,-4.883,-21.973,-6.348,0.000
6359.000,-13.184,-14.160,-23.926,-5.859,0.000
6363.000,4.883,-39.062,-20.020,-0.488,0.000
6367.000,8.301,-41.016,-42.480,-2.930,0.000
6371.000,-10.742,-18.066,-36.133,-8.789,0.000
6375.000,-14.648,-25.391,-15.625,-12.207,0.000
6379.000,-20.996,-16.602,-27.832,-14.648,0.000
6383.000,-20.996,-0.488,-26.367,-2.930,0.000
6387.000,-23.438,-14.648,-22.461,-3.418,0.000
6391.000,-47.363,-18.555,-28.809,-26.367,0.000
6394.000,-51.758,-27.832,-29.785,-40.039,0.000
6398.000,-36.133,-28.809,-22.949,-35.645,0.000
6402.000,-14.648,-20.508,-11.719,-27.832,0.000
6406.000,-19.043,-10.742,-16.602,-37.109,0.000
6410.000,-34.180,-15.137,-27.344,-44.434,0.000
6414.000,-24.902,-28.320,-29.785,-31.250,0.000
6418.000,-11.230,-12.695,-29.785,-24.414,0.000
6422.000,10.742,-7.812,-28.809,-1.953,0.000
6426.000,9.277,-4.883,-31.738,-2.441,0.000
6430.000,-10.254,-5.859,-27.832,-26.367,0.000
6434.000,-11.230,-20.996,-28.320,-23.438,0.000
6437.000,-22.949,-39.062,-34.668,-32.227,0.000
6441.000,-35.156,-37.109,-33.691,-47.363,0.000
6445.000,-21.973,-27.344,-41.992,-41.016,0.000
6449.000,5.859,-29.297,-43.457,-25.879,0.000
6453.000,14.648,-26.367,-34.668,-24.414,0.000
6457.000,10.254,-36.133,-33.203,-33.203,0.000
6461.000,7.812,-33.203,-36.133,-29.785,0.000
6465.000,4.395,-26.855,-35.645,-8.301,0.000
6469.000,8.301,-24.902,-26.367,7.324,0.000
6473.000,-3.418,-20.508,-27.832,-1.465,0.000
6477.000,-23.926,-19.043,-32.227,-13.672,0.000
6480.000,-17.578,-23.438,-31.738,-10.742,0.000
6484.000,2.441,-27.344,-29.297,-1.465,0.000
6488.000,13.184,-22.949,-20.996,3.418,0.000
6492.000,13.672,-18.555,-17.090,3.418,0.000
6496.000,20.508,-22.461,-20.508,3.418,0.000
6500.000,26.367,-24.902,-25.391,10.742,0.000
6504.000,27.344,-22.461,-24.902,15.137,0.000
6508.000,30.273,-13.184,-17.090,14.648,0.000
6512.000,35.156,-8.789,-18.066,14.648,0.000
6516.000,29.785,-18.066,-30.273,2.441,0.000
6519.000,24.414,-25.879,-36.133,-5.371,0.000
6523.000,29.297,-21.484,-31.250,-8.301,0.000
6527.000,31.250,-20.996,-25.879,-3.906,0.000
6531.000,44.434,-23.438,-22.461,1.953,0.000
6535.000,59.570,-20.020,-19.043,1.953,0.000
6539.000,41.016,-24.414,-23.926,6.836,0.000
6543.000,11.230,-25.879,-30.273,2.930,0.000
6547.000,13.184,-33.691,-26.367,-6.348,0.000
6551.000,10.254,-37.598,-21.484,-1.465,0.000
6555.000,-2.441,-26.367,-17.090,6.348,0.000
6559.000,-3.906,-16.602,-17.090,2.441,0.000
6562.000,-6.836,-20.020,-22.461,-7.812,0.000
6566.000,5.859,-21.973,-17.090,-4.883,0.000
6570.000,12.207,-17.578,-5.371,4.883,0.000
6574.000,-11.230,-16.113,-8.301,-3.906,0.000
6578.000,-14.160,-13.184,-9.766,-2.930,0.000
6582.000,5.371,-22.461,-6.348,9.277,0.000
6586.000,2.930,-23.438,-15.137,0.977,0.000
6590.000,-4.883,-18.555,-24.414,-16.602,0.000
6594.000,4.883,-13.672,-20.996,-14.160,0.000
6598.000,23.438,-8.789,-10.254,4.395,0.000
6601.000,21.973,-8.301,-10.254,7.324,0.000
6605.000,10.742,-11.719,-10.742,-2.930,0.000
6609.000,24.414,-14.648,-1.953,-3.418,0.000
6613.000,47.363,-15.625,1.953,0.488,0.000
6617.000,35.156,-17.578,-4.883,-3.418,0.000
6621.000,6.836,-26.367,-16.113,-12.695,0.000
6625.000,-3.906,-24.902,-12.207,-15.625,0.000
6629.000,5.859,3.906,-7.812,-10.254,0.000
6633.000,5.371,13.672,-18.555,-19.531,0.000
6637.000,-11.719,1.465,-23.438,-29.297,0.000
6641.000,-20.020,-8.789,-19.043,-16.113,0.000
6644.000,-21.973,-11.230,-11.719,-0.977,0.000
6648.000,-24.902,-14.160,-14.160,-5.859,0.000
6652.000,-16.602,-9.277,-10.742,-3.906,0.000
6656.000,-12.695,-2.930,-4.395,-1.953,0.000
6660.000,-16.113,-9.766,-2.441,1.465,0.000
6664.000,-12.695,-14.648,-1.465,4.395,0.000
6668.000,-4.395,-29.785,-2.930,0.977,0.000
6672.000,-6.348,-27.832,-11.719,-4.395,0.000
6676.000,-6.348,-2.441,-15.137,-6.836,0.000
6680.000,8.301,-4.395,-9.277,-9.277,0.000
6684.000,5.859,-22.949,-10.254,-17.578,0.000
6687.000,-20.508,-28.809,-19.043,-21.484,0.000
6691.000,-31.250,-25.391,-20.020,-20.020,0.000
6695.000,-22.461,-16.113,-11.719,-16.113,0.000
6699.000,-18.066,-18.555,-5.859,-8.789,0.000
6703.000,-11.230,-28.809,-3.418,-8.301,0.000
6707.000,-5.371,-16.602,-3.906,-2.930,0.000
6711.000,-7.812,-14.160,-6.836,-0.488,0.000
6715.000,-0.488,-18.066,-7.812,-2.441,0.000
6719.000,0.000,-10.254,-4.395,-0.977,0.000
6723.000,-10.254,-15.137,-6.348,-8.301,0.000
6727.000,-15.625,-33.691,-8.789,-12.207,0.000
6730.000,-5.371,-38.574,-6.348,-3.418,0.000
6734.000,16.602,-36.133,-9.277,15.625,0.000
6738.000,1.953,-14.648,-11.230,2.930,0.000
6742.000,-32.715,9.277,-11.719,-26.855,0.000
6746.000,-37.109,-7.324,-16.602,-23.926,0.000
6750.000,-29.297,-32.715,-21.484,-30.273,0.000
6754.000,-34.180,-21.484,-19.531,-42.480,0.000
6758.000,-40.527,1.465,-13.184,-38.574,0.000
6762.000,-41.504,-16.113,-3.418,-35.645,0.000
6766.000,-49.316,-33.203,-10.742,-41.992,0.000
6769.000,-76.172,-30.762,-29.297,-62.500,0.000
6773.000,-83.984,-32.227,-22.949,-68.848,0.000
6777.000,-71.777,-26.367,-16.602,-58.105,0.000
6781.000,-73.242,-2.930,-17.090,-62.988,0.000
6785.000,-91.309,3.906,-11.230,-79.102,0.000
6789.000,-95.703,-7.324,-14.160,-82.031,0.000
6793.000,-98.633,-12.207,-18.555,-98.145,0.000
6797.000,-96.191,0.488,-16.113,-96.680,0.000
6801.000,-94.238,9.277,-9.766,-86.914,0.000
6805.000,-125.000,-25.879,-9.766,-112.793,0.000
6809.000,-129.395,-40.039,-13.184,-124.023,0.000
6812.000,-119.629,-18.066,-17.578,-128.418,0.000
6816.000,-132.324,-14.160,-17.090,-150.879,0.000
6820.000,-138.184,-24.414,-22.949,-161.133,0.000
6824.000,-141.602,-22.949,-22.949,-162.109,0.000
6828.000,-127.441,-18.555,-18.066,-163.574,0.000
6832.000,-106.934,-2.930,-44.434,-152.344,0.000
6836.000,-99.121,5.859,-55.176,-140.625,0.000
6840.000,-115.234,-12.695,-33.203,-144.043,0.000
6844.000,-140.625,-4.395,-17.090,-159.668,0.000
6848.000,-121.094,9.277,-5.859,-145.996,0.000
6852.000,-105.469,-53.711,-14.160,-127.441,0.000
6855.000,-123.535,-63.965,-28.809,-124.512,0.000
6859.000,-120.605,0.977,-34.668,-118.652,0.000
6863.000,-92.773,20.508,-22.949,-108.398,0.000
6867.000,-87.402,1.953,-18.555,-104.980,0.000
6871.000,-108.398,-33.203,-26.855,-112.305,0.000
6875.000,-100.098,-17.090,-29.297,-102.539,0.000
6879.000,-74.219,-11.719,-33.691,-90.332,0.000
6883.000,-49.805,-11.230,-28.809,-66.895,0.000
6887.000,-64.941,-2.930,-19.043,-65.918,0.000
6891.000,-92.285,-36.133,-34.668,-88.867,0.000
6894.000,-80.078,-28.320,-59.570,-83.008,0.000
6898.000,-55.664,-5.371,-47.363,-70.801,0.000
6902.000,-60.547,-3.418,-32.715,-74.219,0.000
6906.000,-62.012,-5.859,-24.902,-71.289,0.000
6910.000,-62.012,-12.207,-26.367,-72.754,0.000
6914.000,-57.129,-33.691,-34.668,-77.148,0.000
6918.000,-48.828,-27.832,-40.039,-69.336,0.000
6922.000,-41.504,-36.133,-25.879,-54.688,0.000
6926.000,-41.016,-46.387,-26.855,-54.688,0.000
6930.000,-39.551,-21.973,-48.340,-58.105,0.000
6934.000,-23.438,-12.695,-44.434,-59.570,0.000
6937.000,-20.508,-8.301,-44.434,-70.312,0.000
6941.000,-22.461,-19.043,-44.922,-73.242,0.000
6945.000,-40.039,-21.973,-27.344,-57.617,0.000
6949.000,-45.898,-9.766,-23.926,-38.086,0.000
6953.000,-53.223,-27.344,-33.203,-49.805,0.000
6957.000,-69.336,-60.547,-17.090,-57.129,0.000
6961.000,-61.523,-32.715,-7.812,-49.805,0.000
6965.000,-46.387,-8.789,-22.949,-47.852,0.000
6969.000,-56.641,-28.320,-31.250,-59.082,0.000
6973.000,-79.102,-44.434,-20.996,-69.336,0.000
6976.000,-65.918,-38.086,-13.184,-60.059,0.000
6980.000,-35.156,-36.621,-20.996,-40.039,0.000
6984.000,-34.668,-46.387,-39.551,-32.715,0.000
6988.000,-61.035,-49.316,-40.527,-50.781,0.000
6992.000,-74.707,-43.945,-31.738,-62.012,0.000
6996.000,-44.434,-69.824,-17.578,-44.922,0.000
7000.000,-21.973,-48.340,-12.695,-30.273,0.000
7004.000,-36.133,-1.953,-17.578,-32.715,0.000
7008.000,-54.199,-26.367,-28.809,-52.246,0.000
7012.000,-40.039,-24.414,-27.344,-45.410,0.000
7016.000,-19.531,-10.254,-19.531,-24.414,0.000
7019.000,-30.273,-45.898,-34.668,-32.227,0.000
7023.000,-46.387,-52.246,-22.949,-41.504,0.000
7027.000,-42.969,-29.785,-12.207,-37.109,0.000
7031.000,-30.762,-33.691,-29.297,-30.762,0.000
7035.000,-18.555,-26.855,-31.250,-39.551,0.000
7039.000,-24.902,-3.906,-11.719,-46.387,0.000
7043.000,-39.551,0.000,-8.789,-44.922,0.000
7047.000,-42.969,-16.113,-11.719,-39.551,0.000
7051.000,-40.527,-39.551,-13.672,-42.480,0.000
7055.000,-57.129,-37.598,-12.207,-51.758,0.000
7059.000,-48.340,-39.551,-6.836,-28.809,0.000
7062.000,-1.953,-45.410,-27.832,6.348,0.000
7066.000,-1.465,-29.785,-36.133,-3.906,0.000
7070.000,-24.902,-7.324,-31.738,-28.809,0.000
7074.000,-40.039,11.719,-19.531,-28.809,0.000
7078.000,-48.828,-6.836,3.906,-26.855,0.000
7082.000,-73.242,-27.344,-6.836,-36.133,0.000
7086.000,-70.312,-27.344,-13.184,-38.574,0.000
7090.000,-44.434,-33.203,-2.930,-30.273,0.000
7094.000,-46.875,-32.715,-10.254,-28.809,0.000
7098.000,-38.086,-33.691,-26.367,-28.320,0.000
7101.000,-20.996,-31.250,-16.113,-24.414,0.000
7105.000,-17.090,-16.602,-11.230,-13.184,0.000
7109.000,-27.832,-8.789,-24.414,-18.066,0.000
7113.000,-29.297,-11.230,-22.461,-33.203,0.000
7117.000,-28.320,-49.316,-32.715,-42.480,0.000
7121.000,-50.781,-59.082,-41.992,-54.199,0.000
7125.000,-56.152,-31.250,-32.715,-51.270,0.000
7129.000,-44.922,-41.992,-40.039,-45.898,0.000
7133.000,-47.363,-45.898,-35.156,-44.434,0.000
7137.000,-43.945,-25.879,-21.973,-45.410,0.000
7141.000,-51.270,-23.926,-28.809,-48.828,0.000
7144.000,-50.781,-52.734,-43.945,-46.387,0.000
7148.000,-11.230,-40.527,-25.879,-26.367,0.000
7152.000,10.254,-2.441,-4.395,-16.602,0.000
7156.000,-21.973,-30.273,-24.414,-37.598,0.000
7160.000,-55.664,-40.527,-39.551,-45.410,0.000
7164.000,-51.758,-38.086,-39.551,-39.062,0.000
7168.000,-30.273,-45.898,-30.273,-25.879,0.000
7172.000,-7.812,-44.922,-32.227,-24.902,0.000
7176.000,2.930,-44.922,-21.973,-26.855,0.000
7180.000,-21.973,-16.602,-30.762,-20.020,0.000
7184.000,-42.480,-7.324,-48.828,-33.203,0.000
7187.000,-31.738,-20.508,-20.020,-32.715,0.000
7191.000,-42.480,-33.203,-11.719,-34.180,0.000
7195.000,-44.434,-17.090,-20.508,-38.574,0.000
7199.000,-34.180,0.488,-23.926,-32.715,0.000
7203.000,-41.504,-9.766,-30.762,-38.086,0.000
7207.000,-33.691,-14.648,-24.414,-33.203,0.000
7211.000,-7.812,-17.578,-13.184,-19.531,0.000
7215.000,-8.301,-21.973,-20.508,-32.227,0.000
7219.000,-2.930,-18.066,-30.273,-32.715,0.000
7223.000,6.348,-0.977,-25.391,-21.484,0.000
7226.000,-24.902,-6.348,-29.297,-34.180,0.000
7230.000,-40.527,-19.531,-45.410,-44.922,0.000
7234.000,-19.531,-33.203,-53.711,-31.250,0.000
7238.000,0.000,-32.715,-48.340,-14.160,0.000
7242.000,-12.695,-23.926,-34.180,-4.395,0.000
7246.000,-18.066,-23.926,-42.480,-14.160,0.000
7250.000,-6.836,-28.320,-52.734,-25.879,0.000
7254.000,-27.832,-35.156,-51.270,-23.926,0.000
7258.000,-44.434,-38.086,-53.711,-16.602,0.000
7262.000,-35.645,-51.758,-52.734,-8.301,0.000
7266.000,-1.953,-49.316,-54.688,-1.465,0.000
7269.000,10.254,-32.715,-48.828,3.906,0.000
7273.000,-5.371,-33.691,-48.340,-5.859,0.000
7277.000,-17.578,-39.551,-58.594,-8.789,0.000
7281.000,4.395,-48.340,-42.969,10.254,0.000
7285.000,32.227,-50.293,-31.250,13.672,0.000
7289.000,12.695,-43.945,-46.387,1.953,0.000
7293.000,-20.996,-41.504,-59.082,-3.418,0.000
7297.000,-24.902,-49.316,-59.570,-7.324,0.000
7301.000,-8.301,-56.641,-52.734,7.324,0.000
7305.000,-7.812,-53.711,-45.898,23.438,0.000
7309.000,8.301,-47.852,-39.551,39.062,0.000
7312.000,16.602,-45.898,-42.480,40.039,0.000
7316.000,17.090,-44.922,-38.574,36.133,0.000
7320.000,29.297,-37.109,-33.203,38.574,0.000
7324.000,36.133,-34.668,-32.715,37.109,0.000
7328.000,40.527,-27.832,-30.762,39.551,0.000
7332.000,47.852,-20.020,-35.645,41.992,0.000
7336.000,51.758,-20.020,-31.738,45.898,0.000
7340.000,40.527,-19.531,-21.973,49.316,0.000
7344.000,22.949,-19.531,-16.602,48.340,0.000
7348.000,23.438,-21.484,-16.113,48.340,0.000
7351.000,33.691,-20.996,-22.461,37.598,0.000
7355.000,40.527,-26.855,-24.414,27.344,0.000
7359.000,51.270,-16.602,-13.672,34.668,0.000
7363.000,45.410,0.488,-14.160,36.621,0.000
7367.000,35.156,-1.465,-13.184,36.621,0.000
7371.000,37.598,3.906,-4.883,43.457,0.000
7375.000,26.367,8.789,-13.184,34.668,0.000
7379.000,8.789,-5.859,-16.113,27.832,0.000
7383.000,2.930,-6.348,-17.578,23.438,0.000
7387.000,13.672,-9.277,-8.301,23.926,0.000
7391.000,24.902,-32.227,2.930,30.273,0.000
7394.000,16.113,-9.766,-5.371,33.203,0.000
7398.000,21.484,16.602,-9.766,32.715,0.000
7402.000,24.902,14.160,-8.789,29.785,0.000
