timestamp,TP9,AF7,AF8,TP10,Right AUX
0.000,-32.715,-30.273,-27.832,-12.207,0.000
4.000,-36.621,-29.297,-27.832,-19.531,0.000
8.000,-18.066,-35.156,-29.297,-34.180,0.000
12.000,-14.648,-34.668,-20.020,-25.879,0.000
16.000,-29.785,-31.250,-12.207,-21.484,0.000
20.000,-23.438,-36.133,-20.996,-32.715,0.000
23.000,-23.438,-59.570,-34.668,-34.180,0.000
27.000,-45.410,-48.828,-46.387,-38.574,0.000
31.000,-40.527,-17.090,-40.527,-36.133,0.000
35.000,-35.645,-19.531,-21.484,-27.832,0.000
39.000,-45.898,-19.531,-12.695,-20.508,0.000
43.000,-61.523,-25.879,-19.043,-37.598,0.000
47.000,-74.219,-42.480,-20.508,-35.156,0.000
51.000,-64.941,-51.758,-29.785,-24.414,0.000
55.000,-44.434,-33.203,-36.133,-34.668,0.000
59.000,-49.316,-20.996,-34.180,-46.875,0.000
62.000,-55.176,-21.973,-24.902,-48.828,0.000
66.000,-45.898,-18.555,-14.160,-31.738,0.000
70.000,-51.270,-17.090,-17.578,-27.832,0.000
74.000,-57.617,-27.344,-22.949,-45.898,0.000
78.000,-45.410,-26.367,-31.250,-41.992,0.000
82.000,-38.086,-21.484,-33.203,-38.086,0.000
86.000,-49.805,-32.227,-22.461,-37.598,0.000
90.000,-45.410,-29.297,-21.484,-39.062,0.000
94.000,-41.016,-22.461,-25.879,-38.086,0.000
98.000,-32.227,-23.926,-20.996,-34.180,0.000
102.000,-31.250,-21.484,-20.996,-40.527,0.000
105.000,-48.828,-28.809,-28.809,-44.434,0.000
109.000,-49.316,-37.109,-32.227,-41.504,0.000
113.000,-33.691,-33.203,-27.344,-22.949,0.000
117.000,-23.438,-33.691,-24.902,-10.742,0.000
121.000,-17.578,-34.180,-20.508,-11.230,0.000
125.000,-25.391,-34.668,-16.602,-18.066,0.000
129.000,-33.691,-35.156,-15.137,-15.137,0.000
133.000,-28.320,-35.645,-15.625,-8.789,0.000
137.000,-29.785,-37.109,-15.625,-11.719,0.000
141.000,-25.879,-34.668,-18.555,-11.230,0.000
145.000,-33.691,-27.344,-18.066,-2.441,0.000
148.000,-31.738,-19.043,-16.602,0.977,0.000
152.000,-23.438,-18.066,-21.484,-5.371,0.000
156.000,-20.508,-26.367,-21.484,-12.695,0.000
160.000,-23.926,-35.156,-20.996,-16.113,0.000
164.000,-17.090,-29.785,-25.391,-8.301,0.000
168.000,-6.348,-22.949,-23.926,0.488,0.000
172.000,-4.883,-27.344,-30.273,-19.043,0.000
176.000,7.812,-23.926,-36.621,-24.902,0.000
180.000,-0.977,-17.090,-30.273,-11.230,0.000
184.000,-33.691,-17.090,-32.227,-10.742,0.000
187.000,-47.363,-17.578,-36.133,-9.277,0.000
191.000,-28.809,-15.625,-31.250,-8.301,0.000
195.000,-17.578,-14.160,-35.645,-12.207,0.000
199.000,-16.602,-12.207,-38.086,-13.184,0.000
203.000,-6.836,-14.648,-31.738,-17.090,0.000
207.000,-15.625,-20.020,-31.250,-15.625,0.000
211.000,-27.832,-17.578,-31.250,-8.789,0.000
215.000,-32.227,-15.625,-32.715,-4.395,0.000
219.000,-41.016,-29.297,-39.551,-22.949,0.000
223.000,-35.156,-28.320,-36.621,-34.668,0.000
227.000,-21.973,-16.113,-34.668,-30.273,0.000
230.000,-26.367,-13.672,-28.809,-22.949,0.000
234.000,-29.785,-17.090,-26.367,-17.090,0.000
238.000,-20.020,-13.184,-26.367,-24.902,0.000
242.000,-13.672,-15.137,-23.438,-35.156,0.000
246.000,-19.531,-23.926,-24.902,-29.297,0.000
250.000,-35.156,-26.367,-20.996,-20.020,0.000
254.000,-51.270,-26.855,-20.020,-20.020,0.000
258.000,-41.504,-19.043,-17.578,-22.461,0.000
262.000,-41.016,-17.578,-20.508,-24.902,0.000
266.000,-46.387,-26.367,-20.020,-20.508,0.000
270.000,-40.039,-21.484,-17.090,-12.207,0.000
273.000,-27.832,-15.137,-19.043,-16.113,0.000
277.000,-19.531,-18.066,-15.137,-17.090,0.000
281.000,-9.766,-14.648,-15.137,-16.113,0.000
285.000,-13.184,-18.066,-24.414,-27.344,0.000
289.000,-37.109,-19.531,-22.461,-27.832,0.000
293.000,-39.062,-15.137,-18.555,-14.648,0.000
297.000,-19.531,-10.742,-20.996,-11.719,0.000
301.000,-6.836,-12.695,-27.344,-8.301,0.000
305.000,3.418,-17.578,-28.320,0.488,0.000
309.000,18.066,-9.766,-19.043,4.395,0.000
312.000,14.160,-5.859,-17.090,-9.277,0.000
316.000,-33.691,-11.719,-19.043,-14.648,0.000
320.000,-55.664,-15.137,-22.461,-4.883,0.000
324.000,-35.645,-14.648,-22.461,-7.812,0.000
328.000,-36.133,-19.531,-23.926,-16.602,0.000
332.000,-45.898,-20.996,-27.344,-4.395,0.000
336.000,-41.016,-15.137,-28.320,-10.254,0.000
340.000,-25.879,-6.836,-24.414,-23.438,0.000
344.000,-20.996,-8.301,-18.555,-19.531,0.000
348.000,-27.344,-11.230,-27.344,-16.602,0.000
352.000,-30.762,-5.859,-30.762,-17.090,0.000
355.000,-24.902,-9.766,-29.785,-14.648,0.000
359.000,-27.832,-15.625,-38.574,-29.297,0.000
363.000,-28.809,-17.090,-37.598,-20.020,0.000
367.000,-23.926,-19.043,-31.738,-4.395,0.000
371.000,-25.879,-17.090,-28.320,-21.973,0.000
375.000,-24.414,-15.625,-27.344,-30.273,0.000
379.000,-31.250,-17.578,-27.832,-20.996,0.000
383.000,-25.391,-14.160,-27.832,-20.508,0.000
387.000,-7.812,-12.695,-30.762,-28.320,0.000
391.000,-7.812,-11.230,-33.691,-32.227,0.000
395.000,-13.672,-12.695,-28.809,-31.250,0.000
398.000,-12.695,-11.719,-22.949,-24.414,0.000
402.000,-18.066,-8.789,-22.461,-36.133,0.000
406.000,-32.715,-11.719,-17.090,-42.969,0.000
410.000,-36.621,-10.742,-12.695,-27.344,0.000
414.000,-34.180,-9.766,-18.066,-25.391,0.000
418.000,-27.344,-12.207,-17.578,-24.902,0.000
422.000,-22.461,-12.207,-11.719,-20.020,0.000
426.000,-23.438,-15.625,-12.207,-41.504,0.000
430.000,-18.066,-15.137,-16.113,-47.363,0.000
434.000,-7.324,-9.766,-13.184,-28.809,0.000
437.000,-34.180,-6.836,-9.277,-23.438,0.000
441.000,-41.992,-10.742,-13.672,-27.344,0.000
445.000,-18.555,-11.230,-14.160,-22.461,0.000
449.000,-32.227,-11.230,-12.207,-3.906,0.000
453.000,-44.922,-8.789,-15.625,-1.465,0.000
457.000,-38.574,-3.906,-17.578,-5.371,0.000
461.000,-38.574,-9.277,-17.578,2.930,0.000
465.000,-20.508,-12.695,-20.020,-3.418,0.000
469.000,-11.230,-10.742,-16.113,-9.766,0.000
473.000,-21.973,-17.578,-15.625,-20.020,0.000
477.000,-36.133,-16.113,-14.160,-15.625,0.000
480.000,-35.645,-12.695,-13.184,1.953,0.000
484.000,-35.645,-16.602,-16.602,-1.953,0.000
488.000,-36.133,-20.020,-20.020,-3.418,0.000
492.000,-25.391,-18.066,-21.484,-1.953,0.000
496.000,-19.043,-16.602,-22.461,-1.465,0.000
500.000,-21.973,-21.973,-25.391,-5.371,0.000
504.000,-17.090,-28.320,-26.367,-7.812,0.000
508.000,-1.465,-25.879,-23.926,-3.906,0.000
512.000,8.789,-20.020,-20.996,6.836,0.000
516.000,7.812,-19.043,-22.461,6.348,0.000
520.000,0.488,-16.602,-24.414,-7.324,0.000
523.000,-4.883,-19.043,-23.926,-14.160,0.000
527.000,-1.953,-20.508,-22.949,-8.301,0.000
531.000,8.789,-20.996,-20.020,3.906,0.000
535.000,11.230,-19.531,-18.555,4.883,0.000
539.000,0.000,-16.113,-21.484,-5.859,0.000
543.000,-3.906,-22.461,-24.414,-8.789,0.000
547.000,-2.930,-24.414,-27.344,0.977,0.000
551.000,-10.742,-18.555,-21.973,6.836,0.000
555.000,-31.738,-16.602,-18.066,11.230,0.000
559.000,-34.668,-18.555,-21.973,13.184,0.000
562.000,-19.531,-23.926,-26.855,6.348,0.000
566.000,-9.766,-25.391,-27.344,4.883,0.000
570.000,-6.836,-25.391,-23.926,0.000,0.000
574.000,-20.996,-28.809,-26.367,-10.742,0.000
578.000,-33.203,-25.879,-32.227,-12.695,0.000
582.000,-23.438,-20.020,-31.250,-4.883,0.000
586.000,-19.043,-17.090,-27.344,-2.441,0.000
590.000,-18.555,-16.602,-26.855,-18.066,0.000
594.000,-21.484,-21.973,-30.273,-21.973,0.000
598.000,-26.855,-23.926,-30.273,-9.277,0.000
602.000,-22.461,-14.160,-24.414,-8.789,0.000
605.000,-15.625,-14.648,-24.902,-25.879,0.000
609.000,-7.812,-20.020,-31.250,-33.203,0.000
613.000,-1.465,-15.137,-26.855,-20.508,0.000
617.000,-22.949,-19.531,-23.438,-16.113,0.000
621.000,-37.598,-23.926,-28.809,-28.320,0.000
625.000,-23.438,-18.555,-29.297,-35.156,0.000
629.000,-15.625,-18.555,-30.273,-23.438,0.000
633.000,-15.137,-23.438,-30.273,-19.531,0.000
637.000,-8.789,-21.484,-26.855,-28.320,0.000
641.000,-22.949,-20.020,-24.414,-33.691,0.000
644.000,-46.387,-24.414,-25.391,-27.344,0.000
648.000,-41.992,-26.367,-28.809,-18.555,0.000
652.000,-32.715,-26.367,-24.902,-21.484,0.000
656.000,-16.602,-20.020,-18.555,-27.832,0.000
660.000,-19.043,-15.625,-21.484,-25.879,0.000
664.000,-34.180,-19.531,-25.879,-19.043,0.000
668.000,-32.715,-21.973,-24.414,-7.324,0.000
672.000,-42.480,-20.996,-25.391,-5.371,0.000
676.000,-41.992,-18.555,-27.832,-15.625,0.000
680.000,-25.879,-19.531,-26.855,-20.020,0.000
684.000,-25.879,-18.066,-26.367,-13.672,0.000
687.000,-17.578,-16.602,-25.391,-13.184,0.000
691.000,-3.906,-16.602,-22.461,-15.137,0.000
695.000,-9.766,-18.066,-25.391,-7.324,0.000
699.000,-19.043,-19.531,-25.879,-4.395,0.000
703.000,-10.742,-22.461,-21.484,-7.812,0.000
707.000,-3.906,-22.461,-23.438,-16.602,0.000
711.000,5.859,-20.508,-26.367,-15.625,0.000
715.000,-7.812,-20.996,-23.926,-9.766,0.000
719.000,-24.902,-23.926,-24.902,-13.672,0.000
723.000,-11.719,-18.066,-25.391,-20.996,0.000
727.000,-10.254,-15.625,-21.973,-28.809,0.000
730.000,-12.207,-16.602,-18.066,-10.742,0.000
734.000,-3.906,-18.555,-15.137,13.672,0.000
738.000,10.742,-23.926,-16.113,10.742,0.000
742.000,13.184,-18.066,-23.438,-5.859,0.000
746.000,-13.184,-18.066,-20.508,-7.324,0.000
750.000,-32.227,-24.902,-12.207,3.418,0.000
754.000,-18.066,-27.344,-10.742,12.207,0.000
758.000,-7.812,-25.391,-11.230,12.695,0.000
762.000,-12.207,-21.973,-15.625,-6.836,0.000
766.000,-3.418,-21.973,-17.578,-16.602,0.000
769.000,-0.488,-28.809,-20.020,-20.996,0.000
773.000,-16.113,-31.250,-25.879,-28.320,0.000
777.000,-39.551,-26.855,-21.484,-21.973,0.000
781.000,-54.199,-27.832,-22.949,-10.742,0.000
785.000,-60.547,-41.504,-25.879,-21.973,0.000
789.000,-61.035,-36.133,-16.602,-43.457,0.000
793.000,-54.688,-23.926,-19.043,-48.340,0.000
797.000,-41.992,-16.113,-19.043,-43.457,0.000
801.000,-44.434,-21.484,-20.996,-52.734,0.000
805.000,-53.711,-33.691,-32.227,-64.941,0.000
809.000,-56.641,-33.203,-27.832,-72.266,0.000
812.000,-55.176,-33.691,-25.879,-62.500,0.000
816.000,-62.012,-29.785,-27.344,-42.969,0.000
820.000,-78.125,-24.902,-22.949,-52.246,0.000
824.000,-68.359,-26.367,-26.367,-58.594,0.000
828.000,-47.852,-28.809,-20.020,-41.992,0.000
832.000,-49.805,-37.109,-23.438,-41.016,0.000
836.000,-45.898,-31.738,-30.762,-53.711,0.000
840.000,-46.387,-31.250,-23.926,-65.430,0.000
844.000,-65.918,-43.457,-28.809,-61.035,0.000
848.000,-85.938,-40.039,-36.621,-50.293,0.000
852.000,-79.590,-44.922,-35.645,-51.758,0.000
855.000,-59.570,-39.551,-29.297,-45.898,0.000
859.000,-53.223,-24.902,-30.762,-46.875,0.000
863.000,-41.016,-27.832,-40.039,-45.410,0.000
867.000,-45.898,-35.645,-39.551,-39.062,0.000
871.000,-62.500,-36.621,-34.668,-36.133,0.000
875.000,-53.711,-30.762,-36.621,-29.297,0.000
879.000,-45.410,-28.809,-36.133,-32.227,0.000
883.000,-41.504,-32.715,-33.203,-34.180,0.000
887.000,-34.668,-30.762,-30.762,-30.762,0.000
891.000,-28.320,-31.250,-25.391,-28.809,0.000
894.000,-23.926,-30.762,-20.996,-19.043,0.000
898.000,-15.625,-22.949,-18.066,-6.836,0.000
902.000,-5.371,-17.090,-14.160,-5.371,0.000
906.000,0.977,-20.020,-19.043,-13.184,0.000
910.000,6.836,-18.555,-21.484,-14.160,0.000
914.000,12.207,-18.555,-18.066,-7.812,0.000
918.000,8.301,-20.020,-19.531,4.883,0.000
922.000,7.324,-18.066,-17.090,8.789,0.000
926.000,7.324,-18.555,-16.113,2.930,0.000
930.000,-2.441,-18.066,-14.160,8.301,0.000
934.000,-5.371,-13.184,-13.672,9.766,0.000
937.000,-2.441,-8.301,-16.602,3.418,0.000
941.000,3.906,-8.301,-18.066,-4.883,0.000
945.000,11.719,-9.766,-16.602,1.953,0.000
949.000,15.137,-8.301,-17.090,6.836,0.000
953.000,3.906,-8.789,-17.090,-3.906,0.000
957.000,-23.926,-13.672,-13.672,-10.742,0.000
961.000,-40.527,-8.789,-6.836,3.418,0.000
965.000,-61.523,-15.137,-8.301,12.207,0.000
969.000,-52.734,-26.855,-18.555,4.883,0.000
973.000,-33.691,-25.391,-25.391,-9.277,0.000
977.000,-29.785,-24.902,-24.414,-22.461,0.000
980.000,-19.531,-20.996,-23.926,-22.461,0.000
984.000,-21.973,-23.438,-30.762,-26.367,0.000
988.000,-44.922,-29.785,-35.156,-31.250,0.000
992.000,-46.387,-26.855,-34.668,-25.391,0.000
996.000,-39.062,-21.484,-31.250,-17.090,0.000
1000.000,-46.875,-23.926,-28.320,-19.043,0.000
1004.000,-35.156,-22.461,-27.344,-22.461,0.000
1008.000,-13.184,-14.160,-26.367,-16.602,0.000
1012.000,-16.602,-18.555,-26.855,-12.207,0.000
1016.000,-8.789,-20.020,-26.367,-13.672,0.000
1019.000,-13.184,-19.531,-24.414,-15.137,0.000
1023.000,-29.785,-21.484,-23.926,-20.020,0.000
1027.000,-34.180,-15.625,-24.414,-25.879,0.000
1031.000,-23.926,-14.648,-24.414,-25.391,0.000
1035.000,-20.020,-23.438,-29.297,-30.273,0.000
1039.000,-25.391,-27.832,-31.250,-33.691,0.000
1043.000,-18.066,-22.949,-26.855,-24.414,0.000
1047.000,-22.949,-17.578,-17.578,-16.113,0.000
1051.000,-38.086,-20.508,-17.090,-11.719,0.000
1055.000,-35.645,-23.926,-23.438,-19.531,0.000
1059.000,-24.414,-20.020,-25.879,-30.762,0.000
1062.000,-2.441,-14.648,-22.949,-22.461,0.000
1066.000,-7.812,-20.508,-18.555,-11.719,0.000
1070.000,-40.527,-25.879,-17.090,-14.160,0.000
1074.000,-49.316,-21.973,-20.020,-11.230,0.000
1078.000,-30.762,-23.926,-22.949,-5.371,0.000
1082.000,-32.227,-20.996,-24.414,-2.930,0.000
1086.000,-39.062,-20.020,-21.484,-4.883,0.000
1090.000,-38.086,-22.461,-18.555,-7.812,0.000
1094.000,-32.227,-20.508,-20.996,-6.836,0.000
1098.000,-20.508,-20.996,-20.996,-7.812,0.000
1101.000,-15.137,-20.508,-22.461,-28.320,0.000
1105.000,-20.508,-20.020,-22.461,-41.992,0.000
1109.000,-20.508,-20.020,-20.020,-34.180,0.000
1113.000,-10.742,-19.043,-19.043,-17.578,0.000
1117.000,-24.902,-20.508,-19.531,-6.836,0.000
1121.000,-40.527,-21.484,-20.508,-22.461,0.000
1125.000,-30.762,-20.996,-19.043,-34.668,0.000
1129.000,-33.203,-21.973,-17.578,-21.484,0.000
1133.000,-36.621,-22.461,-23.438,-18.555,0.000
1137.000,-24.414,-20.508,-25.391,-26.855,0.000
1141.000,-4.395,-16.602,-20.508,-34.668,0.000
1144.000,6.348,-15.625,-20.996,-26.367,0.000
1148.000,-6.348,-17.578,-20.996,-6.836,0.000
1152.000,-19.043,-19.531,-18.555,3.418,0.000
1156.000,8.789,-13.184,-14.648,13.672,0.000
1160.000,-8.789,-12.695,-21.484,5.859,0.000
1164.000,-56.641,-21.484,-29.785,-19.043,0.000
1168.000,-57.129,-31.250,-28.320,-22.461,0.000
1172.000,-59.082,-29.785,-30.273,-20.508,0.000
1176.000,-43.945,-24.414,-31.250,-25.391,0.000
1180.000,-19.531,-23.926,-27.344,-16.602,0.000
1184.000,-18.066,-19.531,-24.414,-10.742,0.000
1187.000,-30.762,-19.043,-26.855,-15.137,0.000
1191.000,-33.691,-20.508,-22.461,-9.766,0.000
1195.000,-25.879,-19.531,-12.695,1.465,0.000
1199.000,-25.879,-18.066,-14.648,-3.906,0.000
1203.000,-16.113,-16.113,-20.508,-4.395,0.000
1207.000,-14.648,-12.695,-15.137,9.766,0.000
1211.000,-35.645,-12.695,-14.648,6.348,0.000
1215.000,-34.180,-21.484,-18.066,-1.465,0.000
1219.000,-16.602,-23.926,-16.602,-12.207,0.000
1223.000,-11.230,-15.137,-20.996,-31.738,0.000
1226.000,-11.230,-16.113,-19.531,-38.086,0.000
1230.000,-21.973,-17.578,-10.742,-30.273,0.000
1234.000,-50.781,-16.113,-8.301,-20.996,0.000
1238.000,-56.152,-19.531,-14.160,-32.715,0.000
1242.000,-54.688,-19.043,-16.602,-51.758,0.000
1246.000,-52.734,-17.090,-18.555,-51.270,0.000
1250.000,-58.594,-15.137,-22.949,-48.340,0.000
1254.000,-68.848,-14.160,-19.043,-54.199,0.000
1258.000,-59.082,-16.113,-14.648,-49.316,0.000
1262.000,-43.945,-16.113,-17.090,-41.016,0.000
1266.000,-52.246,-13.672,-17.090,-40.527,0.000
1269.000,-57.129,-15.625,-21.973,-42.969,0.000
1273.000,-53.711,-13.184,-18.066,-37.598,0.000
1277.000,-59.082,-8.301,-12.695,-41.504,0.000
1281.000,-54.199,-8.789,-16.113,-40.039,0.000
1285.000,-50.781,-8.789,-13.672,-34.180,0.000
1289.000,-61.035,-8.301,-7.324,-42.480,0.000
1293.000,-57.129,-10.254,-9.277,-35.645,0.000
1297.000,-52.246,-17.578,-18.555,-33.691,0.000
1301.000,-43.457,-17.090,-15.625,-42.480,0.000
1305.000,-38.086,-16.113,-17.090,-51.758,0.000
1309.000,-44.434,-19.043,-25.879,-49.316,0.000
1312.000,-45.898,-17.578,-20.508,-30.762,0.000
1316.000,-46.387,-15.625,-21.973,-17.090,0.000
1320.000,-39.551,-16.602,-21.973,-23.438,0.000
1324.000,-27.832,-14.160,-16.602,-35.645,0.000
1328.000,-18.066,-14.648,-16.602,-32.715,0.000
1332.000,-22.949,-14.648,-15.625,-26.855,0.000
1336.000,-30.762,-8.789,-12.695,-18.555,0.000
1340.000,-25.391,-12.695,-14.648,-17.090,0.000
1344.000,-24.414,-13.672,-19.531,-26.855,0.000
1348.000,-27.344,-12.695,-20.508,-14.648,0.000
1351.000,-23.438,-18.066,-18.555,-3.418,0.000
1355.000,-10.742,-18.555,-22.949,-13.184,0.000
1359.000,-10.742,-18.555,-23.926,-18.555,0.000
1363.000,-21.973,-25.879,-24.414,-18.555,0.000
1367.000,-39.551,-26.367,-23.438,-21.484,0.000
1371.000,-52.246,-23.926,-22.949,-28.809,0.000
1375.000,-43.457,-22.461,-21.973,-33.691,0.000
1379.000,-24.902,-20.508,-20.508,-26.855,0.000
1383.000,-18.066,-21.973,-20.508,-10.742,0.000
1387.000,-33.203,-22.461,-25.391,-16.602,0.000
1391.000,-35.645,-20.508,-25.879,-26.855,0.000
1394.000,-20.508,-17.090,-20.996,-18.555,0.000
1398.000,-13.672,-19.043,-22.949,-6.836,0.000
1402.000,-11.230,-21.973,-27.344,-7.324,0.000
1406.000,-25.391,-24.414,-23.438,-5.371,0.000
1410.000,-24.902,-26.855,-19.043,1.465,0.000
1414.000,-14.648,-27.344,-15.625,7.812,0.000
1418.000,-11.719,-27.832,-12.695,5.859,0.000
1422.000,-6.348,-29.297,-16.113,1.465,0.000
1426.000,4.883,-27.344,-16.113,6.836,0.000
1430.000,12.207,-22.949,-15.625,15.137,0.000
1434.000,7.324,-20.996,-16.113,14.648,0.000
1437.000,10.254,-19.043,-19.531,9.766,0.000
1441.000,6.836,-18.066,-24.414,2.441,0.000
1445.000,-7.324,-20.996,-26.855,-5.859,0.000
1449.000,-12.695,-20.020,-26.855,1.953,0.000
1453.000,2.441,-18.555,-18.555,9.277,0.000
1457.000,15.137,-14.160,-18.555,-3.418,0.000
1461.000,10.742,-16.113,-29.785,-13.184,0.000
1465.000,14.160,-21.973,-29.297,-4.395,0.000
1469.000,14.648,-18.066,-26.367,2.930,0.000
1473.000,-9.277,-15.625,-26.367,7.324,0.000
1476.000,-5.371,-21.484,-21.973,5.859,0.000
1480.000,-1.953,-23.926,-25.391,6.348,0.000
1484.000,-24.902,-21.973,-24.902,17.578,0.000
1488.000,-31.738,-22.949,-22.949,16.113,0.000
1492.000,-16.113,-20.996,-24.902,5.859,0.000
1496.000,-1.953,-15.137,-28.809,9.277,0.000
1500.000,2.441,-20.020,-29.297,16.113,0.000
1504.000,-6.836,-18.555,-27.832,13.184,0.000
1508.000,-18.066,-15.625,-27.344,0.488,0.000
1512.000,-19.043,-23.438,-29.785,-4.395,0.000
1516.000,-17.578,-27.344,-29.297,4.883,0.000
1519.000,-21.973,-26.367,-22.949,14.648,0.000
1523.000,-23.438,-27.832,-25.879,-0.488,0.000
1527.000,-14.160,-32.715,-30.273,-9.766,0.000
1531.000,-13.184,-31.738,-25.391,-3.418,0.000
1535.000,-14.160,-34.180,-29.785,-14.160,0.000
1539.000,-14.648,-38.574,-30.762,-19.043,0.000
1543.000,-21.484,-33.691,-23.926,-11.230,0.000
1547.000,-7.812,-28.809,-22.949,0.488,0.000
1551.000,-2.441,-32.715,-28.320,6.348,0.000
1555.000,-4.883,-31.250,-25.391,0.000,0.000
1559.000,-1.953,-32.227,-23.926,3.418,0.000
1562.000,-7.324,-32.715,-26.367,13.672,0.000
1566.000,-17.578,-28.809,-24.414,20.996,0.000
1570.000,-12.207,-29.785,-22.461,23.438,0.000
1574.000,11.719,-23.926,-21.484,18.066,0.000
1578.000,20.996,-20.996,-20.020,21.484,0.000
1582.000,2.441,-27.832,-24.902,24.414,0.000
1586.000,-6.836,-29.297,-26.367,21.973,0.000
1590.000,9.277,-19.531,-19.531,27.344,0.000
1594.000,4.883,-16.113,-17.090,24.902,0.000
1598.000,-7.324,-21.484,-20.996,2.930,0.000
1601.000,-5.859,-20.996,-22.949,-3.418,0.000
1605.000,-1.465,-17.578,-21.484,-3.418,0.000
1609.000,-9.766,-24.902,-18.555,-19.531,0.000
1613.000,-20.996,-28.320,-14.160,-19.043,0.000
1617.000,-18.066,-26.367,-25.391,-11.719,0.000
1621.000,-26.367,-35.156,-33.691,-17.578,0.000
1625.000,-38.086,-41.992,-20.996,-25.879,0.000
1629.000,-38.574,-42.969,-18.066,-34.668,0.000
1633.000,-47.852,-35.156,-22.949,-46.387,0.000
1637.000,-62.988,-23.926,-27.832,-59.082,0.000
1641.000,-70.312,-27.832,-41.992,-75.684,0.000
1644.000,-62.012,-31.738,-43.945,-72.266,0.000
1648.000,-65.430,-39.062,-34.668,-65.918,0.000
1652.000,-83.008,-39.551,-35.645,-70.312,0.000
1656.000,-73.242,-26.855,-26.855,-60.059,0.000
1660.000,-70.801,-21.484,-24.414,-67.383,0.000
1664.000,-66.406,-25.391,-30.762,-64.453,0.000
1668.000,-56.641,-25.391,-33.691,-60.059,0.000
1672.000,-76.660,-21.484,-32.227,-73.242,0.000
1676.000,-73.242,-25.391,-29.785,-72.754,0.000
1680.000,-50.293,-23.926,-30.273,-59.082,0.000
1684.000,-47.363,-11.719,-24.902,-47.363,0.000
1687.000,-48.340,-13.672,-22.461,-62.012,0.000
1691.000,-38.086,-25.879,-28.320,-62.500,0.000
1695.000,-30.273,-20.996,-24.414,-44.434,0.000
1699.000,-34.180,-19.043,-19.531,-34.668,0.000
1703.000,-35.645,-24.414,-23.926,-42.969,0.000
1707.000,-13.672,-23.926,-24.902,-40.527,0.000
1711.000,-5.371,-18.066,-22.461,-15.625,0.000
1715.000,-9.277,-15.137,-21.484,-6.836,0.000
1719.000,-2.441,-17.090,-20.020,-8.789,0.000
1723.000,-9.766,-20.020,-23.438,-27.832,0.000
1726.000,-23.926,-21.484,-22.461,-34.180,0.000
1730.000,-33.203,-22.461,-25.879,-24.414,0.000
1734.000,-29.297,-19.043,-24.902,-21.484,0.000
1738.000,-25.391,-15.625,-15.625,-25.879,0.000
1742.000,-29.785,-25.391,-13.184,-27.832,0.000
1746.000,-35.156,-26.367,-13.672,-16.602,0.000
1750.000,-46.387,-23.926,-14.648,-8.301,0.000
1754.000,-38.086,-25.391,-15.137,-5.371,0.000
1758.000,-27.344,-28.809,-16.602,-6.836,0.000
1762.000,-40.527,-31.250,-14.648,-3.906,0.000
1766.000,-39.062,-28.809,-14.648,0.977,0.000
1769.000,-27.344,-31.738,-16.113,-2.441,0.000
1773.000,-32.715,-31.738,-14.648,-0.977,0.000
1777.000,-28.320,-31.738,-16.113,-0.488,0.000
1781.000,-19.531,-34.180,-18.066,0.000,0.000
1785.000,-7.324,-29.297,-15.625,-1.465,0.000
1789.000,1.465,-26.367,-16.113,-3.906,0.000
1793.000,-11.719,-23.438,-21.973,-4.395,0.000
1797.000,-28.320,-25.391,-23.926,-1.465,0.000
1801.000,-34.668,-31.738,-21.973,-0.977,0.000
1805.000,-25.391,-24.414,-22.949,-12.207,0.000
1808.000,-12.695,-19.531,-20.996,-13.184,0.000
1812.000,-12.695,-22.461,-16.113,-2.930,0.000
1816.000,-3.906,-19.531,-16.113,-0.488,0.000
1820.000,-2.930,-13.184,-18.555,-1.953,0.000
1824.000,-11.719,-19.531,-17.090,-12.207,0.000
1828.000,-14.160,-27.344,-15.137,-18.066,0.000
1832.000,-20.020,-24.902,-15.625,-13.672,0.000
1836.000,-32.715,-25.391,-15.137,-16.602,0.000
1840.000,-25.391,-28.809,-12.695,-21.484,0.000
1844.000,-6.348,-28.809,-13.672,-24.414,0.000
1848.000,-24.414,-29.297,-15.625,-27.344,0.000
1851.000,-36.133,-27.344,-18.066,-35.156,0.000
1855.000,-26.367,-27.832,-17.578,-44.434,0.000
1859.000,-22.949,-23.926,-12.695,-30.273,0.000
1863.000,-35.645,-20.996,-14.648,-9.277,0.000
1867.000,-45.898,-24.414,-16.113,-16.113,0.000
1871.000,-32.227,-20.996,-15.137,-21.973,0.000
1875.000,-11.230,-17.090,-16.602,-33.203,0.000
1879.000,-12.695,-15.625,-16.602,-35.156,0.000
1883.000,-45.898,-23.438,-20.996,-27.832,0.000
1887.000,-45.898,-27.344,-20.508,-33.203,0.000
1891.000,-29.297,-20.996,-15.625,-27.344,0.000
1894.000,-30.273,-18.066,-14.160,-19.531,0.000
1898.000,-35.156,-17.578,-14.648,-19.043,0.000
1902.000,-41.992,-15.625,-14.648,-16.113,0.000
1906.000,-33.691,-16.602,-10.254,-14.648,0.000
1910.000,-19.531,-19.043,-9.277,-20.020,0.000
1914.000,-20.020,-19.043,-14.648,-24.902,0.000
1918.000,-20.020,-18.066,-19.531,-37.109,0.000
1922.000,-17.090,-24.414,-23.926,-47.363,0.000
1926.000,-14.648,-24.902,-25.391,-41.016,0.000
1930.000,-21.973,-21.484,-27.344,-35.645,0.000
1933.000,-39.062,-19.531,-26.855,-37.109,0.000
1937.000,-49.316,-22.949,-32.227,-60.547,0.000
1941.000,-24.902,-23.438,-31.738,-59.082,0.000
1945.000,-7.324,-18.066,-27.344,-41.992,0.000
1949.000,-7.812,-19.531,-30.273,-41.992,0.000
1953.000,-9.277,-19.531,-25.879,-35.645,0.000
1957.000,-41.992,-17.578,-22.949,-29.785,0.000
1961.000,-55.664,-19.043,-22.949,-24.902,0.000
1965.000,-46.875,-18.066,-20.996,-20.020,0.000
1969.000,-35.645,-16.113,-19.043,-23.926,0.000
1973.000,-24.902,-13.184,-22.949,-29.785,0.000
1976.000,-28.809,-8.789,-25.879,-19.531,0.000
1980.000,-28.809,-11.230,-28.320,-16.113,0.000
1984.000,-34.668,-17.578,-33.203,-20.508,0.000
1988.000,-30.762,-17.090,-38.086,-28.320,0.000
1992.000,-18.066,-11.719,-31.738,-26.367,0.000
1996.000,-21.484,-11.719,-23.438,-19.043,0.000
2000.000,-20.996,-16.113,-27.832,-20.020,0.000
2004.000,-19.043,-15.625,-33.203,-16.602,0.000
2008.000,-24.902,-4.883,-25.879,-20.508,0.000
2012.000,-23.438,-1.953,-16.113,-25.879,0.000
2016.000,1.465,-4.883,-17.090,-14.160,0.000
2019.000,-4.883,-4.883,-17.578,-14.160,0.000
2023.000,-13.672,-2.441,-16.113,-30.273,0.000
2027.000,2.441,-4.395,-19.043,-31.250,0.000
2031.000,-19.043,-10.254,-21.484,-25.391,0.000
2035.000,-71.289,-9.766,-20.020,-27.832,0.000
2039.000,-70.801,-4.883,-19.531,-32.715,0.000
2043.000,-43.945,-5.859,-20.508,-33.691,0.000
2047.000,-46.387,-9.766,-20.996,-35.645,0.000
2051.000,-42.969,-5.371,-16.602,-29.785,0.000
2055.000,-30.762,-4.395,-7.812,-30.273,0.000
2058.000,-15.625,-7.812,-8.301,-29.785,0.000
2062.000,-26.367,-8.301,-8.301,-21.973,0.000
2066.000,-57.617,-7.812,-5.371,-21.973,0.000
2070.000,-62.500,-0.977,-6.836,-25.391,0.000
2074.000,-42.969,-3.906,-10.742,-39.062,0.000
2078.000,-30.762,-8.789,-15.625,-41.504,0.000
2082.000,-21.973,-7.812,-15.137,-25.391,0.000
2086.000,0.488,-3.418,-16.602,-16.602,0.000
2090.000,-16.602,-5.371,-21.484,-29.297,0.000
2094.000,-47.363,-9.766,-19.043,-35.645,0.000
2098.000,-35.645,-12.207,-16.113,-34.180,0.000
2101.000,-18.066,-7.812,-13.672,-27.344,0.000
2105.000,-13.184,-7.812,-13.672,-21.973,0.000
2109.000,-4.883,-15.625,-20.508,-23.438,0.000
2113.000,5.371,-18.066,-23.926,-20.996,0.000
2117.000,6.836,-17.090,-23.926,-12.695,0.000
2121.000,1.953,-11.230,-16.602,3.418,0.000
2125.000,-2.441,-9.277,-16.602,-0.977,0.000
2129.000,-8.789,-9.766,-20.508,-5.859,0.000
2133.000,-31.250,-14.160,-20.508,-1.465,0.000
2137.000,-49.805,-14.648,-26.367,-16.113,0.000
2141.000,-30.273,-12.695,-29.785,-22.949,0.000
2144.000,-12.695,-15.137,-26.367,-15.625,0.000
2148.000,-18.066,-15.137,-25.879,-13.184,0.000
2152.000,-19.043,-12.695,-32.227,-15.625,0.000
2156.000,-8.301,-15.137,-31.250,-17.090,0.000
2160.000,-8.789,-21.484,-26.367,-17.578,0.000
2164.000,-21.973,-21.484,-27.344,-11.230,0.000
2168.000,-33.203,-19.531,-29.297,-4.883,0.000
2172.000,-26.855,-21.973,-26.855,-8.301,0.000
2176.000,-20.020,-19.043,-23.926,-12.207,0.000
2180.000,-25.391,-15.137,-24.414,-4.883,0.000
2183.000,-22.949,-14.160,-23.438,-8.301,0.000
2187.000,-17.578,-12.695,-21.973,-16.113,0.000
2191.000,-10.742,-14.160,-23.926,-20.996,0.000
2195.000,-2.930,-17.090,-27.344,-28.320,0.000
2199.000,10.254,-17.578,-29.297,-18.066,0.000
2203.000,22.949,-15.137,-26.367,-12.207,0.000
2207.000,15.625,-17.578,-23.926,-19.043,0.000
2211.000,-14.648,-22.461,-26.855,-11.719,0.000
2215.000,-24.902,-23.438,-23.926,-2.930,0.000
2219.000,-12.207,-23.926,-16.602,-2.930,0.000
2223.000,-16.113,-28.320,-13.672,-0.488,0.000
2226.000,-8.789,-26.855,-12.207,4.883,0.000
2230.000,6.836,-19.531,-10.254,14.160,0.000
2234.000,-3.906,-22.949,-8.301,16.602,0.000
2238.000,-9.277,-24.414,-10.254,18.066,0.000
2242.000,-0.488,-23.926,-14.160,12.207,0.000
2246.000,-1.953,-27.344,-15.625,9.766,0.000
2250.000,-10.254,-24.902,-19.043,15.137,0.000
2254.000,-7.324,-20.020,-19.043,11.719,0.000
2258.000,-10.742,-20.508,-18.555,3.418,0.000
2262.000,-9.277,-24.902,-23.438,5.859,0.000
2266.000,-6.348,-35.645,-29.785,8.301,0.000
2269.000,-8.789,-37.109,-30.762,0.977,0.000
2273.000,-12.695,-31.738,-30.273,-12.207,0.000
2277.000,-13.672,-34.180,-30.762,-20.508,0.000
2281.000,-8.301,-37.598,-27.832,-12.695,0.000
2285.000,-13.672,-32.227,-29.297,-14.648,0.000
2289.000,-19.531,-32.227,-33.691,-31.738,0.000
2293.000,-5.371,-34.180,-30.762,-32.715,0.000
2297.000,2.930,-33.203,-28.320,-17.578,0.000
2301.000,-1.953,-29.785,-29.297,-8.301,0.000
2305.000,3.418,-26.367,-32.227,-14.160,0.000
2308.000,8.301,-20.508,-27.832,-11.719,0.000
2312.000,-6.348,-27.832,-20.996,-8.301,0.000
2316.000,-20.508,-38.574,-28.809,-23.926,0.000
2320.000,-22.461,-30.273,-33.203,-38.574,0.000
2324.000,-22.461,-40.527,-30.762,-46.875,0.000
2328.000,-7.324,-36.621,-28.809,-33.691,0.000
2332.000,4.395,-26.367,-33.203,-41.504,0.000
2336.000,-20.020,-38.086,-31.738,-61.523,0.000
2340.000,-47.363,-39.551,-34.180,-62.988,0.000
2344.000,-53.711,-34.180,-39.062,-55.176,0.000
2348.000,-50.293,-36.133,-25.879,-26.855,0.000
2351.000,-55.176,-47.852,-22.461,-24.414,0.000
2355.000,-63.477,-50.293,-26.367,-38.574,0.000
2359.000,-58.594,-37.598,-24.414,-41.016,0.000
2363.000,-57.617,-34.180,-29.297,-40.039,0.000
2367.000,-63.965,-41.992,-31.250,-48.340,0.000
2371.000,-65.430,-39.062,-29.785,-45.898,0.000
2375.000,-54.199,-36.133,-28.320,-31.250,0.000
2379.000,-41.992,-30.762,-24.902,-36.133,0.000
2383.000,-51.270,-35.156,-26.367,-48.340,0.000
2387.000,-53.711,-41.992,-19.043,-48.828,0.000
2391.000,-45.410,-39.551,-14.648,-38.086,0.000
2394.000,-36.133,-38.574,-17.578,-29.297,0.000
2398.000,-41.992,-43.457,-20.020,-30.273,0.000
2402.000,-53.223,-46.875,-20.996,-38.574,0.000
2406.000,-44.922,-40.039,-18.555,-42.969,0.000
2410.000,-41.016,-29.785,-20.508,-51.758,0.000
2414.000,-30.273,-23.926,-20.996,-50.781,0.000
2418.000,-24.414,-21.973,-20.996,-28.320,0.000
2422.000,-41.504,-18.555,-22.461,-24.414,0.000
2426.000,-44.922,-21.973,-14.160,-34.668,0.000
2430.000,-43.945,-33.691,-21.484,-41.016,0.000
2433.000,-32.715,-37.109,-32.227,-35.645,0.000
2437.000,-25.879,-34.668,-30.762,-31.250,0.000
2441.000,-36.133,-36.621,-23.438,-24.902,0.000
2445.000,-38.574,-36.133,-18.066,-14.648,0.000
2449.000,-35.645,-34.668,-20.508,-12.207,0.000
2453.000,-41.504,-35.156,-23.926,-18.555,0.000
2457.000,-38.086,-35.645,-28.809,-18.066,0.000
2461.000,-24.414,-37.109,-31.738,-14.160,0.000
2465.000,-32.715,-41.016,-31.738,-2.930,0.000
2469.000,-38.574,-40.039,-32.715,2.930,0.000
2473.000,-32.715,-39.062,-34.668,-12.207,0.000
2476.000,-19.531,-39.551,-32.715,-15.137,0.000
2480.000,-8.789,-37.109,-35.156,1.953,0.000
2484.000,0.488,-27.832,-38.574,1.953,0.000
2488.000,3.418,-24.902,-37.109,-3.418,0.000
2492.000,-12.207,-28.809,-36.621,-6.348,0.000
2496.000,-20.508,-23.438,-32.227,5.859,0.000
2500.000,-28.320,-24.414,-29.297,20.996,0.000
2504.000,-20.996,-23.926,-28.809,34.180,0.000
2508.000,5.371,-11.719,-25.879,44.434,0.000
2512.000,17.090,-11.719,-30.273,35.645,0.000
2515.000,18.555,-19.531,-35.156,32.227,0.000
2519.000,19.531,-15.625,-35.156,23.438,0.000
2523.000,7.324,-10.742,-34.180,14.160,0.000
2527.000,7.812,-11.719,-29.297,20.996,0.000
2531.000,14.160,-12.695,-19.043,32.227,0.000
2535.000,15.625,-10.742,-17.090,34.668,0.000
2539.000,19.531,-11.719,-19.043,20.508,0.000
2543.000,16.602,-12.695,-11.719,18.555,0.000
2547.000,12.207,-13.184,-7.812,24.414,0.000
2551.000,15.625,-9.277,-5.859,30.273,0.000
2555.000,21.484,-8.789,-4.395,28.320,0.000
2558.000,14.648,-16.113,-4.883,16.602,0.000
2562.000,7.812,-14.160,-2.441,26.367,0.000
2566.000,6.836,-14.160,-5.371,31.250,0.000
2570.000,13.184,-13.672,-5.859,26.367,0.000
2574.000,23.926,-12.207,-6.348,13.672,0.000
2578.000,32.715,-13.672,-6.836,9.766,0.000
2582.000,5.371,-18.555,-8.789,16.113,0.000
2586.000,-29.297,-20.996,-11.230,13.672,0.000
2590.000,-42.969,-17.090,-9.277,4.395,0.000
2594.000,-39.551,-15.137,-10.742,-3.906,0.000
2598.000,-31.250,-14.648,-18.066,-2.930,0.000
2601.000,-39.062,-13.672,-27.344,-11.719,0.000
2605.000,-31.250,-16.602,-28.809,-25.879,0.000
2609.000,-16.113,-23.926,-30.762,-28.809,0.000
2613.000,-17.578,-26.855,-30.762,-23.926,0.000
2617.000,-38.574,-27.344,-31.250,-27.832,0.000
2621.000,-46.387,-26.367,-32.227,-29.297,0.000
2625.000,-39.551,-25.391,-34.180,-23.926,0.000
2629.000,-35.156,-24.902,-36.133,-14.648,0.000
2633.000,-28.320,-25.391,-37.598,-16.602,0.000
2637.000,-27.832,-24.414,-35.645,-26.855,0.000
2640.000,-30.762,-18.555,-36.133,-28.809,0.000
2644.000,-30.273,-18.555,-41.504,-30.762,0.000
2648.000,-31.250,-24.902,-41.992,-32.227,0.000
2652.000,-30.762,-27.344,-36.621,-24.902,0.000
2656.000,-35.156,-22.949,-34.180,-31.250,0.000
2660.000,-34.668,-19.043,-37.598,-50.781,0.000
2664.000,-33.691,-19.531,-38.086,-58.105,0.000
2668.000,-38.086,-18.066,-32.715,-47.363,0.000
2672.000,-43.945,-17.090,-26.855,-34.180,0.000
2676.000,-42.480,-18.066,-30.273,-38.086,0.000
2680.000,-43.457,-20.508,-40.039,-45.898,0.000
2683.000,-41.992,-23.438,-40.527,-49.316,0.000
2687.000,-34.180,-22.949,-34.668,-52.734,0.000
2691.000,-32.715,-25.391,-29.297,-54.199,0.000
2695.000,-28.320,-24.902,-28.320,-42.969,0.000
2699.000,-25.391,-26.367,-28.809,-31.738,0.000
2703.000,-26.367,-25.391,-25.391,-33.203,0.000
2707.000,-41.992,-21.484,-28.320,-37.598,0.000
2711.000,-35.156,-22.949,-28.809,-28.809,0.000
2715.000,-23.926,-19.531,-26.855,-13.672,0.000
2719.000,-29.785,-20.020,-25.879,-13.184,0.000
2723.000,-36.621,-22.461,-26.367,-28.809,0.000
2726.000,-21.484,-26.367,-23.438,-23.926,0.000
2730.000,-0.977,-26.855,-18.555,2.441,0.000
2734.000,-31.738,-23.926,-15.137,-8.301,0.000
2738.000,-60.059,-25.391,-11.230,-35.645,0.000
2742.000,-37.598,-26.855,-9.766,-24.902,0.000
2746.000,-34.180,-31.250,-15.137,-5.859,0.000
2750.000,-44.434,-24.414,-17.090,-5.859,0.000
2754.000,-44.434,-17.578,-15.137,-9.766,0.000
2758.000,-39.551,-25.879,-14.648,-14.648,0.000
2762.000,-33.691,-28.320,-15.625,-6.836,0.000
2765.000,-28.320,-28.320,-18.066,-2.930,0.000
2769.000,-15.625,-29.785,-14.648,-17.090,0.000
2773.000,-12.695,-25.391,-15.625,-28.809,0.000
2777.000,-39.062,-24.902,-15.137,-35.156,0.000
2781.000,-57.129,-26.855,-16.602,-30.762,0.000
2785.000,-39.551,-24.414,-16.602,-23.926,0.000
2789.000,-53.711,-22.461,-14.160,-28.320,0.000
2793.000,-70.312,-24.414,-18.066,-32.715,0.000
2797.000,-59.570,-27.832,-18.555,-29.297,0.000
2801.000,-58.594,-23.438,-16.113,-31.738,0.000
2805.000,-60.547,-19.043,-18.555,-34.180,0.000
2808.000,-64.453,-19.531,-17.090,-29.297,0.000
2812.000,-72.754,-20.996,-25.391,-34.668,0.000
2816.000,-67.383,-14.160,-31.250,-36.621,0.000
2820.000,-54.688,-10.742,-20.996,-39.551,0.000
2824.000,-55.176,-16.113,-23.926,-55.664,0.000
2828.000,-51.758,-13.672,-27.832,-45.410,0.000
2832.000,-40.527,-9.277,-27.832,-36.621,0.000
2836.000,-28.809,-8.789,-25.879,-31.250,0.000
2840.000,-19.531,-4.395,-18.066,-19.531,0.000
2844.000,-16.602,-6.836,-20.020,-17.578,0.000
2848.000,-15.137,-7.812,-19.531,-15.137,0.000
2851.000,-5.371,-3.418,-14.648,-6.348,0.000
2855.000,-4.395,-6.348,-17.578,-14.648,0.000
2859.000,-7.324,-7.324,-21.973,-18.066,0.000
2863.000,-2.441,-6.348,-21.973,-3.906,0.000
2867.000,7.324,-7.324,-19.531,1.465,0.000
2871.000,1.953,-4.395,-15.625,-3.418,0.000
2875.000,6.348,-3.418,-12.695,-8.789,0.000
2879.000,23.926,-5.859,-7.812,-1.953,0.000
2883.000,5.859,-3.418,-7.324,15.137,0.000
2887.000,-18.066,0.000,-10.254,20.508,0.000
2890.000,-22.461,-4.883,-10.742,14.160,0.000
2894.000,-8.789,-8.789,-7.812,19.531,0.000
2898.000,0.977,-7.324,-5.859,34.180,0.000
2902.000,-6.348,-6.836,-7.324,26.367,0.000
2906.000,-6.348,-7.812,-4.395,22.461,0.000
2910.000,-3.418,-7.324,-6.348,20.996,0.000
2914.000,-11.230,-9.766,-10.254,18.555,0.000
2918.000,-12.695,-15.137,-16.602,17.578,0.000
2922.000,-7.324,-18.066,-19.043,10.742,0.000
2926.000,-3.906,-16.113,-18.066,9.766,0.000
2930.000,-4.395,-16.602,-23.926,9.277,0.000
2933.000,-4.883,-17.578,-27.832,11.719,0.000
2937.000,5.859,-13.184,-21.973,9.277,0.000
2941.000,-1.953,-14.648,-23.926,0.977,0.000
2945.000,-17.090,-17.578,-23.438,2.930,0.000
2949.000,-16.602,-16.113,-21.484,2.930,0.000
2953.000,-13.672,-20.996,-27.832,-4.883,0.000
2957.000,-7.324,-20.020,-29.297,-19.043,0.000
2961.000,4.883,-19.043,-30.762,-28.320,0.000
2965.000,7.324,-20.508,-31.738,-23.438,0.000
2969.000,0.488,-19.531,-33.691,-23.438,0.000
2973.000,0.977,-22.461,-35.156,-31.738,0.000
2976.000,-11.230,-22.949,-29.297,-24.902,0.000
2980.000,-18.555,-21.973,-26.855,-13.672,0.000
2984.000,-10.742,-21.973,-29.297,-10.742,0.000
2988.000,-16.602,-22.949,-28.809,-15.625,0.000
2992.000,-33.691,-25.879,-34.180,-30.273,0.000
2996.000,-38.086,-23.438,-33.203,-22.949,0.000
3000.000,-25.879,-22.949,-26.367,-14.160,0.000
3004.000,-15.137,-24.902,-30.273,-21.973,0.000
3008.000,-9.766,-24.902,-27.832,-24.902,0.000
3012.000,-24.902,-27.832,-25.391,-21.973,0.000
3015.000,-36.133,-28.320,-26.367,-23.926,0.000
3019.000,-42.480,-24.414,-20.508,-15.137,0.000
3023.000,-46.387,-21.973,-19.043,-13.184,0.000
3027.000,-41.504,-22.949,-24.414,-20.996,0.000
3031.000,-37.598,-23.438,-21.484,-5.371,0.000
3035.000,-41.992,-26.855,-19.043,-0.977,0.000
3039.000,-44.922,-25.391,-21.484,-16.602,0.000
3043.000,-29.785,-23.438,-20.020,-10.254,0.000
3047.000,-13.184,-26.367,-19.531,2.441,0.000
3051.000,-25.879,-31.738,-22.949,-14.648,0.000
3055.000,-38.086,-31.250,-24.414,-31.738,0.000
3058.000,-16.602,-24.902,-22.949,-16.113,0.000
3062.000,-10.254,-28.320,-20.996,-20.996,0.000
3066.000,-21.484,-27.832,-21.973,-28.320,0.000
3070.000,-23.926,-31.250,-23.438,-28.809,0.000
3074.000,-39.062,-36.133,-24.902,-40.527,0.000
3078.000,-44.922,-29.785,-28.320,-51.758,0.000
3082.000,-43.945,-35.645,-32.715,-50.293,0.000
3086.000,-56.641,-37.109,-37.109,-62.988,0.000
3090.000,-54.688,-28.320,-34.668,-72.754,0.000
3094.000,-34.668,-29.297,-28.320,-65.430,0.000
3098.000,-16.602,-31.250,-29.297,-52.734,0.000
3101.000,-19.043,-34.668,-29.297,-40.527,0.000
3105.000,-57.129,-32.715,-28.809,-45.410,0.000
3109.000,-93.262,-32.715,-25.391,-48.828,0.000
3113.000,-104.492,-41.992,-19.531,-39.551,0.000
3117.000,-85.449,-33.203,-20.996,-38.086,0.000
3121.000,-78.125,-26.855,-21.973,-42.969,0.000
3125.000,-71.289,-26.367,-19.531,-48.340,0.000
3129.000,-60.547,-22.461,-24.414,-51.758,0.000
3133.000,-52.734,-20.996,-28.320,-46.875,0.000
3137.000,-60.059,-22.461,-26.367,-55.664,0.000
3140.000,-58.594,-31.250,-31.250,-60.547,0.000
3144.000,-45.898,-32.227,-29.297,-50.293,0.000
3148.000,-51.758,-21.484,-16.113,-45.410,0.000
3152.000,-54.199,-31.250,-17.090,-39.551,0.000
3156.000,-59.570,-39.062,-32.227,-47.852,0.000
3160.000,-63.965,-40.527,-29.785,-49.805,0.000
3164.000,-52.734,-37.598,-19.043,-32.227,0.000
3168.000,-49.805,-26.855,-17.578,-27.344,0.000
3172.000,-53.711,-27.344,-26.855,-39.551,0.000
3176.000,-36.133,-27.832,-28.809,-48.828,0.000
3180.000,-18.066,-32.227,-29.785,-40.039,0.000
3183.000,-22.461,-35.645,-25.879,-32.227,0.000
3187.000,-38.086,-37.109,-18.066,-29.297,0.000
3191.000,-40.527,-34.180,-20.508,-25.879,0.000
3195.000,-46.387,-32.715,-19.531,-13.184,0.000
3199.000,-48.340,-35.156,-22.461,-6.836,0.000
3203.000,-42.480,-43.457,-23.438,-9.277,0.000
3207.000,-25.391,-46.875,-18.066,-15.137,0.000
3211.000,-4.883,-35.156,-15.137,-11.719,0.000
3215.000,-0.488,-20.508,-11.230,2.441,0.000
3219.000,-13.672,-17.090,-14.648,-4.883,0.000
3222.000,-33.203,-25.391,-20.020,-16.113,0.000
3226.000,-43.457,-33.691,-21.484,-15.625,0.000
3230.000,-33.691,-36.133,-25.879,-9.766,0.000
3234.000,-29.785,-30.273,-27.832,-10.742,0.000
3238.000,-30.273,-29.785,-26.855,-20.020,0.000
3242.000,-27.344,-34.668,-28.809,-22.949,0.000
3246.000,-32.227,-35.645,-28.809,-17.578,0.000
3250.000,-40.039,-35.645,-30.273,-17.090,0.000
3254.000,-29.297,-33.203,-34.668,-14.648,0.000
3258.000,-28.320,-29.785,-34.180,-10.254,0.000
3262.000,-27.832,-32.715,-34.668,-28.320,0.000
3265.000,-20.996,-30.273,-35.645,-24.902,0.000
3269.000,-28.320,-22.461,-34.180,-21.973,0.000
3273.000,-33.691,-28.320,-35.645,-35.156,0.000
3277.000,-37.109,-29.297,-31.250,-25.391,0.000
3281.000,-40.039,-26.855,-31.250,-13.672,0.000
3285.000,-30.762,-28.809,-33.203,-26.855,0.000
3289.000,-20.996,-29.785,-32.227,-38.574,0.000
3293.000,-11.719,-27.832,-33.691,-33.203,0.000
3297.000,-2.441,-15.625,-24.414,-16.602,0.000
3301.000,-3.418,-19.531,-20.020,-4.395,0.000
3305.000,-6.836,-21.973,-24.902,-12.695,0.000
3308.000,10.742,-14.648,-29.785,-20.508,0.000
3312.000,20.508,-15.137,-30.762,-16.602,0.000
3316.000,-7.324,-15.137,-26.367,-10.254,0.000
3320.000,-20.508,-19.531,-24.414,-17.090,0.000
3324.000,-19.043,-24.902,-23.926,-25.879,0.000
3328.000,-25.879,-24.414,-22.461,-26.367,0.000
3332.000,-38.574,-26.855,-21.973,-15.137,0.000
3336.000,-52.246,-28.320,-18.555,-13.184,0.000
3340.000,-42.480,-23.438,-13.672,-19.531,0.000
3344.000,-31.250,-23.438,-16.113,-13.184,0.000
3347.000,-25.879,-19.043,-18.555,-0.977,0.000
3351.000,-19.043,-21.973,-17.578,-3.418,0.000
3355.000,-9.766,-31.250,-20.020,-21.973,0.000
3359.000,4.883,-27.344,-20.020,-19.043,0.000
3363.000,0.488,-22.461,-18.066,-14.160,0.000
3367.000,-18.066,-20.996,-16.113,-13.184,0.000
3371.000,-29.785,-23.438,-12.695,-5.371,0.000
3375.000,-32.227,-28.320,-15.137,-12.207,0.000
3379.000,-32.227,-28.320,-21.484,-16.602,0.000
3383.000,-24.902,-29.297,-23.438,-21.484,0.000
3387.000,-12.695,-26.367,-15.137,-32.715,0.000
3390.000,-2.441,-27.344,-11.719,-24.902,0.000
3394.000,-9.766,-28.809,-17.578,-21.973,0.000
3398.000,-33.203,-29.785,-20.508,-24.414,0.000
3402.000,-36.621,-27.344,-20.020,-25.391,0.000
3406.000,-25.391,-23.926,-21.484,-24.414,0.000
3410.000,-20.508,-25.391,-23.438,-23.438,0.000
3414.000,-21.484,-28.320,-24.414,-25.391,0.000
3418.000,-42.480,-28.320,-22.949,-20.996,0.000
