timestamp,TP9,AF7,AF8,TP10,Right AUX
0.000,-48.828,-29.785,-23.438,-18.555,0.000
4.000,-48.340,-25.879,-21.484,-19.531,0.000
8.000,-41.016,-24.414,-23.438,-28.809,0.000
12.000,-32.715,-22.461,-22.949,-24.902,0.000
16.000,-49.805,-25.879,-20.996,-24.414,0.000
20.000,-53.223,-25.391,-22.949,-22.461,0.000
23.000,-35.645,-21.973,-25.879,-24.414,0.000
27.000,-27.344,-22.949,-25.879,-28.809,0.000
31.000,-28.320,-22.461,-24.902,-30.762,0.000
35.000,-28.809,-20.996,-23.926,-33.691,0.000
39.000,-26.855,-16.602,-22.949,-37.109,0.000
43.000,-29.297,-19.043,-22.949,-42.969,0.000
47.000,-26.855,-28.809,-21.484,-42.969,0.000
51.000,-23.926,-26.367,-19.043,-30.762,0.000
55.000,-20.020,-23.438,-16.602,-28.809,0.000
59.000,-10.254,-23.438,-19.531,-44.922,0.000
63.000,-2.930,-22.461,-24.902,-49.316,0.000
66.000,13.184,-19.043,-27.344,-29.297,0.000
70.000,2.930,-17.578,-24.414,-14.648,0.000
74.000,-24.414,-22.949,-27.344,-28.320,0.000
78.000,-7.324,-26.855,-30.762,-40.039,0.000
82.000,4.395,-30.273,-28.320,-37.598,0.000
86.000,-4.395,-22.461,-32.227,-34.180,0.000
90.000,-15.625,-13.184,-30.273,-27.832,0.000
94.000,-37.109,-17.578,-22.461,-32.227,0.000
98.000,-29.785,-18.066,-23.926,-32.227,0.000
102.000,-21.973,-19.531,-26.367,-22.461,0.000
105.000,-28.320,-20.508,-23.926,-24.414,0.000
109.000,-30.273,-22.949,-22.461,-32.715,0.000
113.000,-31.250,-25.391,-26.367,-27.832,0.000
117.000,-20.996,-20.508,-28.809,-16.602,0.000
121.000,-16.602,-23.926,-31.250,-20.020,0.000
125.000,-15.137,-24.414,-27.344,-29.785,0.000
129.000,-18.066,-28.320,-26.855,-23.926,0.000
133.000,-22.949,-30.273,-32.227,-18.555,0.000
137.000,-16.113,-26.855,-28.320,-22.949,0.000
141.000,-13.184,-26.855,-28.809,-27.344,0.000
145.000,-31.738,-21.484,-25.391,-25.879,0.000
148.000,-35.645,-23.926,-20.020,-22.949,0.000
152.000,-20.020,-38.574,-21.484,-26.855,0.000
156.000,-16.113,-41.504,-23.926,-28.320,0.000
160.000,-24.902,-28.320,-25.879,-35.645,0.000
164.000,-50.781,-23.438,-28.320,-33.203,0.000
168.000,-59.082,-27.344,-34.180,-26.367,0.000
172.000,-49.316,-28.809,-34.180,-26.367,0.000
176.000,-28.320,-32.227,-31.738,-35.156,0.000
180.000,-20.996,-39.062,-31.738,-39.551,0.000
184.000,-43.945,-40.527,-29.785,-27.832,0.000
188.000,-46.387,-31.250,-31.250,-25.391,0.000
191.000,-33.691,-31.250,-33.203,-38.574,0.000
195.000,-20.508,-33.691,-33.691,-41.504,0.000
199.000,-32.715,-34.668,-27.344,-21.484,0.000
203.000,-51.758,-32.715,-18.555,-9.766,0.000
207.000,-43.945,-28.320,-20.996,-19.531,0.000
211.000,-35.156,-38.086,-21.973,-24.902,0.000
215.000,-20.020,-37.598,-19.043,-27.832,0.000
219.000,-15.137,-28.320,-15.625,-17.578,0.000
223.000,-33.203,-26.855,-13.184,-10.742,0.000
227.000,-47.363,-34.668,-20.508,-27.832,0.000
230.000,-49.805,-39.551,-24.414,-33.203,0.000
234.000,-29.785,-26.855,-19.531,-11.230,0.000
238.000,-27.344,-26.855,-19.531,-6.348,0.000
242.000,-33.203,-32.715,-26.855,-20.508,0.000
246.000,-24.414,-30.273,-29.297,-18.066,0.000
250.000,-14.648,-31.738,-26.855,-10.742,0.000
254.000,-13.672,-29.297,-30.762,-15.625,0.000
258.000,-15.137,-28.809,-36.133,-44.922,0.000
262.000,-32.715,-34.180,-36.133,-62.500,0.000
266.000,-81.543,-34.180,-36.133,-48.340,0.000
270.000,-104.492,-34.180,-29.785,-40.527,0.000
273.000,-94.727,-34.668,-25.391,-51.270,0.000
277.000,-83.496,-37.109,-29.785,-75.195,0.000
281.000,-68.848,-38.086,-31.738,-76.660,0.000
285.000,-66.895,-34.668,-28.809,-64.453,0.000
289.000,-64.453,-34.180,-29.297,-68.359,0.000
293.000,-51.758,-33.203,-27.344,-76.172,0.000
297.000,-56.641,-26.367,-25.391,-67.871,0.000
301.000,-53.711,-24.902,-29.297,-59.082,0.000
305.000,-50.781,-28.809,-32.715,-53.711,0.000
309.000,-49.316,-25.391,-29.297,-52.734,0.000
313.000,-37.598,-24.414,-24.902,-56.641,0.000
316.000,-45.410,-25.391,-27.344,-51.270,0.000
320.000,-64.941,-26.367,-32.227,-53.711,0.000
324.000,-53.223,-28.320,-31.250,-56.641,0.000
328.000,-26.367,-26.367,-26.855,-58.594,0.000
332.000,-21.484,-26.855,-28.809,-55.176,0.000
336.000,-33.203,-31.250,-26.855,-44.434,0.000
340.000,-30.273,-33.691,-21.973,-44.922,0.000
344.000,-30.273,-33.203,-26.855,-42.969,0.000
348.000,-40.039,-36.621,-33.203,-38.086,0.000
352.000,-26.855,-34.668,-30.762,-23.926,0.000
356.000,-5.859,-28.320,-26.367,-9.277,0.000
359.000,7.324,-32.227,-30.762,-25.879,0.000
363.000,15.625,-36.133,-28.320,-30.273,0.000
367.000,8.301,-31.250,-20.508,-8.301,0.000
371.000,4.395,-29.297,-22.949,7.812,0.000
375.000,8.789,-35.645,-29.785,5.859,0.000
379.000,19.531,-39.062,-30.762,-6.348,0.000
383.000,7.324,-40.527,-34.668,-9.766,0.000
387.000,3.418,-34.180,-33.203,8.789,0.000
391.000,22.461,-37.598,-23.926,25.391,0.000
395.000,-1.465,-41.992,-21.484,-7.324,0.000
398.000,-27.344,-38.574,-20.996,-36.621,0.000
402.000,-14.648,-38.574,-21.973,-37.598,0.000
406.000,8.301,-54.688,-28.809,-31.738,0.000
410.000,22.461,-57.129,-25.879,-32.715,0.000
414.000,-18.555,-41.504,-17.578,-37.598,0.000
418.000,-48.828,-49.316,-22.461,-51.270,0.000
422.000,-45.410,-42.969,-28.809,-54.688,0.000
426.000,-64.453,-39.551,-49.316,-61.035,0.000
430.000,-86.426,-53.223,-51.270,-80.078,0.000
434.000,-77.148,-69.336,-35.645,-65.918,0.000
438.000,-56.152,-77.637,-56.152,-47.852,0.000
441.000,-50.293,-62.988,-36.133,-55.176,0.000
445.000,-47.363,-77.637,8.789,-66.895,0.000
449.000,-53.223,-83.984,-5.859,-70.801,0.000
453.000,-55.176,-29.297,-31.250,-52.734,0.000
457.000,-60.059,-38.574,-41.016,-59.082,0.000
461.000,-89.844,-75.684,-30.273,-67.871,0.000
465.000,-106.934,-58.105,-20.020,-77.148,0.000
469.000,-98.633,-32.227,-31.738,-95.703,0.000
473.000,-73.242,-32.715,-34.668,-72.266,0.000
477.000,-58.105,-45.410,-30.273,-61.523,0.000
481.000,-62.988,-33.203,-30.762,-49.316,0.000
484.000,-68.848,-39.062,-28.320,-36.133,0.000
488.000,-73.730,-65.430,-27.344,-51.270,0.000
492.000,-69.336,-55.176,-28.809,-63.477,0.000
496.000,-76.660,-53.223,-42.969,-73.242,0.000
500.000,-74.707,-62.500,-54.688,-71.289,0.000
504.000,-56.641,-60.059,-51.270,-55.176,0.000
508.000,-47.852,-58.105,-50.781,-56.152,0.000
512.000,-35.156,-57.129,-54.688,-64.941,0.000
516.000,-29.785,-53.711,-55.176,-48.828,0.000
520.000,-23.926,-58.105,-56.152,-39.551,0.000
524.000,-41.016,-59.570,-55.664,-41.504,0.000
527.000,-76.172,-53.223,-54.199,-44.434,0.000
531.000,-53.711,-50.293,-58.105,-39.062,0.000
535.000,-43.457,-51.270,-55.664,-22.461,0.000
539.000,-58.594,-53.711,-50.293,-22.461,0.000
543.000,-61.035,-51.758,-51.758,-36.133,0.000
547.000,-65.918,-47.363,-52.734,-35.645,0.000
551.000,-77.148,-50.781,-50.293,-26.367,0.000
555.000,-84.473,-55.664,-47.363,-29.785,0.000
559.000,-74.707,-54.199,-43.945,-29.785,0.000
563.000,-58.105,-47.852,-44.434,-41.992,0.000
566.000,-48.340,-44.434,-49.316,-48.828,0.000
570.000,-45.410,-43.945,-48.828,-36.621,0.000
574.000,-44.434,-45.410,-46.875,-49.805,0.000
578.000,-35.645,-41.504,-52.246,-51.758,0.000
582.000,-31.738,-41.016,-50.293,-35.156,0.000
586.000,-38.574,-42.480,-47.852,-28.320,0.000
590.000,-36.133,-41.016,-48.340,-33.691,0.000
594.000,-31.250,-38.086,-43.945,-36.133,0.000
598.000,-26.855,-32.715,-39.062,-27.344,0.000
602.000,-26.855,-44.922,-37.109,-27.832,0.000
606.000,-24.902,-52.734,-38.574,-40.039,0.000
609.000,-17.090,-37.598,-38.574,-35.645,0.000
613.000,-2.930,-32.227,-30.762,-24.414,0.000
617.000,0.977,-28.809,-24.414,-22.949,0.000
621.000,-23.926,-26.367,-28.809,-20.508,0.000
625.000,-46.387,-30.762,-30.273,-16.602,0.000
629.000,-42.969,-31.250,-25.391,-24.414,0.000
633.000,-9.766,-36.621,-24.414,-26.367,0.000
637.000,9.277,-32.227,-25.391,-21.973,0.000
641.000,5.371,-21.973,-19.043,-18.555,0.000
645.000,-25.391,-34.180,-17.090,-19.531,0.000
649.000,-66.406,-44.434,-20.020,-24.902,0.000
652.000,-78.613,-35.645,-14.648,-12.207,0.000
656.000,-58.105,-24.414,-13.184,-12.695,0.000
660.000,-41.992,-15.625,-18.066,-18.066,0.000
664.000,-44.434,-20.020,-18.066,-18.555,0.000
668.000,-44.922,-30.273,-13.184,-15.137,0.000
672.000,-39.062,-35.645,-16.602,-16.113,0.000
676.000,-30.762,-28.320,-20.508,-25.879,0.000
680.000,-28.320,-21.973,-18.555,-29.785,0.000
684.000,-22.461,-14.648,-20.020,-19.531,0.000
688.000,-16.602,-12.695,-17.090,-4.883,0.000
692.000,-15.625,-13.672,-11.230,-12.695,0.000
695.000,-7.812,-10.742,-11.719,-21.973,0.000
699.000,-11.719,-15.137,-13.672,-11.719,0.000
703.000,-23.926,-18.066,-17.578,-18.066,0.000
707.000,-20.020,-20.020,-19.531,-28.320,0.000
711.000,-3.418,-19.531,-17.090,-23.438,0.000
715.000,3.418,-25.391,-12.695,-15.625,0.000
719.000,19.531,-17.578,-9.277,-6.348,0.000
723.000,11.719,-8.789,-14.160,-7.324,0.000
727.000,0.488,-14.160,-19.043,-26.855,0.000
731.000,7.812,-20.996,-17.578,-27.344,0.000
734.000,-8.301,-22.949,-18.066,-15.137,0.000
738.000,-25.879,-20.508,-22.461,-21.484,0.000
742.000,-39.062,-23.438,-20.020,-26.367,0.000
746.000,-39.551,-28.809,-15.625,-26.855,0.000
750.000,-29.297,-25.391,-14.648,-20.020,0.000
754.000,-38.086,-21.484,-21.484,-20.508,0.000
758.000,-39.551,-31.738,-23.438,-24.414,0.000
762.000,-23.438,-23.438,-14.648,-24.414,0.000
766.000,-12.695,-15.625,-14.160,-14.648,0.000
770.000,-7.812,-16.602,-16.602,-3.906,0.000
774.000,-20.508,-17.090,-15.625,-9.277,0.000
777.000,-22.949,-21.484,-16.602,-11.719,0.000
781.000,-12.695,-20.020,-20.020,-17.578,0.000
785.000,-15.625,-22.461,-19.043,-16.113,0.000
789.000,-16.602,-18.066,-17.578,-10.742,0.000
793.000,-13.672,-19.531,-21.484,-17.090,0.000
797.000,-11.719,-20.996,-20.020,-17.578,0.000
801.000,-19.043,-21.973,-19.043,-15.625,0.000
805.000,-27.832,-20.996,-18.066,-10.254,0.000
809.000,-10.742,-14.648,-17.090,-7.812,0.000
813.000,10.742,-13.672,-15.625,-7.812,0.000
817.000,7.324,-15.137,-19.043,0.000,0.000
820.000,-4.395,-12.207,-25.879,2.930,0.000
824.000,-13.672,-12.207,-24.414,-6.836,0.000
828.000,-2.441,-18.555,-25.391,-23.438,0.000
832.000,15.137,-18.066,-23.926,-1.465,0.000
836.000,-0.977,-18.555,-20.020,18.555,0.000
840.000,-37.598,-18.555,-20.996,-18.555,0.000
844.000,-44.922,-16.602,-21.484,-47.852,0.000
848.000,-9.766,-11.719,-14.160,-22.949,0.000
852.000,-4.883,-15.137,-13.184,-18.066,0.000
856.000,-19.043,-20.508,-19.531,-30.273,0.000
860.000,-0.977,-20.508,-18.066,-27.344,0.000
863.000,-12.695,-19.531,-20.020,-34.180,0.000
867.000,-27.344,-18.555,-16.602,-24.414,0.000
871.000,-35.156,-23.926,-13.184,-21.973,0.000
875.000,-39.551,-20.996,-18.555,-34.668,0.000
879.000,-20.508,-11.719,-17.090,-30.762,0.000
883.000,-21.973,-13.184,-5.371,-20.508,0.000
887.000,-12.695,-14.160,-4.395,-17.578,0.000
891.000,-7.812,-16.602,-8.301,-24.902,0.000
895.000,-12.207,-9.766,-11.230,-33.691,0.000
899.000,-14.160,-9.277,-14.160,-31.738,0.000
902.000,-32.227,-14.160,-14.160,-24.902,0.000
906.000,-41.016,-5.859,-9.277,-27.344,0.000
910.000,-31.250,-9.766,-10.254,-17.578,0.000
914.000,-10.742,-9.277,-19.043,-7.812,0.000
918.000,-1.953,-0.977,-23.438,-20.020,0.000
922.000,-0.977,-5.371,-25.879,-32.715,0.000
926.000,-6.836,-9.277,-24.414,-30.273,0.000
930.000,-25.879,-8.301,-23.438,-26.367,0.000
934.000,-30.273,-7.812,-21.484,-23.438,0.000
938.000,-21.973,-9.766,-17.578,-27.344,0.000
942.000,-17.090,-4.395,-15.137,-41.016,0.000
945.000,-20.508,-9.277,-22.461,-46.387,0.000
949.000,-35.156,-19.531,-26.367,-43.457,0.000
953.000,-40.039,-16.113,-17.578,-32.715,0.000
957.000,-33.203,-21.484,-14.160,-34.668,0.000
961.000,-6.348,-26.367,-17.090,-26.367,0.000
965.000,14.160,-19.531,-15.625,-15.625,0.000
969.000,-7.324,-16.602,-18.066,-27.832,0.000
973.000,-37.109,-21.484,-16.113,-41.016,0.000
977.000,-34.180,-24.902,-14.648,-42.480,0.000
981.000,-20.508,-21.973,-18.555,-25.391,0.000
985.000,-13.184,-17.090,-17.090,-27.344,0.000
988.000,-15.625,-16.113,-20.020,-45.410,0.000
992.000,-28.320,-21.973,-23.926,-49.316,0.000
996.000,-20.996,-25.879,-18.555,-36.133,0.000
1000.000,-12.695,-22.461,-12.207,-29.785,0.000
1004.000,-29.297,-18.555,-11.230,-39.062,0.000
1008.000,-45.410,-18.066,-12.207,-45.410,0.000
1012.000,-33.203,-13.672,-12.695,-43.457,0.000
1016.000,-33.203,-15.625,-11.230,-33.203,0.000
1020.000,-45.410,-17.578,-9.277,-18.555,0.000
1024.000,-48.340,-16.602,-12.207,-29.297,0.000
1027.000,-62.988,-19.531,-16.602,-46.387,0.000
1031.000,-65.430,-18.066,-14.648,-42.480,0.000
1035.000,-53.711,-15.625,-13.184,-29.785,0.000
1039.000,-49.316,-17.090,-17.090,-34.180,0.000
1043.000,-43.457,-15.137,-12.207,-35.645,0.000
1047.000,-35.645,-11.230,-9.766,-32.715,0.000
1051.000,-35.156,-12.207,-12.695,-23.438,0.000
1055.000,-36.133,-12.695,-13.672,-20.996,0.000
1059.000,-30.762,-3.906,-17.090,-33.691,0.000
1063.000,-17.578,-12.207,-23.926,-30.273,0.000
1067.000,-18.555,-23.926,-20.996,-15.137,0.000
1070.000,-29.785,-16.113,-14.160,-10.254,0.000
1074.000,-32.227,-16.602,-15.137,-20.996,0.000
1078.000,-22.461,-14.648,-18.066,-29.297,0.000
1082.000,-7.324,-11.719,-17.090,-32.227,0.000
1086.000,-11.230,-13.672,-17.578,-26.855,0.000
1090.000,-14.160,-14.648,-20.020,-22.461,0.000
1094.000,-1.953,-16.113,-22.461,-30.273,0.000
1098.000,-3.906,-15.625,-18.555,-30.762,0.000
1102.000,-15.625,-18.066,-15.625,-23.926,0.000
1106.000,-12.207,-19.531,-16.113,-16.113,0.000
1110.000,-4.395,-14.648,-18.066,-19.531,0.000
1113.000,-20.020,-17.090,-17.090,-30.273,0.000
1117.000,-27.344,-26.367,-18.066,-18.066,0.000
1121.000,-35.645,-26.367,-23.926,-9.766,0.000
1125.000,-47.852,-28.320,-23.438,-20.508,0.000
1129.000,-29.785,-26.855,-23.926,-19.531,0.000
1133.000,-20.996,-18.555,-26.855,-13.672,0.000
1137.000,-30.762,-17.090,-19.043,-5.859,0.000
1141.000,-35.645,-20.996,-16.602,-7.812,0.000
1145.000,-30.273,-28.809,-22.949,-24.902,0.000
1149.000,-17.578,-31.250,-26.367,-21.484,0.000
1153.000,-19.531,-28.809,-23.926,-3.418,0.000
1156.000,-26.367,-27.832,-22.461,-11.230,0.000
1160.000,-31.250,-25.391,-25.879,-17.578,0.000
1164.000,-24.902,-31.738,-25.391,-12.695,0.000
1168.000,-25.879,-35.645,-26.855,-9.766,0.000
1172.000,-26.367,-32.227,-26.855,-8.301,0.000
1176.000,-15.625,-28.320,-24.414,-19.043,0.000
1180.000,1.465,-21.484,-23.438,-17.090,0.000
1184.000,12.207,-21.973,-23.438,-13.672,0.000
1188.000,-6.348,-21.973,-24.414,-19.531,0.000
1192.000,-15.625,-27.344,-25.391,-30.762,0.000
1196.000,-18.066,-31.250,-25.391,-29.297,0.000
1199.000,-17.578,-23.926,-28.320,-17.090,0.000
1203.000,-5.371,-22.949,-27.832,-19.043,0.000
1207.000,8.301,-20.020,-25.391,-28.320,0.000
1211.000,0.977,-18.555,-26.367,-35.156,0.000
1215.000,-24.414,-18.066,-18.555,-21.484,0.000
1219.000,-45.898,-18.066,-10.742,-12.695,0.000
1223.000,-55.664,-22.461,-16.602,-20.996,0.000
1227.000,-44.922,-25.391,-21.973,-33.691,0.000
1231.000,-26.855,-29.297,-23.926,-28.320,0.000
1235.000,-20.996,-29.297,-28.809,-14.160,0.000
1238.000,-20.020,-36.621,-31.738,-15.137,0.000
1242.000,-16.113,-35.156,-30.762,-13.184,0.000
1246.000,-10.742,-29.785,-27.344,-18.066,0.000
1250.000,-11.230,-33.203,-25.391,-20.508,0.000
1254.000,-24.414,-32.227,-24.902,-14.160,0.000
1258.000,-30.762,-35.645,-29.297,-17.090,0.000
1262.000,-21.484,-35.645,-32.715,-29.297,0.000
1266.000,-10.742,-34.668,-28.809,-33.691,0.000
1270.000,-17.090,-27.832,-24.414,-20.020,0.000
1274.000,-30.762,-26.367,-23.926,-21.484,0.000
1278.000,-28.809,-35.156,-24.902,-37.598,0.000
1281.000,-16.602,-41.992,-18.555,-34.180,0.000
1285.000,-18.555,-34.180,-8.789,-14.648,0.000
1289.000,-13.184,-23.438,-10.254,-15.137,0.000
1293.000,-15.137,-35.156,-19.531,-36.621,0.000
1297.000,-36.133,-43.457,-22.461,-36.621,0.000
1301.000,-29.785,-38.574,-21.973,-23.926,0.000
1305.000,-27.344,-44.922,-24.414,-17.090,0.000
1309.000,-29.785,-39.551,-24.414,-23.438,0.000
1313.000,-26.367,-32.715,-23.438,-30.762,0.000
1317.000,-26.855,-31.738,-23.438,-23.926,0.000
1321.000,-22.949,-31.738,-22.949,-20.996,0.000
1324.000,-17.578,-34.180,-21.973,-24.902,0.000
1328.000,-17.090,-30.273,-22.949,-28.320,0.000
1332.000,-22.461,-27.832,-23.438,-19.043,0.000
1336.000,-26.367,-25.879,-22.949,-21.484,0.000
1340.000,-14.160,-21.484,-26.855,-29.785,0.000
1344.000,-5.859,-27.344,-33.691,-27.344,0.000
1348.000,-10.742,-28.809,-34.180,-19.531,0.000
1352.000,-25.391,-30.762,-29.297,-4.395,0.000
1356.000,-24.414,-36.621,-28.809,-12.695,0.000
1360.000,-12.207,-32.227,-26.855,-28.809,0.000
1364.000,-0.977,-35.156,-27.832,-18.066,0.000
1367.000,-3.418,-37.109,-33.691,-9.277,0.000
1371.000,-19.531,-39.551,-31.250,-11.230,0.000
1375.000,-10.254,-38.574,-28.809,-21.484,0.000
1379.000,-18.066,-33.203,-29.785,-19.043,0.000
1383.000,-28.809,-40.039,-32.227,-12.695,0.000
1387.000,-27.832,-32.715,-30.273,-9.277,0.000
1391.000,-25.879,-24.902,-23.438,-12.695,0.000
1395.000,-16.113,-29.785,-23.438,-13.184,0.000
1399.000,9.766,-22.949,-17.578,8.301,0.000
1403.000,8.301,-21.484,-8.789,15.625,0.000
1406.000,-10.254,-24.414,-8.789,-1.465,0.000
1410.000,-1.465,-25.879,-11.230,-18.555,0.000
1414.000,-0.977,-38.086,-18.555,-33.691,0.000
1418.000,-1.465,-45.898,-25.391,-31.738,0.000
1422.000,-6.348,-51.758,-18.555,-37.598,0.000
1426.000,-34.668,-75.195,-14.648,-51.270,0.000
1430.000,-49.316,-69.824,-20.508,-55.664,0.000
1434.000,-41.992,-41.992,-26.855,-62.988,0.000
1438.000,-46.875,-33.691,-26.855,-73.242,0.000
1442.000,-60.547,-33.691,-23.926,-81.055,0.000
1446.000,-64.941,-38.086,-19.043,-77.148,0.000
1449.000,-84.473,-39.062,-29.297,-75.195,0.000
1453.000,-77.637,-62.988,-32.715,-63.477,0.000
1457.000,-57.129,-80.078,-25.391,-44.922,0.000
1461.000,-68.359,-45.410,-46.875,-66.895,0.000
1465.000,-84.961,-21.484,-41.016,-80.078,0.000
1469.000,-96.680,-25.879,-20.020,-67.383,0.000
1473.000,-100.098,-38.086,-12.695,-79.102,0.000
1477.000,-103.027,-40.527,-19.043,-97.168,0.000
1481.000,-85.938,-41.504,-24.414,-88.379,0.000
1485.000,-67.871,-48.340,-22.949,-74.707,0.000
1489.000,-57.129,-49.805,-20.996,-62.012,0.000
1492.000,-57.129,-53.223,-24.414,-69.824,0.000
1496.000,-58.105,-44.922,-29.785,-74.707,0.000
1500.000,-48.828,-38.086,-27.832,-49.316,0.000
1504.000,-46.387,-40.039,-33.691,-46.875,0.000
1508.000,-43.457,-43.945,-38.574,-59.570,0.000
1512.000,-41.992,-59.570,-36.133,-58.105,0.000
1516.000,-36.621,-54.199,-33.203,-41.016,0.000
1520.000,-36.621,-42.969,-35.156,-36.621,0.000
1524.000,-47.852,-42.969,-35.156,-47.852,0.000
1528.000,-36.133,-40.527,-33.691,-50.781,0.000
1531.000,-26.367,-46.875,-34.668,-41.992,0.000
1535.000,-31.250,-46.875,-38.086,-30.273,0.000
1539.000,-25.391,-43.945,-38.574,-33.203,0.000
1543.000,-22.461,-43.457,-38.574,-40.527,0.000
1547.000,-15.625,-45.410,-46.387,-37.109,0.000
1551.000,8.789,-38.086,-45.898,-17.090,0.000
1555.000,25.391,-35.645,-39.551,-7.324,0.000
1559.000,16.602,-42.480,-39.551,-16.602,0.000
1563.000,2.930,-39.551,-36.133,-25.391,0.000
1567.000,0.000,-33.691,-33.203,-20.508,0.000
1571.000,-7.812,-33.203,-34.180,-6.348,0.000
1574.000,-22.949,-34.668,-36.133,-10.742,0.000
1578.000,-17.090,-28.809,-39.551,-20.508,0.000
1582.000,8.789,-27.832,-41.992,-20.508,0.000
1586.000,-1.953,-29.785,-37.598,-6.348,0.000
1590.000,-41.992,-29.297,-37.109,-5.371,0.000
1594.000,-36.621,-32.227,-39.062,-19.043,0.000
1598.000,-6.348,-23.926,-34.180,-4.395,0.000
1602.000,4.395,-23.438,-26.855,11.719,0.000
1606.000,-10.742,-37.109,-27.344,5.371,0.000
1610.000,-15.137,-28.809,-26.367,-5.371,0.000
1614.000,0.488,-32.715,-25.879,-5.371,0.000
1617.000,7.324,-41.504,-27.832,-0.488,0.000
1621.000,-9.277,-26.855,-27.344,2.441,0.000
1625.000,-13.672,-22.949,-23.926,7.324,0.000
1629.000,-1.953,-21.973,-23.926,9.766,0.000
1633.000,-6.348,-28.320,-22.461,8.789,0.000
1637.000,6.836,-33.203,-23.926,-1.953,0.000
1641.000,21.484,-17.578,-29.297,-12.695,0.000
1645.000,20.996,-10.742,-23.926,-14.648,0.000
1649.000,11.719,-20.996,-23.926,-13.184,0.000
1653.000,5.371,-22.949,-25.879,-13.184,0.000
1657.000,6.836,-16.602,-21.484,-6.836,0.000
1660.000,1.465,-21.484,-13.672,2.930,0.000
1664.000,-2.930,-23.926,-14.160,3.418,0.000
1668.000,-5.859,-22.949,-18.066,-3.906,0.000
1672.000,-13.672,-28.320,-16.113,-6.348,0.000
1676.000,-15.137,-26.367,-19.043,-10.254,0.000
1680.000,-16.602,-22.461,-19.531,-17.090,0.000
1684.000,-13.672,-15.137,-12.207,-13.184,0.000
1688.000,-9.766,-13.672,-8.301,-2.930,0.000
1692.000,-16.113,-17.090,-10.254,-7.812,0.000
1696.000,-24.902,-24.414,-12.695,-18.555,0.000
1699.000,-32.715,-26.855,-15.137,-19.531,0.000
1703.000,-13.184,-12.207,-23.438,-14.160,0.000
1707.000,-16.113,-22.949,-20.996,-22.949,0.000
1711.000,-30.762,-22.949,-18.555,-28.320,0.000
1715.000,-21.973,-9.277,-20.020,-13.672,0.000
1719.000,-17.578,-12.695,-23.438,-4.883,0.000
1723.000,-10.254,-13.184,-21.973,-5.371,0.000
1727.000,-6.836,-8.301,-16.113,-4.883,0.000
1731.000,-14.648,-3.418,-20.020,-4.883,0.000
1735.000,-7.324,-12.695,-24.414,-0.488,0.000
1739.000,15.137,-20.020,-24.902,-3.906,0.000
1742.000,23.926,-18.555,-25.391,-12.207,0.000
1746.000,36.133,-13.672,-21.973,-4.883,0.000
1750.000,6.348,-18.555,-22.949,-15.625,0.000
1754.000,-38.574,-24.902,-21.484,-21.973,0.000
1758.000,-24.414,-19.043,-18.555,-22.949,0.000
1762.000,-5.859,-19.043,-19.531,-27.832,0.000
1766.000,-16.602,-16.113,-16.113,-11.719,0.000
1770.000,-13.184,-19.531,-19.531,-4.883,0.000
1774.000,-5.859,-20.996,-22.949,-15.625,0.000
1778.000,-7.812,-23.438,-19.043,-22.461,0.000
1782.000,2.930,-21.484,-20.996,-18.066,0.000
1785.000,1.465,-19.043,-19.043,-6.836,0.000
1789.000,0.488,-22.461,-17.090,-1.953,0.000
1793.000,0.977,-24.902,-19.531,-10.254,0.000
1797.000,-10.254,-24.414,-18.555,-10.254,0.000
1801.000,-8.789,-26.367,-19.043,-2.441,0.000
1805.000,9.766,-30.273,-18.555,-6.836,0.000
1809.000,4.395,-26.367,-14.648,-13.184,0.000
1813.000,-1.465,-25.391,-10.742,-0.977,0.000
1817.000,-12.207,-27.344,-8.301,0.488,0.000
1821.000,-37.598,-28.320,-8.301,-4.395,0.000
1825.000,-36.621,-23.438,-8.789,-4.883,0.000
1828.000,-16.602,-16.602,-10.254,-8.301,0.000
1832.000,-2.930,-24.902,-15.625,-6.348,0.000
1836.000,4.883,-24.414,-18.066,-11.230,0.000
1840.000,9.766,-18.555,-19.531,-25.391,0.000
1844.000,13.184,-26.367,-20.020,-33.691,0.000
1848.000,7.324,-25.879,-15.137,-34.668,0.000
1852.000,-15.625,-22.949,-15.137,-33.691,0.000
1856.000,-41.016,-23.438,-14.160,-24.902,0.000
1860.000,-33.691,-21.973,-14.648,-15.625,0.000
1864.000,-23.438,-20.996,-16.602,-16.602,0.000
1867.000,-23.926,-16.602,-14.160,-13.184,0.000
1871.000,-16.113,-14.160,-12.695,-8.301,0.000
1875.000,-25.879,-12.207,-15.625,-11.230,0.000
1879.000,-35.645,-10.742,-12.695,-13.184,0.000
1883.000,-32.227,-11.719,-14.648,-13.184,0.000
1887.000,-27.832,-20.996,-20.508,-20.996,0.000
1891.000,-27.832,-17.090,-16.602,-31.250,0.000
1895.000,-30.762,-15.625,-10.254,-35.156,0.000
1899.000,-37.598,-24.414,-15.137,-31.738,0.000
1903.000,-29.785,-21.973,-19.043,-19.043,0.000
1907.000,-16.113,-19.531,-20.996,-14.648,0.000
1910.000,1.953,-18.555,-18.066,-11.719,0.000
1914.000,1.953,-11.719,-14.648,-12.695,0.000
1918.000,-25.879,-12.207,-14.160,-32.715,0.000
1922.000,-42.480,-17.578,-15.137,-48.828,0.000
1926.000,-30.762,-20.508,-18.066,-53.711,0.000
1930.000,-22.949,-22.949,-15.625,-36.133,0.000
1934.000,-23.438,-25.391,-16.113,-30.762,0.000
1938.000,-14.160,-18.555,-16.113,-41.016,0.000
1942.000,-20.996,-17.578,-18.555,-54.199,0.000
1946.000,-23.438,-22.949,-16.602,-60.059,0.000
1950.000,-3.418,-19.043,-10.742,-36.133,0.000
1953.000,-17.090,-19.531,-10.254,-27.832,0.000
1957.000,-36.621,-22.461,-7.812,-40.527,0.000
1961.000,-25.879,-20.508,-8.789,-47.852,0.000
1965.000,-40.039,-21.973,-10.254,-41.016,0.000
1969.000,-75.195,-24.414,-10.254,-28.320,0.000
1973.000,-77.148,-22.461,-8.301,-37.598,0.000
1977.000,-78.125,-22.949,-13.184,-53.711,0.000
1981.000,-78.613,-26.855,-17.578,-54.688,0.000
1985.000,-77.148,-27.832,-13.672,-48.340,0.000
1989.000,-79.590,-26.855,-13.184,-46.875,0.000
1993.000,-63.965,-29.785,-14.160,-46.387,0.000
1996.000,-66.406,-31.250,-15.137,-56.641,0.000
2000.000,-68.848,-28.809,-15.625,-59.570,0.000
2004.000,-59.570,-22.949,-14.648,-49.316,0.000
2008.000,-60.059,-23.926,-18.555,-56.152,0.000
2012.000,-59.570,-26.855,-26.855,-74.219,0.000
2016.000,-57.129,-30.273,-32.715,-69.336,0.000
2020.000,-54.199,-32.715,-33.203,-50.293,0.000
2024.000,-32.715,-22.461,-29.785,-50.293,0.000
2028.000,-26.367,-17.578,-27.832,-56.641,0.000
2032.000,-21.973,-17.578,-29.297,-47.852,0.000
2035.000,-4.883,-10.742,-28.809,-31.250,0.000
2039.000,-12.695,-14.648,-26.855,-32.227,0.000
2043.000,-34.668,-20.020,-31.250,-48.340,0.000
2047.000,-30.762,-15.625,-33.691,-48.340,0.000
2051.000,-12.207,-19.531,-27.344,-36.133,0.000
2055.000,-20.508,-26.855,-22.461,-23.926,0.000
2059.000,-24.902,-25.391,-26.367,-33.691,0.000
2063.000,-36.621,-25.391,-24.902,-43.945,0.000
2067.000,-50.781,-29.785,-25.879,-43.457,0.000
2071.000,-42.480,-27.344,-29.785,-47.363,0.000
2075.000,-48.340,-30.762,-28.809,-44.922,0.000
2078.000,-52.734,-29.297,-27.832,-40.527,0.000
2082.000,-43.457,-25.879,-22.949,-28.809,0.000
2086.000,-46.875,-25.391,-19.531,-16.113,0.000
2090.000,-45.410,-22.949,-24.414,-23.926,0.000
2094.000,-39.062,-26.367,-29.785,-32.227,0.000
2098.000,-34.668,-28.809,-25.879,-28.809,0.000
2102.000,-30.273,-31.250,-28.320,-20.020,0.000
2106.000,-30.762,-27.832,-33.203,-18.066,0.000
2110.000,-34.180,-25.879,-32.227,-31.738,0.000
2114.000,-32.715,-23.926,-32.227,-26.367,0.000
2118.000,-21.973,-24.902,-28.809,-24.414,0.000
2121.000,-2.930,-26.855,-27.832,-26.367,0.000
2125.000,1.465,-28.320,-31.250,-21.484,0.000
2129.000,-6.348,-28.809,-29.785,-33.691,0.000
2133.000,-14.160,-28.809,-27.832,-33.691,0.000
2137.000,-36.133,-34.668,-28.320,-28.320,0.000
2141.000,-19.531,-30.762,-23.926,-17.090,0.000
2145.000,-13.672,-26.367,-23.438,-11.230,0.000
2149.000,-20.996,-25.391,-25.391,-10.254,0.000
2153.000,-17.578,-26.367,-24.414,-8.301,0.000
2157.000,-14.648,-33.203,-23.438,-24.414,0.000
2161.000,-8.789,-36.133,-26.367,-35.156,0.000
2164.000,-30.273,-29.785,-21.973,-36.133,0.000
2168.000,-43.945,-23.926,-20.996,-25.391,0.000
2172.000,-46.387,-21.973,-26.367,-19.531,0.000
2176.000,-45.898,-25.391,-27.832,-26.855,0.000
2180.000,-38.574,-28.320,-26.855,-31.738,0.000
2184.000,-28.320,-28.320,-26.367,-26.367,0.000
2188.000,-16.113,-22.461,-23.926,-13.672,0.000
2192.000,-17.578,-18.066,-26.855,-19.043,0.000
2196.000,-12.695,-14.160,-27.344,-32.227,0.000
2200.000,-0.977,-9.766,-21.973,-33.691,0.000
2204.000,0.977,-17.090,-21.973,-19.043,0.000
2207.000,0.488,-18.066,-20.020,-13.184,0.000
2211.000,-3.906,-14.160,-15.137,-27.344,0.000
2215.000,-1.953,-11.230,-17.090,-23.438,0.000
2219.000,-5.859,-12.695,-23.926,-20.020,0.000
2223.000,-17.090,-17.090,-27.344,-27.832,0.000
2227.000,-14.160,-19.043,-24.902,-35.645,0.000
2231.000,-10.254,-24.414,-24.902,-28.809,0.000
2235.000,-27.344,-33.691,-27.832,-15.625,0.000
2239.000,-31.738,-41.016,-27.832,-15.625,0.000
2243.000,-13.184,-33.691,-27.344,-17.578,0.000
2246.000,-6.348,-28.320,-27.344,-15.137,0.000
2250.000,-21.973,-31.738,-25.879,-10.254,0.000
2254.000,-28.320,-27.344,-24.902,-16.113,0.000
2258.000,-23.926,-24.902,-30.762,-24.414,0.000
2262.000,-21.484,-31.250,-34.180,-28.809,0.000
2266.000,-25.391,-35.645,-32.715,-18.066,0.000
2270.000,-28.809,-40.039,-29.297,-12.695,0.000
2274.000,-22.461,-42.480,-29.297,-21.484,0.000
2278.000,-17.578,-36.133,-30.273,-19.531,0.000
2282.000,-16.602,-33.691,-26.367,-7.812,0.000
2286.000,-6.348,-35.645,-23.438,9.766,0.000
2289.000,2.441,-32.715,-15.625,5.859,0.000
2293.000,-0.488,-25.391,-12.695,-16.602,0.000
2297.000,6.836,-26.367,-15.625,-18.066,0.000
2301.000,10.254,-35.645,-21.973,-9.277,0.000
2305.000,-15.625,-36.133,-20.020,-20.020,0.000
2309.000,-35.645,-32.715,-15.625,-39.062,0.000
2313.000,-32.715,-31.250,-16.602,-42.480,0.000
2317.000,-38.574,-30.762,-11.719,-25.879,0.000
2321.000,-37.598,-36.133,-10.254,-19.531,0.000
2325.000,-25.879,-39.062,-15.625,-29.785,0.000
2329.000,-24.902,-28.809,-19.043,-43.457,0.000
2332.000,-21.484,-29.297,-21.973,-37.109,0.000
2336.000,-36.621,-35.645,-25.879,-33.691,0.000
2340.000,-45.410,-36.621,-25.391,-34.180,0.000
2344.000,-39.062,-33.203,-24.414,-35.156,0.000
2348.000,-39.551,-35.645,-20.996,-39.062,0.000
2352.000,-38.574,-43.945,-20.508,-34.180,0.000
2356.000,-47.363,-39.551,-25.391,-30.762,0.000
2360.000,-58.105,-42.969,-24.414,-43.457,0.000
2364.000,-51.270,-47.363,-17.090,-43.945,0.000
2368.000,-36.133,-32.715,-16.113,-28.809,0.000
2371.000,-37.109,-36.621,-21.973,-39.062,0.000
2375.000,-28.809,-46.875,-18.555,-53.223,0.000
2379.000,-21.973,-45.410,-8.789,-43.457,0.000
2383.000,-26.367,-41.504,-9.766,-32.715,0.000
2387.000,-43.945,-41.016,-26.855,-35.156,0.000
2391.000,-75.195,-43.945,-28.320,-51.270,0.000
2395.000,-60.059,-41.016,-21.484,-57.617,0.000
2399.000,-34.180,-42.969,-28.320,-38.086,0.000
2403.000,-33.203,-49.316,-32.227,-23.438,0.000
2407.000,-36.621,-48.828,-24.414,-35.645,0.000
2411.000,-41.504,-46.387,-20.996,-38.574,0.000
2414.000,-49.316,-36.621,-23.926,-27.344,0.000
2418.000,-59.082,-33.203,-26.367,-25.879,0.000
2422.000,-50.781,-34.668,-28.320,-27.832,0.000
2426.000,-32.227,-24.902,-24.902,-34.668,0.000
2430.000,-31.738,-20.996,-16.113,-38.086,0.000
2434.000,-28.320,-30.762,-19.531,-27.832,0.000
2438.000,-22.461,-22.461,-16.113,-20.996,0.000
2442.000,-32.715,-16.602,-14.160,-34.668,0.000
2446.000,-40.527,-36.621,-28.320,-43.457,0.000
2450.000,-37.598,-47.852,-32.227,-37.109,0.000
2454.000,-38.574,-41.016,-27.832,-33.691,0.000
2457.000,-37.109,-31.250,-23.926,-31.250,0.000
2461.000,-25.391,-33.203,-23.926,-37.109,0.000
2465.000,-23.438,-36.133,-30.273,-41.016,0.000
2469.000,-20.020,-31.738,-32.715,-27.832,0.000
2473.000,-5.371,-27.344,-31.738,-34.668,0.000
2477.000,-7.812,-30.273,-36.133,-49.805,0.000
2481.000,-7.812,-30.273,-37.598,-41.992,0.000
2485.000,-5.859,-23.926,-35.156,-36.621,0.000
2489.000,-8.789,-18.066,-31.250,-34.668,0.000
2493.000,-6.348,-15.137,-32.227,-43.457,0.000
2497.000,-13.184,-20.020,-32.715,-45.898,0.000
2500.000,-22.949,-22.949,-36.133,-34.668,0.000
2504.000,-15.625,-21.973,-32.715,-29.297,0.000
2508.000,-46.875,-25.879,-30.762,-36.621,0.000
2512.000,-76.172,-27.832,-29.297,-32.227,0.000
2516.000,-72.266,-28.809,-20.508,-18.066,0.000
2520.000,-73.242,-31.738,-24.902,-23.926,0.000
2524.000,-63.965,-26.855,-25.391,-17.578,0.000
2528.000,-40.527,-19.043,-20.020,-7.812,0.000
2532.000,-23.926,-14.648,-17.090,-7.324,0.000
2536.000,-25.391,-20.996,-20.508,-3.906,0.000
2539.000,-29.785,-24.902,-25.391,-8.789,0.000
2543.000,-22.461,-25.879,-24.414,-18.555,0.000
2547.000,-17.090,-23.926,-21.973,-15.137,0.000
2551.000,-25.391,-24.902,-23.926,-9.766,0.000
2555.000,-24.902,-27.832,-26.855,-21.973,0.000
2559.000,-7.812,-20.508,-23.926,-32.715,0.000
2563.000,2.441,-21.484,-22.461,-29.785,0.000
2567.000,-3.906,-30.273,-26.367,-29.785,0.000
2571.000,-9.766,-32.227,-29.297,-28.809,0.000
2575.000,0.000,-29.785,-28.320,-24.902,0.000
2579.000,19.531,-23.438,-20.020,-9.277,0.000
2582.000,18.066,-28.809,-17.578,3.906,0.000
2586.000,15.137,-29.785,-20.508,1.465,0.000
2590.000,-4.883,-20.020,-18.066,-5.371,0.000
2594.000,-33.203,-19.531,-15.137,-10.254,0.000
2598.000,-20.996,-23.438,-15.625,-7.324,0.000
2602.000,-5.371,-20.508,-13.672,4.883,0.000
2606.000,-10.742,-21.973,-12.207,14.160,0.000
2610.000,-12.695,-30.762,-16.602,1.465,0.000
2614.000,-26.855,-25.879,-24.902,-9.277,0.000
2618.000,-39.062,-21.973,-22.461,-11.230,0.000
2622.000,-30.762,-24.414,-16.602,-8.789,0.000
2625.000,-18.555,-19.043,-22.949,-11.719,0.000
2629.000,-13.672,-13.672,-27.832,-20.020,0.000
2633.000,-23.438,-9.766,-27.344,-13.184,0.000
2637.000,-29.297,-12.207,-28.320,-6.348,0.000
2641.000,-20.020,-21.484,-28.809,-20.996,0.000
2645.000,-20.508,-26.367,-28.320,-40.527,0.000
2649.000,-31.250,-25.391,-28.809,-41.504,0.000
2653.000,-28.809,-24.902,-27.832,-30.273,0.000
2657.000,-27.832,-27.344,-29.297,-32.227,0.000
2661.000,-29.297,-25.879,-29.785,-39.551,0.000
2665.000,-18.555,-24.902,-27.832,-35.156,0.000
2668.000,-13.672,-29.297,-27.832,-25.879,0.000
2672.000,-17.090,-33.691,-33.203,-38.574,0.000
2676.000,-31.250,-34.180,-37.598,-56.152,0.000
2680.000,-46.387,-31.738,-36.621,-47.852,0.000
2684.000,-33.691,-29.785,-36.621,-33.203,0.000
2688.000,-36.621,-30.273,-33.203,-23.438,0.000
2692.000,-42.480,-36.133,-30.273,-25.879,0.000
2696.000,-29.297,-33.691,-31.250,-22.461,0.000
2700.000,-23.926,-31.738,-31.738,-18.555,0.000
2704.000,-34.180,-33.203,-29.297,-19.043,0.000
2707.000,-41.992,-29.785,-25.391,-26.367,0.000
2711.000,-41.992,-28.809,-26.855,-20.996,0.000
2715.000,-41.504,-30.273,-29.297,-2.930,0.000
2719.000,-44.922,-41.504,-30.762,0.000,0.000
2723.000,-53.223,-51.270,-25.879,-4.883,0.000
2727.000,-41.992,-38.086,-17.578,-12.695,0.000
2731.000,-21.973,-31.738,-16.113,-21.484,0.000
2735.000,-22.461,-30.762,-22.949,-21.484,0.000
2739.000,-36.133,-27.832,-27.832,-20.020,0.000
2743.000,-39.551,-25.879,-25.391,-25.879,0.000
2747.000,-32.715,-25.879,-24.414,-24.902,0.000
2750.000,-24.902,-28.809,-20.020,-11.719,0.000
2754.000,-20.508,-31.250,-14.160,-12.207,0.000
2758.000,-18.066,-25.391,-17.578,-21.973,0.000
2762.000,-5.371,-22.461,-24.414,-29.297,0.000
2766.000,17.578,-23.926,-23.926,-16.113,0.000
2770.000,19.043,-12.695,-17.578,5.371,0.000
2774.000,8.301,-9.277,-14.648,-17.090,0.000
2778.000,-28.809,-23.926,-21.973,-43.457,0.000
2782.000,-45.410,-29.297,-25.391,-34.180,0.000
2786.000,-23.438,-27.832,-21.973,-18.066,0.000
2790.000,-21.973,-27.832,-22.461,-24.414,0.000
2793.000,-27.832,-23.438,-21.973,-37.109,0.000
2797.000,-16.113,-21.973,-22.461,-28.809,0.000
2801.000,3.906,-19.043,-22.949,-12.207,0.000
2805.000,10.742,-15.625,-20.996,-6.348,0.000
2809.000,-10.254,-18.066,-22.949,-11.719,0.000
2813.000,-18.066,-17.090,-24.414,-9.766,0.000
2817.000,-12.695,-17.090,-22.949,-0.488,0.000
2821.000,-19.531,-21.484,-20.020,-7.324,0.000
2825.000,-6.836,-23.438,-16.602,-15.625,0.000
2829.000,1.465,-20.508,-16.113,-15.137,0.000
2833.000,-6.836,-19.531,-17.578,-2.930,0.000
2836.000,-3.906,-21.484,-15.137,7.812,0.000
2840.000,-3.418,-21.973,-13.672,2.930,0.000
2844.000,-13.672,-27.344,-15.625,-3.418,0.000
2848.000,-20.020,-26.367,-19.531,-0.977,0.000
2852.000,-16.602,-20.508,-18.555,1.465,0.000
2856.000,-19.043,-26.855,-20.996,-3.906,0.000
2860.000,-20.508,-28.320,-22.461,-11.719,0.000
2864.000,-16.113,-29.785,-23.926,-8.789,0.000
2868.000,-0.488,-27.344,-24.414,0.000,0.000
2872.000,-10.254,-27.344,-21.484,0.977,0.000
2875.000,-23.926,-28.809,-19.043,-7.324,0.000
2879.000,-25.879,-32.227,-15.625,-12.207,0.000
2883.000,-34.180,-32.715,-19.043,-8.301,0.000
2887.000,-35.156,-32.227,-23.438,-7.324,0.000
2891.000,-24.902,-34.180,-17.090,-2.441,0.000
2895.000,-21.973,-34.180,-14.648,-4.883,0.000
2899.000,-25.391,-33.203,-20.020,-14.160,0.000
2903.000,-31.250,-29.785,-17.578,-4.883,0.000
2907.000,-40.527,-26.367,-19.043,-3.418,0.000
2911.000,-36.621,-28.320,-24.902,-15.137,0.000
2915.000,-28.320,-28.320,-24.902,-21.484,0.000
2918.000,-30.273,-22.461,-20.508,-17.090,0.000
2922.000,-45.410,-21.973,-17.578,-16.113,0.000
2926.000,-46.875,-21.973,-16.602,-27.832,0.000
2930.000,-43.457,-23.438,-21.973,-33.203,0.000
2934.000,-27.832,-20.508,-24.414,-28.809,0.000
2938.000,-9.277,-19.043,-26.855,-14.160,0.000
2942.000,0.000,-21.484,-23.438,-20.020,0.000
2946.000,-13.184,-21.973,-17.578,-45.410,0.000
2950.000,-42.969,-25.879,-20.996,-41.016,0.000
2954.000,-50.293,-26.367,-25.391,-30.273,0.000
2958.000,-37.109,-22.461,-22.949,-30.273,0.000
2961.000,-38.086,-26.367,-22.949,-43.457,0.000
2965.000,-48.340,-31.738,-27.344,-48.340,0.000
2969.000,-36.621,-31.250,-27.832,-44.922,0.000
2973.000,-19.531,-28.809,-23.926,-48.340,0.000
2977.000,-21.973,-23.926,-21.484,-51.758,0.000
2981.000,-38.574,-24.902,-22.949,-47.363,0.000
2985.000,-56.152,-30.273,-22.461,-31.738,0.000
2989.000,-55.176,-25.879,-22.949,-34.668,0.000
2993.000,-40.039,-24.414,-22.461,-47.852,0.000
2997.000,-41.016,-26.367,-21.973,-48.828,0.000
3001.000,-62.500,-21.973,-23.926,-30.762,0.000
3004.000,-69.336,-20.996,-22.949,-19.043,0.000
3008.000,-68.848,-28.809,-20.508,-24.902,0.000
3012.000,-74.707,-38.574,-23.438,-35.645,0.000
3016.000,-59.082,-37.598,-21.484,-23.438,0.000
3020.000,-46.387,-25.391,-13.184,-8.301,0.000
3024.000,-48.340,-27.344,-12.207,-16.113,0.000
3028.000,-37.109,-28.320,-11.230,-20.508,0.000
3032.000,-28.809,-20.020,-11.230,-18.555,0.000
3036.000,-32.715,-20.020,-12.207,-19.531,0.000
3040.000,-33.691,-20.508,-12.207,-21.973,0.000
3043.000,-34.180,-21.484,-14.160,-28.320,0.000
3047.000,-28.320,-20.996,-14.648,-22.949,0.000
3051.000,-29.785,-20.996,-14.160,-17.578,0.000
3055.000,-31.250,-20.508,-12.695,-18.555,0.000
3059.000,-29.297,-21.484,-18.066,-20.020,0.000
3063.000,-33.203,-16.602,-20.020,-30.762,0.000
3067.000,-40.527,-18.066,-17.578,-33.203,0.000
3071.000,-28.809,-32.227,-20.996,-26.367,0.000
3075.000,-22.949,-32.715,-24.414,-45.410,0.000
3079.000,-42.969,-30.273,-27.344,-69.336,0.000
3083.000,-48.828,-27.344,-23.438,-52.734,0.000
3086.000,-43.945,-25.879,-20.996,-34.180,0.000
3090.000,-46.875,-28.320,-24.902,-45.410,0.000
3094.000,-46.875,-24.414,-26.855,-54.688,0.000
3098.000,-46.875,-25.391,-25.879,-60.547,0.000
3102.000,-62.500,-35.645,-22.461,-54.688,0.000
3106.000,-59.570,-35.645,-20.020,-49.316,0.000
3110.000,-49.316,-25.879,-26.367,-67.383,0.000
3114.000,-35.645,-29.297,-28.320,-69.336,0.000
3118.000,-37.598,-39.062,-21.973,-42.969,0.000
3122.000,-60.547,-34.668,-24.902,-40.527,0.000
3126.000,-54.199,-23.438,-28.320,-50.781,0.000
3129.000,-45.898,-26.855,-23.926,-52.734,0.000
3133.000,-49.316,-38.086,-26.367,-57.129,0.000
3137.000,-57.129,-37.598,-27.344,-53.711,0.000
3141.000,-59.570,-30.273,-25.879,-56.152,0.000
3145.000,-48.340,-29.297,-25.391,-54.688,0.000
3149.000,-50.781,-28.809,-19.043,-41.992,0.000
3153.000,-58.105,-33.691,-25.879,-29.297,0.000
3157.000,-56.641,-37.598,-30.762,-35.645,0.000
3161.000,-43.457,-28.320,-20.996,-43.457,0.000
3165.000,-33.691,-26.855,-16.113,-40.039,0.000
3168.000,-42.969,-27.832,-22.461,-41.504,0.000
3172.000,-38.086,-22.461,-23.438,-52.734,0.000
3176.000,-25.391,-27.344,-22.461,-65.918,0.000
3180.000,-24.902,-32.227,-26.855,-61.523,0.000
3184.000,-30.273,-32.227,-26.367,-49.316,0.000
3188.000,-37.598,-29.297,-21.973,-48.828,0.000
3192.000,-27.344,-23.438,-21.484,-58.105,0.000
3196.000,-17.090,-32.227,-23.438,-62.988,0.000
3200.000,-29.785,-27.832,-20.020,-39.062,0.000
3204.000,-24.902,-21.484,-17.578,-20.020,0.000
3208.000,-19.043,-33.203,-22.949,-33.691,0.000
3211.000,-36.621,-32.715,-28.809,-41.016,0.000
3215.000,-47.852,-28.320,-26.855,-35.645,0.000
3219.000,-49.805,-33.203,-25.879,-31.738,0.000
3223.000,-42.969,-33.691,-29.297,-33.691,0.000
3227.000,-34.180,-31.738,-27.344,-38.086,0.000
3231.000,-29.785,-29.297,-27.344,-41.504,0.000
3235.000,-44.922,-27.344,-25.391,-32.715,0.000
3239.000,-48.828,-30.762,-23.438,-27.832,0.000
3243.000,-38.086,-30.762,-23.438,-36.621,0.000
3247.000,-42.480,-29.297,-22.949,-36.133,0.000
3251.000,-34.180,-30.273,-22.949,-34.180,0.000
3254.000,-22.949,-31.738,-21.973,-30.273,0.000
3258.000,-29.785,-35.156,-18.555,-41.504,0.000
3262.000,-16.113,-33.203,-17.090,-43.457,0.000
3266.000,-2.930,-22.949,-20.020,-14.160,0.000
3270.000,-9.766,-21.484,-20.020,-3.906,0.000
3274.000,-7.324,-24.902,-21.973,-16.113,0.000
3278.000,-6.836,-23.438,-25.391,-18.066,0.000
3282.000,-9.766,-34.180,-21.973,-13.184,0.000
3286.000,-2.930,-46.875,-17.578,-7.812,0.000
3290.000,-7.812,-37.598,-17.578,-9.766,0.000
3294.000,-5.371,-35.645,-19.043,-13.672,0.000
3297.000,-4.395,-40.039,-17.090,-14.160,0.000
3301.000,-3.906,-38.086,-14.160,-4.395,0.000
3305.000,-2.930,-37.109,-13.184,-0.488,0.000
3309.000,-6.348,-27.832,-9.766,-7.812,0.000
3313.000,-4.883,-24.414,-6.836,0.000,0.000
3317.000,-8.789,-26.855,-13.184,7.324,0.000
3321.000,-12.695,-20.020,-14.160,16.113,0.000
3325.000,3.906,-23.438,-7.812,20.508,0.000
3329.000,7.812,-36.621,-10.742,8.301,0.000
3333.000,-15.625,-35.645,-19.531,-9.277,0.000
3337.000,-23.926,-29.785,-29.297,-10.254,0.000
3340.000,-24.414,-34.668,-27.344,3.418,0.000
3344.000,-30.762,-38.086,-23.438,-0.488,0.000
3348.000,-29.297,-33.691,-26.367,-11.719,0.000
3352.000,-28.320,-36.621,-24.902,-8.301,0.000
3356.000,-20.020,-36.621,-25.391,-1.465,0.000
3360.000,-14.648,-40.039,-31.738,-23.438,0.000
3364.000,-30.762,-45.898,-34.668,-55.664,0.000
3368.000,-24.902,-30.762,-27.344,-40.039,0.000
3372.000,0.977,-40.039,-15.137,-14.160,0.000
