timestamp,TP9,AF7,AF8,TP10,Right AUX
1673805533.788,-30.273,-21.484,-16.602,-9.277,0.000
1673805533.792,-53.711,-20.020,-20.508,-8.789,0.000
1673805533.796,-68.359,-20.508,-21.973,-6.348,0.000
1673805533.800,-60.547,-21.484,-22.461,-11.719,0.000
1673805533.804,-31.738,-24.414,-21.973,-31.738,0.000
1673805533.808,-26.367,-24.414,-20.020,-34.180,0.000
1673805533.812,-25.879,-28.320,-24.414,-28.320,0.000
1673805533.815,-20.020,-28.320,-28.320,-17.578,0.000
1673805533.819,-21.973,-19.531,-22.949,-11.719,0.000
1673805533.823,-28.320,-23.438,-20.508,-6.836,0.000
1673805533.827,-21.484,-22.949,-19.531,-4.395,0.000
1673805533.831,-15.137,-19.043,-18.555,-4.395,0.000
1673805533.835,-21.484,-18.066,-15.625,9.766,0.000
1673805533.839,-18.555,-15.625,-11.230,5.859,0.000
1673805533.843,-3.418,-18.066,-13.184,-11.230,0.000
1673805533.847,0.000,-19.531,-17.090,-6.836,0.000
1673805533.851,-11.719,-16.602,-16.602,-0.488,0.000
1673805533.854,-20.020,-19.531,-13.184,0.488,0.000
1673805533.858,-24.902,-21.973,-13.184,10.254,0.000
1673805533.862,-20.996,-26.855,-17.578,4.395,0.000
1673805533.866,-19.531,-28.809,-20.996,-5.371,0.000
1673805533.870,-19.043,-24.902,-18.066,-10.742,0.000
1673805533.874,-5.371,-25.879,-19.531,-25.391,0.000
1673805533.878,-16.602,-23.926,-27.344,-25.391,0.000
1673805533.882,-30.762,-21.973,-30.273,-18.066,0.000
1673805533.886,-12.695,-17.090,-24.902,-8.301,0.000
1673805533.890,-5.859,-18.555,-25.879,-11.719,0.000
1673805533.894,-39.062,-29.785,-29.785,-25.391,0.000
1673805533.897,-54.199,-25.879,-29.785,-14.160,0.000
1673805533.901,-36.133,-16.113,-24.902,-4.395,0.000
1673805533.905,-21.973,-20.020,-22.461,-21.973,0.000
1673805533.909,-7.812,-21.973,-27.344,-27.832,0.000
1673805533.913,7.324,-18.555,-27.832,-18.555,0.000
1673805533.917,-0.977,-22.949,-25.879,-10.742,0.000
1673805533.921,-23.438,-27.344,-30.273,-23.926,0.000
1673805533.925,-14.160,-26.855,-30.762,-34.180,0.000
1673805533.929,-15.625,-29.297,-24.414,-24.414,0.000
1673805533.933,-26.367,-25.391,-22.461,-12.207,0.000
1673805533.937,-42.480,-28.320,-27.832,-2.441,0.000
1673805533.940,-43.945,-32.227,-29.297,-8.789,0.000
1673805533.944,-23.438,-24.902,-25.879,-6.836,0.000
1673805533.948,-15.625,-22.949,-27.832,-11.230,0.000
1673805533.952,-11.719,-23.438,-31.250,-17.578,0.000
1673805533.956,-6.348,-21.973,-29.297,-22.949,0.000
1673805533.960,-19.043,-23.926,-26.855,-21.973,0.000
1673805533.964,-27.344,-32.715,-27.344,-12.695,0.000
1673805533.968,-20.020,-31.250,-25.879,-13.672,0.000
1673805533.972,-9.766,-27.832,-25.391,-10.254,0.000
1673805533.976,-1.465,-28.809,-25.879,-15.625,0.000
1673805533.979,4.883,-26.367,-26.367,-18.555,0.000
1673805533.983,-9.277,-29.297,-28.809,-19.043,0.000
1673805533.987,-23.926,-32.227,-28.320,-20.508,0.000
1673805533.991,-20.020,-27.832,-28.320,-19.043,0.000
1673805533.995,-22.949,-26.367,-27.832,-21.484,0.000
1673805533.999,-52.246,-30.273,-28.320,-23.926,0.000
1673805534.003,-68.848,-31.250,-29.785,-14.648,0.000
1673805534.007,-47.363,-22.949,-30.762,-7.324,0.000
1673805534.011,-37.598,-16.602,-24.414,-7.812,0.000
1673805534.015,-39.551,-18.066,-23.438,-15.625,0.000
1673805534.019,-34.180,-22.461,-25.391,-31.738,0.000
1673805534.022,-33.203,-24.902,-20.020,-31.250,0.000
1673805534.026,-33.691,-24.414,-22.949,-22.949,0.000
1673805534.030,-27.344,-25.391,-29.785,-20.996,0.000
1673805534.034,-19.531,-28.320,-27.832,-23.926,0.000
1673805534.038,-16.602,-24.414,-25.879,-14.648,0.000
1673805534.042,-17.090,-25.879,-27.832,-9.766,0.000
1673805534.046,-10.742,-25.879,-23.438,-11.719,0.000
1673805534.050,-26.855,-22.949,-18.555,-8.301,0.000
1673805534.054,-36.133,-25.879,-21.484,-5.859,0.000
1673805534.058,-18.555,-24.902,-25.391,-3.418,0.000
1673805534.062,-9.766,-28.809,-28.320,-15.625,0.000
1673805534.065,-8.301,-28.320,-24.414,-23.438,0.000
1673805534.069,-32.227,-25.879,-19.043,-18.066,0.000
1673805534.073,-44.434,-22.949,-19.043,-4.395,0.000
1673805534.077,-19.531,-25.391,-18.555,3.906,0.000
1673805534.081,-10.254,-34.180,-21.484,-5.371,0.000
1673805534.085,-3.906,-23.926,-24.414,-13.184,0.000
1673805534.089,8.789,-9.766,-20.996,0.000,0.000
1673805534.093,10.254,-14.160,-20.996,5.859,0.000
1673805534.097,1.953,-16.602,-20.020,-2.441,0.000
1673805534.101,-4.395,-16.602,-21.973,-10.742,0.000
1673805534.104,-15.625,-22.461,-32.227,-29.297,0.000
1673805534.108,-29.785,-25.879,-29.785,-36.621,0.000
1673805534.112,-45.898,-26.367,-25.391,-22.949,0.000
1673805534.116,-37.598,-22.461,-29.785,-20.996,0.000
1673805534.120,-18.066,-15.137,-28.320,-29.297,0.000
1673805534.124,-22.949,-18.555,-30.762,-30.273,0.000
1673805534.128,-23.438,-29.785,-35.645,-30.762,0.000
1673805534.132,-23.438,-26.855,-30.762,-30.273,0.000
1673805534.136,-51.758,-28.320,-32.715,-29.297,0.000
1673805534.140,-48.340,-29.785,-36.621,-36.621,0.000
1673805534.144,-25.391,-26.855,-31.250,-31.250,0.000
1673805534.147,-22.949,-26.367,-26.367,-20.996,0.000
1673805534.151,-31.250,-25.391,-28.320,-28.320,0.000
1673805534.155,-40.039,-28.809,-33.691,-27.832,0.000
1673805534.159,-41.504,-34.180,-29.297,-18.555,0.000
1673805534.163,-41.504,-35.645,-26.367,-10.742,0.000
1673805534.167,-38.574,-32.715,-32.227,-4.395,0.000
1673805534.171,-26.855,-29.297,-29.785,-1.953,0.000
1673805534.175,-21.484,-36.133,-30.762,-17.578,0.000
1673805534.179,-23.438,-43.457,-31.738,-30.273,0.000
1673805534.183,-20.996,-33.691,-28.320,-22.461,0.000
1673805534.187,-31.738,-27.832,-27.344,-28.320,0.000
1673805534.190,-35.645,-29.785,-29.785,-29.297,0.000
1673805534.194,-19.531,-30.273,-35.156,-24.902,0.000
1673805534.198,-16.113,-31.250,-29.785,-17.090,0.000
1673805534.202,-27.832,-31.250,-22.949,-29.785,0.000
1673805534.206,-38.574,-33.203,-27.344,-49.805,0.000
1673805534.210,-42.480,-33.691,-23.926,-34.180,0.000
1673805534.214,-47.363,-33.691,-20.508,-24.902,0.000
1673805534.218,-38.086,-33.691,-24.902,-20.508,0.000
1673805534.222,-44.922,-35.645,-26.367,-21.973,0.000
1673805534.226,-53.711,-37.598,-31.250,-26.367,0.000
1673805534.229,-39.062,-37.109,-28.320,-19.531,0.000
1673805534.233,-55.176,-34.668,-16.602,-19.531,0.000
1673805534.237,-55.176,-28.320,-17.578,-24.414,0.000
1673805534.241,-45.410,-30.762,-22.461,-28.320,0.000
1673805534.245,-47.363,-31.250,-27.344,-23.926,0.000
1673805534.249,-47.852,-29.785,-30.762,-23.438,0.000
1673805534.253,-51.758,-31.250,-35.156,-24.902,0.000
1673805534.257,-47.363,-24.902,-33.203,-15.625,0.000
1673805534.261,-39.551,-18.555,-31.738,-6.348,0.000
1673805534.265,-34.668,-24.902,-37.598,-12.695,0.000
1673805534.269,-29.297,-29.785,-36.133,-29.297,0.000
1673805534.272,-20.996,-27.344,-36.133,-34.668,0.000
1673805534.276,-9.277,-32.227,-39.062,-39.062,0.000
1673805534.280,-17.090,-32.715,-34.180,-26.367,0.000
1673805534.284,-32.715,-26.855,-30.762,-32.227,0.000
1673805534.288,-26.367,-28.809,-34.668,-54.199,0.000
1673805534.292,-20.020,-28.809,-35.645,-50.293,0.000
1673805534.296,-15.625,-27.344,-31.738,-38.086,0.000
1673805534.300,-15.137,-27.832,-30.762,-23.438,0.000
1673805534.304,-17.090,-27.832,-26.855,-21.973,0.000
1673805534.308,-14.160,-27.832,-24.414,-21.973,0.000
1673805534.312,-8.301,-22.461,-22.949,-13.184,0.000
1673805534.315,-12.695,-20.020,-26.855,-13.672,0.000
1673805534.319,-25.879,-18.066,-34.180,-19.531,0.000
1673805534.323,-18.066,-18.555,-31.738,-16.602,0.000
1673805534.327,-15.137,-24.414,-28.320,-12.695,0.000
1673805534.331,-35.645,-28.809,-23.438,-22.461,0.000
1673805534.335,-48.828,-28.809,-24.902,-23.926,0.000
1673805534.339,-43.945,-31.738,-29.297,-23.926,0.000
1673805534.343,-39.062,-28.809,-28.809,-26.367,0.000
1673805534.347,-33.203,-26.367,-28.320,-20.020,0.000
1673805534.351,-22.461,-29.297,-30.762,-16.113,0.000
1673805534.354,-15.625,-20.508,-29.297,-23.438,0.000
1673805534.358,-27.344,-20.020,-32.715,-28.320,0.000
1673805534.362,-29.785,-27.832,-35.156,-20.996,0.000
1673805534.366,-17.578,-23.926,-29.297,-5.859,0.000
1673805534.370,-6.836,-25.391,-31.250,-15.625,0.000
1673805534.374,0.488,-31.738,-39.062,-26.855,0.000
1673805534.378,-12.695,-29.297,-32.715,-20.020,0.000
1673805534.382,-35.645,-24.414,-26.855,-22.461,0.000
1673805534.386,-41.016,-23.926,-27.344,-26.855,0.000
1673805534.390,-39.551,-31.250,-27.344,-28.809,0.000
1673805534.394,-44.434,-37.109,-35.156,-28.809,0.000
1673805534.397,-54.199,-33.691,-33.203,-20.508,0.000
1673805534.401,-43.457,-34.180,-25.391,-13.184,0.000
1673805534.405,-28.809,-33.691,-24.902,-21.973,0.000
1673805534.409,-20.020,-37.598,-27.344,-34.180,0.000
1673805534.413,-22.949,-41.992,-29.785,-37.598,0.000
1673805534.417,-33.691,-42.480,-28.809,-33.203,0.000
1673805534.421,-47.852,-42.969,-29.785,-29.785,0.000
1673805534.425,-47.852,-40.527,-34.180,-19.043,0.000
1673805534.429,-35.156,-38.574,-30.762,-12.207,0.000
1673805534.433,-34.180,-34.668,-27.344,-24.414,0.000
1673805534.436,-27.832,-34.180,-35.156,-36.133,0.000
1673805534.440,-12.207,-29.785,-32.227,-30.273,0.000
1673805534.444,4.395,-29.297,-27.832,-26.367,0.000
1673805534.448,10.254,-35.645,-32.715,-32.715,0.000
1673805534.452,11.230,-26.855,-38.086,-32.715,0.000
1673805534.456,-10.742,-19.531,-34.180,-24.414,0.000
1673805534.460,-42.969,-24.414,-34.180,-22.461,0.000
1673805534.464,-33.691,-25.879,-36.133,-23.438,0.000
1673805534.468,-24.414,-20.020,-34.668,-20.020,0.000
1673805534.472,-21.484,-23.926,-34.668,-25.879,0.000
1673805534.476,-35.156,-31.738,-33.691,-22.949,0.000
1673805534.479,-34.180,-34.180,-38.574,-5.371,0.000
1673805534.483,-21.484,-30.762,-38.574,-6.836,0.000
1673805534.487,-19.043,-24.414,-35.156,-31.738,0.000
1673805534.491,-22.949,-25.391,-28.809,-17.578,0.000
1673805534.495,-39.062,-37.109,-27.344,-13.184,0.000
1673805534.499,-30.273,-37.109,-30.273,-19.531,0.000
1673805534.503,-20.996,-32.715,-23.926,-5.859,0.000
1673805534.507,-22.461,-34.668,-21.484,1.465,0.000
1673805534.511,-26.367,-30.762,-23.438,2.441,0.000
1673805534.515,-33.203,-27.344,-24.414,-9.277,0.000
1673805534.519,-27.832,-26.855,-24.902,-18.066,0.000
1673805534.522,-16.602,-30.762,-29.785,-27.344,0.000
1673805534.526,-12.695,-30.273,-29.785,-36.133,0.000
1673805534.530,-14.648,-28.320,-29.297,-41.016,0.000
1673805534.534,-2.930,-24.414,-25.391,-27.832,0.000
1673805534.538,1.465,-16.113,-21.973,-30.762,0.000
1673805534.542,-9.277,-18.066,-28.809,-38.086,0.000
1673805534.546,-15.625,-21.973,-26.855,-25.391,0.000
1673805534.550,-22.461,-21.484,-26.855,-17.578,0.000
1673805534.554,-41.504,-19.531,-30.762,-23.926,0.000
1673805534.558,-28.809,-20.020,-35.156,-30.273,0.000
1673805534.561,-4.883,-20.020,-30.273,-26.855,0.000
1673805534.565,-12.207,-22.461,-24.414,-39.062,0.000
1673805534.569,-30.762,-21.484,-28.320,-48.340,0.000
1673805534.573,-40.527,-21.484,-28.320,-41.992,0.000
1673805534.577,-27.344,-23.926,-24.414,-36.621,0.000
1673805534.581,-26.367,-20.508,-24.902,-25.879,0.000
1673805534.585,-54.199,-17.578,-24.902,-22.461,0.000
1673805534.589,-52.734,-23.438,-18.066,-29.297,0.000
1673805534.593,-22.949,-26.367,-19.043,-32.227,0.000
1673805534.597,-14.160,-22.949,-21.484,-44.922,0.000
1673805534.601,-25.879,-20.020,-19.043,-49.316,0.000
1673805534.604,-32.227,-20.996,-18.066,-35.645,0.000
1673805534.608,-39.062,-28.809,-14.648,-25.879,0.000
1673805534.612,-46.875,-31.738,-12.207,-16.113,0.000
1673805534.616,-37.598,-26.855,-13.672,-12.207,0.000
1673805534.620,-41.992,-29.785,-17.090,-23.438,0.000
1673805534.624,-34.180,-34.668,-14.160,-5.371,0.000
1673805534.628,-19.531,-30.273,-13.672,5.859,0.000
1673805534.632,-23.926,-28.809,-19.531,-13.672,0.000
1673805534.636,-12.207,-27.832,-19.531,-20.508,0.000
1673805534.640,-8.789,-32.227,-17.090,-22.461,0.000
1673805534.644,-31.250,-34.180,-15.625,-16.602,0.000
1673805534.647,-34.180,-28.320,-11.719,-11.719,0.000
1673805534.651,-28.809,-20.508,-10.742,-2.930,0.000
1673805534.655,-23.926,-21.973,-14.648,-5.859,0.000
1673805534.659,-11.230,-20.020,-20.996,-5.859,0.000
1673805534.663,-6.348,-20.020,-24.414,-0.977,0.000
1673805534.667,-5.371,-24.902,-27.832,-5.859,0.000
1673805534.671,3.906,-17.578,-25.879,0.000,0.000
1673805534.675,2.930,-12.207,-23.926,-6.836,0.000
1673805534.679,-13.184,-14.160,-33.203,-22.949,0.000
1673805534.683,-15.137,-16.602,-35.156,-18.555,0.000
1673805534.686,1.465,-16.113,-29.785,-14.160,0.000
1673805534.690,-7.324,-13.672,-35.645,-23.926,0.000
1673805534.694,-16.602,-12.207,-38.086,-27.832,0.000
1673805534.698,-6.348,-14.648,-34.180,-37.109,0.000
1673805534.702,-13.672,-11.230,-32.715,-42.480,0.000
1673805534.706,-25.391,-13.672,-39.062,-39.062,0.000
1673805534.710,-27.344,-20.508,-45.410,-33.691,0.000
1673805534.714,-37.109,-22.949,-39.062,-30.273,0.000
1673805534.718,-47.852,-29.785,-32.715,-37.598,0.000
1673805534.722,-63.965,-35.645,-34.668,-39.062,0.000
1673805534.726,-61.523,-35.156,-32.715,-37.109,0.000
1673805534.729,-51.758,-35.645,-32.715,-27.344,0.000
1673805534.733,-51.270,-28.320,-35.156,-23.438,0.000
1673805534.737,-45.898,-28.320,-37.598,-42.480,0.000
1673805534.741,-35.645,-37.109,-35.156,-48.828,0.000
1673805534.745,-33.203,-28.320,-24.902,-32.227,0.000
1673805534.749,-42.480,-20.508,-25.879,-24.414,0.000
1673805534.753,-36.133,-22.949,-32.227,-31.250,0.000
1673805534.757,-29.297,-24.902,-35.156,-36.133,0.000
1673805534.761,-33.691,-27.832,-31.738,-25.391,0.000
1673805534.765,-25.879,-25.391,-30.273,-14.160,0.000
1673805534.769,-17.578,-22.461,-29.785,-13.184,0.000
1673805534.772,4.395,-18.555,-26.367,-18.555,0.000
1673805534.776,14.160,-19.531,-28.320,-31.738,0.000
1673805534.780,-15.137,-23.926,-29.297,-40.527,0.000
1673805534.784,-18.066,-25.879,-24.414,-42.480,0.000
1673805534.788,1.465,-20.508,-23.926,-34.668,0.000
1673805534.792,-15.625,-16.113,-29.297,-32.227,0.000
1673805534.796,-38.574,-18.555,-29.785,-26.855,0.000
1673805534.800,-37.598,-18.555,-31.738,-20.508,0.000
1673805534.804,-22.949,-16.602,-31.738,-22.949,0.000
1673805534.808,-18.066,-18.555,-27.832,-17.090,0.000
1673805534.811,-37.598,-22.461,-26.367,-7.324,0.000
1673805534.815,-37.109,-23.926,-23.438,-7.812,0.000
1673805534.819,-33.203,-26.855,-24.414,-19.043,0.000
1673805534.823,-41.504,-26.367,-25.391,-26.367,0.000
1673805534.827,-40.527,-29.297,-25.391,-27.344,0.000
1673805534.831,-41.504,-30.762,-28.809,-19.043,0.000
1673805534.835,-35.645,-28.809,-29.297,-19.043,0.000
1673805534.839,-35.645,-32.227,-24.902,-21.973,0.000
1673805534.843,-34.668,-30.762,-24.902,-5.859,0.000
1673805534.847,-13.672,-24.902,-29.785,-0.977,0.000
1673805534.851,-7.324,-26.855,-27.344,-8.301,0.000
1673805534.854,-31.738,-29.297,-23.926,-19.043,0.000
1673805534.858,-41.504,-24.414,-25.391,-24.414,0.000
1673805534.862,-31.738,-22.949,-22.949,-11.719,0.000
1673805534.866,-38.086,-26.367,-20.508,-0.977,0.000
1673805534.870,-35.156,-27.344,-23.438,-8.301,0.000
1673805534.874,-9.766,-24.414,-25.879,-33.203,0.000
1673805534.878,-6.348,-21.973,-27.344,-38.086,0.000
1673805534.882,-13.672,-17.090,-23.926,-18.555,0.000
1673805534.886,-20.020,-17.090,-24.902,-21.973,0.000
1673805534.890,-38.574,-23.438,-28.809,-16.602,0.000
1673805534.894,-35.645,-22.949,-26.367,0.488,0.000
1673805534.897,-32.715,-23.438,-27.832,-7.324,0.000
1673805534.901,-35.156,-24.414,-31.250,-21.973,0.000
1673805534.905,-23.438,-21.484,-27.344,-26.367,0.000
1673805534.909,-24.902,-18.555,-22.949,-23.438,0.000
1673805534.913,-18.555,-20.996,-22.949,-26.855,0.000
1673805534.917,-26.367,-29.785,-25.391,-29.297,0.000
1673805534.921,-60.059,-35.645,-27.344,-19.531,0.000
1673805534.925,-54.199,-40.039,-29.297,-14.160,0.000
1673805534.929,-41.992,-34.180,-28.809,-19.043,0.000
1673805534.933,-43.457,-34.668,-24.902,-37.598,0.000
1673805534.936,-24.414,-38.086,-24.414,-57.129,0.000
1673805534.940,-15.137,-31.250,-24.902,-53.223,0.000
1673805534.944,-41.504,-31.738,-27.832,-39.551,0.000
1673805534.948,-41.016,-30.273,-28.320,-28.320,0.000
1673805534.952,-29.785,-29.297,-27.344,-22.949,0.000
1673805534.956,-31.250,-30.762,-32.715,-31.250,0.000
1673805534.960,-18.555,-30.762,-27.832,-35.645,0.000
1673805534.964,-11.230,-31.250,-20.996,-33.203,0.000
1673805534.968,-28.320,-30.273,-25.879,-30.762,0.000
1673805534.972,-45.410,-29.785,-25.391,-24.902,0.000
1673805534.976,-45.410,-34.668,-24.414,-16.113,0.000
1673805534.979,-39.551,-30.273,-26.855,-17.578,0.000
1673805534.983,-29.785,-28.809,-27.344,-33.203,0.000
1673805534.987,-31.738,-34.668,-29.785,-37.598,0.000
1673805534.991,-47.363,-39.551,-35.645,-29.297,0.000
1673805534.995,-45.898,-44.922,-34.668,-20.996,0.000
1673805534.999,-33.203,-40.527,-28.809,-22.949,0.000
1673805535.003,-27.344,-38.086,-33.203,-22.949,0.000
1673805535.007,-33.691,-39.551,-33.691,-30.273,0.000
1673805535.011,-33.691,-40.039,-30.762,-39.062,0.000
1673805535.015,-33.691,-40.527,-30.762,-28.320,0.000
1673805535.019,-30.762,-44.922,-30.273,-19.531,0.000
1673805535.022,-31.738,-37.598,-31.738,-25.391,0.000
1673805535.026,-25.391,-24.414,-31.250,-33.691,0.000
1673805535.030,-12.207,-26.855,-29.785,-30.273,0.000
1673805535.034,-10.742,-29.297,-32.715,-31.250,0.000
1673805535.038,-12.695,-27.832,-37.598,-37.109,0.000
1673805535.042,-11.719,-30.762,-36.133,-32.227,0.000
1673805535.046,-23.438,-29.297,-32.715,-24.902,0.000
1673805535.050,-37.598,-22.949,-37.598,-23.926,0.000
1673805535.054,-32.227,-27.344,-42.480,-28.320,0.000
1673805535.058,-16.113,-29.297,-41.016,-22.461,0.000
1673805535.061,-26.855,-28.320,-37.598,-18.555,0.000
1673805535.065,-55.176,-28.809,-36.133,-20.996,0.000
1673805535.069,-43.457,-25.391,-36.133,-28.320,0.000
1673805535.073,-30.762,-21.484,-30.762,-26.367,0.000
1673805535.077,-27.832,-21.973,-24.902,-8.301,0.000
1673805535.081,-29.297,-28.809,-24.414,-13.672,0.000
1673805535.085,-38.574,-28.809,-31.738,-30.762,0.000
1673805535.089,-34.668,-26.855,-31.738,-36.133,0.000
1673805535.093,-24.902,-27.832,-30.273,-32.715,0.000
1673805535.097,-23.926,-27.832,-31.738,-23.438,0.000
1673805535.101,-31.250,-29.785,-29.297,-23.438,0.000
1673805535.104,-18.555,-30.273,-27.344,-25.391,0.000
1673805535.108,-14.648,-31.738,-30.762,-28.320,0.000
1673805535.112,-22.461,-32.715,-34.180,-25.879,0.000
1673805535.116,-19.043,-28.809,-29.297,-15.137,0.000
1673805535.120,-12.207,-25.391,-24.414,-12.207,0.000
1673805535.124,-12.207,-28.809,-32.227,-8.789,0.000
1673805535.128,-15.625,-35.645,-35.645,-8.789,0.000
1673805535.132,-11.230,-35.156,-28.320,-19.531,0.000
1673805535.136,-10.254,-26.855,-28.320,-16.113,0.000
1673805535.140,-23.438,-27.344,-31.250,-14.160,0.000
1673805535.144,-47.852,-33.203,-29.297,-20.996,0.000
1673805535.147,-67.871,-34.668,-31.250,-22.949,0.000
1673805535.151,-68.848,-39.062,-32.227,-16.602,0.000
1673805535.155,-53.223,-32.227,-30.273,-12.695,0.000
1673805535.159,-41.504,-23.926,-29.297,-14.648,0.000
1673805535.163,-35.156,-27.344,-31.250,-24.902,0.000
1673805535.167,-30.762,-24.902,-34.180,-32.715,0.000
1673805535.171,-35.645,-22.949,-30.273,-31.250,0.000
1673805535.175,-27.344,-30.762,-31.738,-28.320,0.000
1673805535.179,-20.508,-29.297,-29.297,-9.766,0.000
1673805535.183,-22.461,-27.832,-27.832,-10.254,0.000
1673805535.186,-17.578,-31.250,-33.691,-17.578,0.000
1673805535.190,-28.320,-30.273,-32.715,-7.324,0.000
1673805535.194,-51.270,-32.227,-29.785,-12.695,0.000
1673805535.198,-51.270,-32.227,-31.250,-27.832,0.000
1673805535.202,-40.527,-30.273,-36.621,-44.434,0.000
1673805535.206,-22.461,-28.809,-33.203,-49.316,0.000
1673805535.210,-18.066,-28.320,-32.227,-40.527,0.000
1673805535.214,-35.645,-28.320,-37.109,-25.391,0.000
1673805535.218,-32.715,-25.391,-35.156,-23.926,0.000
1673805535.222,-25.879,-27.832,-32.715,-34.180,0.000
1673805535.226,-34.668,-28.809,-35.645,-25.391,0.000
1673805535.229,-46.875,-25.879,-33.203,-10.742,0.000
1673805535.233,-41.504,-25.879,-33.691,-22.461,0.000
1673805535.237,-28.809,-25.391,-33.203,-34.668,0.000
1673805535.241,-34.180,-28.809,-23.438,-19.043,0.000
1673805535.245,-41.992,-34.668,-31.250,-18.066,0.000
1673805535.249,-33.691,-32.715,-37.598,-33.691,0.000
1673805535.253,-19.043,-35.156,-35.156,-39.551,0.000
1673805535.257,-22.949,-32.715,-46.387,-40.527,0.000
1673805535.261,-41.504,-28.320,-45.410,-26.855,0.000
1673805535.265,-38.086,-27.344,-33.691,-20.996,0.000
1673805535.269,-46.875,-23.438,-28.320,-18.555,0.000
1673805535.272,-45.898,-24.414,-27.832,-11.230,0.000
1673805535.276,-40.039,-30.762,-33.691,-18.066,0.000
1673805535.280,-55.176,-30.762,-31.738,-15.137,0.000
1673805535.284,-45.410,-26.855,-29.297,-20.508,0.000
1673805535.288,-28.320,-27.832,-31.250,-27.344,0.000
1673805535.292,-13.184,-27.832,-36.133,-18.555,0.000
1673805535.296,-15.625,-27.344,-35.156,-19.043,0.000
1673805535.300,-38.574,-36.133,-35.645,-9.766,0.000
1673805535.304,-49.805,-46.387,-38.086,-3.906,0.000
1673805535.308,-44.922,-41.992,-33.691,-9.277,0.000
1673805535.311,-39.062,-31.738,-35.156,-20.996,0.000
1673805535.315,-28.809,-30.762,-34.668,-36.133,0.000
1673805535.319,-26.855,-32.227,-34.180,-36.621,0.000
1673805535.323,-30.762,-27.832,-33.691,-40.039,0.000
1673805535.327,-14.648,-20.996,-30.273,-26.855,0.000
1673805535.331,-11.230,-22.461,-35.156,-19.531,0.000
1673805535.335,-29.785,-24.902,-36.133,-27.832,0.000
1673805535.339,-31.738,-20.020,-36.133,-39.551,0.000
1673805535.343,-32.227,-21.973,-35.156,-41.992,0.000
1673805535.347,-35.645,-27.344,-32.227,-27.344,0.000
1673805535.351,-18.066,-22.461,-28.809,-34.668,0.000
1673805535.354,-21.484,-21.973,-28.320,-42.480,0.000
1673805535.358,-30.762,-23.926,-28.809,-38.086,0.000
1673805535.362,-11.230,-22.461,-24.902,-30.273,0.000
1673805535.366,-7.812,-18.066,-23.926,-21.973,0.000
1673805535.370,-19.531,-11.719,-22.949,-9.766,0.000
1673805535.374,-20.508,-8.789,-19.043,-6.836,0.000
1673805535.378,-18.066,-8.789,-16.602,-10.742,0.000
1673805535.382,-24.414,-14.648,-21.484,-15.137,0.000
1673805535.386,-18.066,-11.719,-20.996,-9.277,0.000
1673805535.390,-16.113,-9.277,-14.160,-8.789,0.000
1673805535.394,-35.156,-13.672,-15.625,-15.625,0.000
1673805535.397,-40.039,-12.207,-22.461,-4.395,0.000
1673805535.401,-24.414,-7.324,-18.555,-8.301,0.000
1673805535.405,-13.672,-7.812,-8.789,-14.160,0.000
1673805535.409,-20.508,-14.160,-8.301,4.395,0.000
1673805535.413,-20.508,-15.625,-11.230,10.742,0.000
1673805535.417,-11.230,-21.484,-15.137,3.418,0.000
1673805535.421,-21.484,-28.320,-14.648,-1.953,0.000
1673805535.425,-15.137,-20.996,-16.602,-6.836,0.000
1673805535.429,-6.836,-20.508,-20.996,-4.395,0.000
1673805535.433,-19.043,-23.926,-14.160,-4.395,0.000
1673805535.436,-24.902,-19.531,-12.207,-16.113,0.000
1673805535.440,-22.949,-20.020,-11.719,-18.555,0.000
1673805535.444,-38.574,-21.973,-14.160,-18.066,0.000
1673805535.448,-41.016,-19.531,-14.648,-32.715,0.000
1673805535.452,-20.996,-18.555,-16.602,-28.320,0.000
1673805535.456,-6.836,-20.020,-24.414,-21.973,0.000
1673805535.460,-0.977,-20.508,-24.414,-36.133,0.000
1673805535.464,-12.695,-26.855,-24.902,-25.391,0.000
1673805535.468,-41.992,-39.062,-25.391,-21.484,0.000
1673805535.472,-51.758,-34.668,-20.508,-41.016,0.000
1673805535.476,-39.062,-22.949,-17.090,-40.527,0.000
1673805535.479,-34.668,-21.484,-19.531,-26.367,0.000
1673805535.483,-20.508,-21.973,-27.344,-28.320,0.000
1673805535.487,-19.043,-23.438,-28.320,-29.297,0.000
1673805535.491,-23.926,-21.484,-25.879,-23.438,0.000
1673805535.495,-17.578,-23.926,-26.367,-18.555,0.000
1673805535.499,-31.250,-22.461,-21.973,-10.254,0.000
1673805535.503,-37.598,-20.020,-22.461,-12.695,0.000
1673805535.507,-23.438,-23.926,-26.855,-20.020,0.000
1673805535.511,-14.648,-23.926,-27.832,-14.648,0.000
1673805535.515,-9.766,-25.391,-33.203,-11.230,0.000
1673805535.518,-10.742,-29.297,-33.691,-29.785,0.000
1673805535.522,-20.508,-27.832,-27.344,-33.203,0.000
1673805535.526,-31.738,-26.367,-28.320,-22.461,0.000
1673805535.530,-25.879,-25.879,-33.203,-24.414,0.000
1673805535.534,-13.184,-23.438,-31.250,-36.133,0.000
1673805535.538,-15.625,-32.227,-27.832,-39.062,0.000
1673805535.542,-23.438,-32.227,-27.344,-20.996,0.000
1673805535.546,-36.133,-20.508,-25.879,-17.578,0.000
1673805535.550,-35.645,-25.391,-26.855,-26.855,0.000
1673805535.554,-30.762,-24.414,-25.391,-25.391,0.000
1673805535.558,-32.227,-16.113,-24.414,-24.902,0.000
1673805535.561,-30.762,-22.461,-31.250,-26.855,0.000
1673805535.565,-24.902,-27.344,-32.715,-19.531,0.000
1673805535.569,-16.602,-21.973,-28.809,-15.625,0.000
1673805535.573,-4.395,-23.438,-29.785,-20.020,0.000
1673805535.577,6.348,-26.855,-31.738,-15.137,0.000
1673805535.581,-13.184,-24.414,-26.367,-3.906,0.000
1673805535.585,-43.945,-29.785,-25.879,-4.883,0.000
1673805535.589,-43.457,-32.227,-27.832,-21.973,0.000
1673805535.593,-25.391,-27.832,-26.367,-37.598,0.000
1673805535.597,-9.277,-26.367,-23.438,-22.461,0.000
1673805535.601,6.836,-21.484,-16.113,-20.020,0.000
1673805535.604,7.324,-20.020,-19.043,-31.250,0.000
1673805535.608,-3.418,-26.367,-21.484,-24.414,0.000
1673805535.612,-10.742,-28.320,-18.066,-12.207,0.000
1673805535.616,-31.738,-29.297,-20.996,-1.953,0.000
1673805535.620,-47.852,-32.227,-26.367,-9.766,0.000
1673805535.624,-27.344,-30.273,-28.320,-30.762,0.000
1673805535.628,-5.859,-26.855,-23.438,-37.598,0.000
1673805535.632,-23.926,-32.715,-23.438,-34.180,0.000
1673805535.636,-27.344,-35.645,-22.949,-34.668,0.000
1673805535.640,-26.367,-35.645,-22.949,-43.945,0.000
1673805535.643,-45.898,-39.062,-25.391,-38.086,0.000
1673805535.647,-35.156,-31.250,-19.531,-21.973,0.000
1673805535.651,-25.391,-22.461,-21.973,-30.273,0.000
1673805535.655,-36.621,-27.832,-31.250,-42.969,0.000
1673805535.659,-41.016,-29.297,-29.785,-37.598,0.000
1673805535.663,-38.086,-34.180,-32.715,-31.738,0.000
1673805535.667,-42.480,-39.062,-35.156,-41.992,0.000
1673805535.671,-39.551,-27.344,-30.273,-36.133,0.000
1673805535.675,-32.715,-20.020,-26.855,-12.207,0.000
1673805535.679,-43.945,-20.996,-27.344,-11.719,0.000
1673805535.683,-41.016,-25.391,-30.273,-28.320,0.000
1673805535.686,-34.180,-30.273,-25.391,-24.902,0.000
1673805535.690,-33.691,-19.531,-21.973,-10.254,0.000
1673805535.694,-18.066,-12.207,-26.367,-12.207,0.000
1673805535.698,-24.902,-14.648,-30.273,-14.160,0.000
1673805535.702,-33.203,-14.648,-35.156,-10.742,0.000
1673805535.706,-18.555,-17.090,-35.645,-21.484,0.000
1673805535.710,-15.137,-21.484,-37.109,-36.621,0.000
1673805535.714,-8.789,-26.855,-32.227,-31.738,0.000
1673805535.718,-10.254,-25.879,-32.227,-19.531,0.000
1673805535.722,-23.926,-22.461,-34.180,-20.996,0.000
1673805535.726,-19.043,-18.555,-27.832,-20.996,0.000
1673805535.729,-9.766,-26.855,-30.273,-22.461,0.000
1673805535.733,-16.602,-33.691,-29.297,-25.879,0.000
1673805535.737,-20.996,-23.926,-28.320,-22.949,0.000
1673805535.741,-17.578,-20.020,-28.809,-22.949,0.000
1673805535.745,-28.809,-23.926,-25.391,-16.602,0.000
1673805535.749,-32.227,-28.809,-22.461,-7.812,0.000
1673805535.753,-32.227,-30.273,-27.344,-20.508,0.000
1673805535.757,-41.016,-29.785,-34.180,-35.156,0.000
1673805535.761,-40.039,-32.227,-29.297,-22.461,0.000
1673805535.765,-30.762,-39.062,-23.926,-18.555,0.000
1673805535.768,-34.668,-37.109,-22.461,-25.391,0.000
1673805535.772,-39.062,-33.691,-22.949,-27.832,0.000
1673805535.776,-36.133,-41.992,-22.461,-24.902,0.000
1673805535.780,-20.508,-41.016,-25.879,-24.414,0.000
1673805535.784,-21.973,-37.598,-28.320,-30.762,0.000
1673805535.788,-50.293,-46.875,-27.344,-32.715,0.000
1673805535.792,-54.199,-38.574,-23.926,-27.344,0.000
1673805535.796,-47.363,-25.879,-24.414,-14.160,0.000
1673805535.800,-36.133,-24.902,-28.809,-19.043,0.000
1673805535.804,-21.973,-27.344,-28.809,-32.227,0.000
1673805535.808,-14.160,-30.762,-25.879,-38.086,0.000
1673805535.811,-33.203,-29.297,-25.391,-29.297,0.000
1673805535.815,-47.363,-34.668,-27.832,-15.137,0.000
1673805535.819,-34.180,-41.992,-26.367,-20.020,0.000
1673805535.823,-34.180,-38.086,-25.879,-28.809,0.000
1673805535.827,-40.527,-40.039,-30.273,-34.668,0.000
1673805535.831,-33.691,-36.621,-29.297,-30.273,0.000
1673805535.835,-22.461,-24.902,-26.367,-32.715,0.000
1673805535.839,-19.531,-23.926,-28.809,-40.039,0.000
1673805535.843,-24.902,-21.484,-31.738,-32.227,0.000
1673805535.847,-22.949,-20.996,-34.180,-25.879,0.000
1673805535.851,-30.273,-26.855,-29.297,-22.461,0.000
1673805535.854,-38.086,-29.785,-29.297,-32.715,0.000
1673805535.858,-23.926,-28.809,-27.344,-34.180,0.000
1673805535.862,-15.625,-32.227,-28.809,-24.414,0.000
1673805535.866,-15.137,-31.738,-33.203,-19.043,0.000
1673805535.870,-16.602,-24.414,-31.738,-8.789,0.000
1673805535.874,-29.785,-21.484,-33.691,-8.301,0.000
1673805535.878,-32.715,-23.926,-35.156,-11.719,0.000
1673805535.882,-23.438,-27.344,-32.715,-11.719,0.000
1673805535.886,-37.109,-28.809,-32.227,-10.742,0.000
1673805535.890,-35.156,-26.855,-31.250,-2.930,0.000
1673805535.893,-17.090,-22.949,-30.273,-8.789,0.000
1673805535.897,-17.578,-21.484,-35.645,-17.578,0.000
1673805535.901,-0.488,-27.344,-33.691,-12.695,0.000
1673805535.905,-0.488,-26.367,-32.715,-27.344,0.000
1673805535.909,-30.762,-25.391,-33.203,-38.574,0.000
1673805535.913,-31.738,-25.879,-30.273,-23.926,0.000
1673805535.917,-22.461,-23.438,-27.344,-14.648,0.000
1673805535.921,-27.832,-27.832,-29.785,-27.344,0.000
1673805535.925,-21.973,-24.902,-33.203,-30.762,0.000
1673805535.929,-19.043,-27.344,-33.203,-23.926,0.000
1673805535.933,-25.879,-35.156,-25.879,-30.762,0.000
1673805535.936,-32.227,-32.715,-22.949,-35.156,0.000
1673805535.940,-30.762,-27.832,-28.809,-25.879,0.000
1673805535.944,-23.926,-28.320,-27.344,-22.461,0.000
1673805535.948,-25.391,-31.738,-29.297,-22.949,0.000
1673805535.952,-19.043,-33.691,-29.785,-26.855,0.000
1673805535.956,-10.742,-29.297,-24.902,-26.855,0.000
1673805535.960,-20.508,-23.926,-20.020,-7.812,0.000
1673805535.964,-37.598,-22.949,-22.949,-3.418,0.000
1673805535.968,-28.320,-20.020,-23.438,-17.578,0.000
1673805535.972,-16.602,-19.043,-26.855,-17.090,0.000
1673805535.976,-25.879,-29.297,-35.156,-10.254,0.000
1673805535.979,-32.227,-33.203,-36.133,-17.090,0.000
1673805535.983,-29.785,-21.973,-31.250,-23.438,0.000
1673805535.987,-16.113,-10.742,-28.809,-13.184,0.000
1673805535.991,-9.277,-13.672,-30.273,-11.230,0.000
1673805535.995,-7.812,-19.531,-26.367,-10.254,0.000
1673805535.999,-12.207,-19.043,-28.809,2.930,0.000
1673805536.003,-31.738,-20.020,-27.344,2.930,0.000
1673805536.007,-28.320,-22.949,-26.367,-18.066,0.000
1673805536.011,-14.160,-27.832,-31.250,-27.832,0.000
1673805536.015,-5.859,-35.156,-33.691,-31.250,0.000
1673805536.018,6.348,-27.344,-36.133,-31.738,0.000
1673805536.022,-2.930,-19.531,-33.203,-16.602,0.000
1673805536.026,-39.551,-23.926,-29.785,-18.066,0.000
1673805536.030,-47.852,-23.926,-28.809,-12.207,0.000
1673805536.034,-33.203,-23.926,-30.273,-6.836,0.000
1673805536.038,-23.438,-25.391,-37.109,-21.973,0.000
1673805536.042,-11.719,-28.809,-34.668,-26.855,0.000
1673805536.046,-23.438,-25.879,-26.855,-31.250,0.000
1673805536.050,-50.781,-26.367,-35.156,-42.480,0.000
1673805536.054,-46.387,-38.086,-40.039,-45.410,0.000
1673805536.058,-31.738,-38.574,-36.133,-39.062,0.000
1673805536.061,-30.273,-31.738,-33.691,-45.898,0.000
1673805536.065,-37.109,-30.762,-32.227,-43.457,0.000
1673805536.069,-47.363,-30.273,-35.645,-31.738,0.000
1673805536.073,-53.711,-37.109,-40.039,-37.598,0.000
1673805536.077,-49.316,-32.715,-32.715,-33.203,0.000
1673805536.081,-43.457,-25.391,-27.344,-26.367,0.000
1673805536.085,-32.715,-27.344,-30.762,-30.273,0.000
1673805536.089,-19.043,-31.250,-30.762,-33.691,0.000
1673805536.093,-8.789,-32.227,-24.414,-22.949,0.000
1673805536.097,-5.371,-30.273,-27.344,-18.555,0.000
1673805536.101,-26.367,-27.832,-30.762,-19.043,0.000
1673805536.104,-33.203,-28.320,-30.273,-25.879,0.000
1673805536.108,-20.508,-27.832,-25.879,-28.809,0.000
1673805536.112,-25.879,-24.414,-23.438,-23.438,0.000
1673805536.116,-40.039,-41.016,-29.297,-33.203,0.000
1673805536.120,-51.758,-40.039,-28.320,-38.086,0.000
1673805536.124,-58.105,-29.297,-27.344,-29.297,0.000
1673805536.128,-45.410,-31.250,-30.762,-19.043,0.000
1673805536.132,-30.273,-26.855,-28.320,-9.277,0.000
1673805536.136,-29.297,-29.785,-28.320,-2.441,0.000
1673805536.140,-39.062,-34.668,-30.762,-0.977,0.000
1673805536.143,-43.945,-33.691,-33.203,-16.113,0.000
1673805536.147,-42.480,-34.668,-35.156,-27.832,0.000
1673805536.151,-39.062,-29.785,-32.715,-29.785,0.000
1673805536.155,-29.297,-22.461,-33.203,-35.156,0.000
1673805536.159,-21.973,-21.484,-31.250,-38.086,0.000
1673805536.163,-20.996,-30.273,-29.297,-38.574,0.000
1673805536.167,-8.789,-27.832,-24.414,-47.852,0.000
1673805536.171,8.301,-16.602,-20.020,-44.922,0.000
1673805536.175,8.301,-16.113,-23.438,-33.691,0.000
1673805536.179,-1.465,-20.996,-25.391,-25.391,0.000
1673805536.183,-13.672,-22.949,-24.902,-12.695,0.000
1673805536.186,-12.207,-24.414,-24.414,-13.184,0.000
1673805536.190,-16.602,-22.949,-24.902,-9.277,0.000
1673805536.194,-13.184,-21.484,-29.785,-11.719,0.000
1673805536.198,-27.832,-20.508,-27.832,-12.695,0.000
1673805536.202,-49.316,-21.484,-21.973,-4.395,0.000
1673805536.206,-28.320,-21.484,-24.414,-8.789,0.000
1673805536.210,-6.836,-15.625,-21.973,-15.137,0.000
1673805536.214,-8.789,-10.742,-20.508,-7.812,0.000
1673805536.218,-4.395,-9.766,-22.461,1.465,0.000
1673805536.222,4.883,-13.672,-21.973,-1.953,0.000
1673805536.226,-2.930,-9.277,-19.043,-3.906,0.000
1673805536.229,-17.090,-8.301,-20.508,-3.906,0.000
1673805536.233,-31.250,-8.301,-19.531,-6.348,0.000
1673805536.237,-31.250,-13.184,-12.695,-7.324,0.000
1673805536.241,-25.391,-21.484,-11.230,1.465,0.000
1673805536.245,-14.160,-23.438,-12.695,9.277,0.000
1673805536.249,-5.859,-14.160,-16.602,-7.324,0.000
1673805536.253,-7.812,-4.883,-19.531,-21.484,0.000
1673805536.257,-13.672,-12.695,-17.090,-23.926,0.000
1673805536.261,-27.344,-20.996,-12.695,-28.809,0.000
1673805536.265,-26.367,-22.949,-18.066,-28.809,0.000
1673805536.268,-14.160,-18.555,-23.926,-37.598,0.000
1673805536.272,-20.020,-15.625,-21.973,-51.270,0.000
1673805536.276,-37.598,-19.043,-21.973,-37.109,0.000
1673805536.280,-43.945,-22.949,-21.484,-17.578,0.000
1673805536.284,-48.340,-24.902,-19.043,-14.648,0.000
1673805536.288,-62.500,-27.832,-24.902,-18.555,0.000
1673805536.292,-43.945,-31.738,-24.414,-30.273,0.000
1673805536.296,-35.645,-25.391,-23.438,-37.598,0.000
1673805536.300,-33.691,-19.531,-27.832,-43.945,0.000
1673805536.304,-20.508,-22.949,-27.344,-42.969,0.000
1673805536.308,-25.879,-23.926,-22.949,-36.133,0.000
1673805536.311,-27.344,-20.996,-23.926,-35.645,0.000
1673805536.315,-19.043,-21.484,-28.320,-31.738,0.000
1673805536.319,-22.949,-18.555,-26.855,-27.344,0.000
1673805536.323,-27.832,-17.090,-23.438,-18.066,0.000
1673805536.327,-33.203,-20.996,-19.043,-2.930,0.000
1673805536.331,-37.109,-24.902,-17.578,-11.719,0.000
1673805536.335,-45.898,-22.461,-20.508,-28.809,0.000
1673805536.339,-45.410,-18.066,-23.438,-31.250,0.000
1673805536.343,-29.785,-17.090,-21.973,-25.879,0.000
1673805536.347,-14.648,-19.043,-20.508,-20.996,0.000
1673805536.351,-13.672,-22.461,-22.949,-19.531,0.000
1673805536.354,-20.020,-23.438,-24.414,-23.926,0.000
1673805536.358,-31.250,-27.832,-24.414,-18.066,0.000
1673805536.362,-32.227,-25.879,-23.438,-10.254,0.000
1673805536.366,-25.391,-22.461,-20.020,-21.973,0.000
1673805536.370,-34.180,-22.949,-19.043,-32.227,0.000
1673805536.374,-28.809,-20.996,-17.578,-27.832,0.000
1673805536.378,-21.484,-22.461,-21.973,-19.043,0.000
1673805536.382,-13.184,-27.832,-27.832,-27.832,0.000
1673805536.386,-3.906,-23.438,-29.297,-36.621,0.000
1673805536.390,-9.277,-13.184,-26.855,-32.715,0.000
1673805536.393,-26.855,-15.137,-26.855,-24.414,0.000
1673805536.397,-20.996,-15.137,-26.855,-9.766,0.000
1673805536.401,-26.367,-16.602,-23.926,-3.906,0.000
1673805536.405,-40.039,-23.926,-29.297,-19.531,0.000
1673805536.409,-20.996,-17.090,-23.926,-28.320,0.000
1673805536.413,-14.648,-14.160,-21.484,-19.043,0.000
1673805536.417,-18.555,-17.090,-22.949,-19.043,0.000
1673805536.421,-3.906,-21.484,-24.902,-35.645,0.000
1673805536.425,-5.371,-25.391,-27.832,-44.922,0.000
1673805536.429,-11.719,-20.020,-24.902,-34.668,0.000
1673805536.433,-5.371,-17.578,-23.926,-27.344,0.000
1673805536.436,3.418,-20.508,-26.367,-24.414,0.000
1673805536.440,6.348,-19.531,-30.273,-16.113,0.000
1673805536.444,-5.371,-20.020,-32.715,-9.277,0.000
1673805536.448,-20.996,-24.902,-31.250,-16.602,0.000
1673805536.452,-24.414,-23.926,-26.367,-20.996,0.000
1673805536.456,-5.371,-21.484,-25.391,-8.301,0.000
1673805536.460,-12.695,-24.902,-25.879,-4.395,0.000
1673805536.464,-41.504,-25.879,-29.297,-20.508,0.000
1673805536.468,-39.551,-27.832,-30.273,-23.926,0.000
1673805536.472,-27.832,-34.180,-26.367,-14.648,0.000
1673805536.475,-27.832,-37.109,-33.691,-12.695,0.000
1673805536.479,-38.086,-28.320,-41.016,-11.230,0.000
1673805536.483,-39.551,-26.855,-42.480,-21.484,0.000
1673805536.487,-34.180,-32.715,-39.551,-32.227,0.000
1673805536.491,-30.762,-34.668,-41.016,-25.879,0.000
1673805536.495,-21.973,-30.273,-40.039,-18.555,0.000
1673805536.499,-20.996,-22.461,-33.203,-15.625,0.000
1673805536.503,-18.066,-25.879,-30.273,-12.207,0.000
1673805536.507,-18.066,-27.344,-31.738,-12.207,0.000
1673805536.511,-19.531,-21.484,-37.598,-12.695,0.000
1673805536.515,-7.812,-22.461,-31.738,-5.371,0.000
1673805536.518,-9.766,-25.391,-30.762,-5.859,0.000
1673805536.522,-31.250,-30.273,-38.574,-7.812,0.000
1673805536.526,-36.621,-25.391,-33.203,-4.395,0.000
1673805536.530,-38.086,-21.484,-31.738,-1.953,0.000
1673805536.534,-41.016,-27.344,-38.086,-4.883,0.000
1673805536.538,-41.504,-32.715,-36.133,-21.484,0.000
1673805536.542,-33.203,-29.785,-31.738,-26.367,0.000
1673805536.546,-29.297,-25.391,-27.832,-12.695,0.000
1673805536.550,-39.062,-27.344,-27.344,-4.395,0.000
1673805536.554,-34.180,-25.879,-29.297,-11.230,0.000
1673805536.558,-20.508,-23.926,-26.855,-18.555,0.000
1673805536.561,-22.461,-31.250,-27.832,-27.832,0.000
1673805536.565,-25.879,-29.785,-30.762,-33.691,0.000
1673805536.569,-30.762,-25.879,-29.785,-29.297,0.000
1673805536.573,-20.508,-22.949,-24.414,-24.902,0.000
1673805536.577,-15.625,-19.531,-18.555,-20.996,0.000
1673805536.581,-27.832,-15.137,-21.484,-28.809,0.000
1673805536.585,-31.250,-16.113,-26.855,-41.016,0.000
1673805536.589,-40.039,-24.902,-23.926,-40.527,0.000
1673805536.593,-40.039,-30.273,-24.414,-26.855,0.000
1673805536.597,-19.043,-29.297,-26.367,-23.926,0.000
1673805536.600,-12.695,-29.785,-24.902,-26.367,0.000
1673805536.604,-31.738,-30.762,-28.809,-35.156,0.000
1673805536.608,-36.621,-31.250,-29.785,-36.133,0.000
1673805536.612,-46.875,-27.832,-29.297,-16.113,0.000
1673805536.616,-52.734,-30.273,-26.367,-8.789,0.000
1673805536.620,-38.574,-39.551,-25.391,-12.207,0.000
1673805536.624,-25.391,-34.668,-34.668,-19.043,0.000
1673805536.628,-32.715,-29.785,-40.039,-31.250,0.000
1673805536.632,-47.852,-22.949,-36.133,-25.391,0.000
1673805536.636,-39.062,-20.020,-38.086,-19.043,0.000
1673805536.640,-15.137,-27.344,-42.480,-31.738,0.000
1673805536.643,-6.836,-23.926,-39.062,-27.832,0.000
1673805536.647,-20.020,-25.391,-35.645,-15.137,0.000
1673805536.651,-26.367,-26.367,-35.156,-10.254,0.000
1673805536.655,-26.367,-27.832,-37.109,-22.949,0.000
1673805536.659,-25.391,-30.762,-32.715,-31.738,0.000
1673805536.663,-12.207,-26.855,-28.320,-22.461,0.000
1673805536.667,-3.906,-27.832,-33.203,-17.090,0.000
1673805536.671,-10.742,-28.809,-34.180,-17.090,0.000
1673805536.675,-6.836,-29.785,-34.668,-26.855,0.000
1673805536.679,-11.719,-31.738,-36.133,-21.484,0.000
1673805536.683,-25.391,-32.715,-32.715,-20.508,0.000
1673805536.686,-33.203,-32.227,-32.227,-21.973,0.000
1673805536.690,-35.645,-35.645,-31.738,-22.461,0.000
1673805536.694,-28.320,-40.527,-27.344,-9.277,0.000
1673805536.698,-30.273,-29.297,-28.809,8.789,0.000
1673805536.702,-23.926,-17.090,-30.273,-1.953,0.000
1673805536.706,-6.836,-14.160,-31.250,-13.184,0.000
1673805536.710,-5.371,-16.113,-32.715,-20.996,0.000
1673805536.714,-9.277,-20.996,-33.203,-21.973,0.000
1673805536.718,3.906,-19.531,-30.762,-16.602,0.000
1673805536.722,8.301,-21.973,-28.809,-8.301,0.000
1673805536.725,-4.395,-23.438,-33.691,0.488,0.000
1673805536.729,-11.230,-16.113,-36.133,-20.508,0.000
1673805536.733,-18.066,-15.625,-36.133,-36.133,0.000
1673805536.737,-27.344,-20.508,-37.109,-26.367,0.000
1673805536.741,-17.090,-19.043,-31.250,-11.719,0.000
1673805536.745,-22.461,-17.578,-29.785,-7.324,0.000
1673805536.749,-32.227,-20.996,-28.320,-12.695,0.000
1673805536.753,-21.973,-25.391,-24.902,-10.742,0.000
1673805536.757,-35.645,-20.996,-31.250,-6.348,0.000
1673805536.761,-39.551,-19.531,-35.645,-11.719,0.000
1673805536.765,-41.992,-24.414,-33.203,-28.320,0.000
1673805536.768,-32.715,-28.320,-37.109,-46.875,0.000
1673805536.772,-14.160,-32.715,-42.969,-49.805,0.000
1673805536.776,-14.648,-32.715,-44.922,-41.992,0.000
1673805536.780,-30.273,-27.832,-41.504,-40.039,0.000
1673805536.784,-44.434,-21.973,-32.715,-39.062,0.000
1673805536.788,-40.527,-18.066,-31.250,-30.762,0.000
1673805536.792,-24.902,-25.391,-35.156,-31.738,0.000
1673805536.796,-12.207,-36.621,-31.250,-31.250,0.000
1673805536.800,-9.277,-34.668,-28.320,-26.855,0.000
1673805536.804,-20.996,-25.391,-29.297,-30.273,0.000
1673805536.808,-40.039,-28.320,-33.203,-39.062,0.000
1673805536.811,-42.969,-28.320,-35.156,-45.410,0.000
1673805536.815,-40.527,-27.344,-31.738,-49.805,0.000
1673805536.819,-32.227,-31.738,-29.297,-48.828,0.000
1673805536.823,-29.785,-36.133,-25.879,-37.598,0.000
1673805536.827,-45.898,-37.109,-28.809,-29.785,0.000
1673805536.831,-43.457,-29.297,-33.691,-20.508,0.000
1673805536.835,-37.109,-27.832,-31.250,-11.719,0.000
1673805536.839,-25.391,-31.738,-27.832,-12.207,0.000
1673805536.843,-31.738,-30.762,-27.832,-16.113,0.000
1673805536.847,-44.434,-30.762,-23.926,-20.508,0.000
1673805536.850,-37.109,-27.832,-20.508,-21.973,0.000
1673805536.854,-11.719,-29.297,-22.949,-19.043,0.000
1673805536.858,-21.973,-32.227,-27.832,-10.742,0.000
1673805536.862,-44.922,-29.785,-29.785,-7.324,0.000
1673805536.866,-49.316,-32.227,-33.691,-22.461,0.000
1673805536.870,-49.805,-31.250,-32.227,-39.062,0.000
1673805536.874,-34.180,-28.320,-31.738,-34.668,0.000
1673805536.878,-30.762,-29.785,-33.691,-26.367,0.000
1673805536.882,-27.344,-26.855,-32.715,-16.113,0.000
1673805536.886,-33.203,-25.879,-29.297,-8.301,0.000
1673805536.890,-48.828,-32.227,-25.391,-4.883,0.000
1673805536.893,-41.504,-31.250,-25.879,-12.207,0.000
1673805536.897,-23.926,-23.438,-27.832,-27.832,0.000
1673805536.901,-4.395,-14.160,-26.855,-25.391,0.000
1673805536.905,-11.230,-17.090,-26.855,-9.766,0.000
1673805536.909,-44.434,-23.438,-27.832,-6.836,0.000
1673805536.913,-41.992,-23.438,-27.344,-13.672,0.000
1673805536.917,-18.555,-25.879,-23.438,-16.602,0.000
1673805536.921,-12.695,-29.297,-23.926,-14.648,0.000
1673805536.925,-10.742,-29.785,-27.344,-17.578,0.000
1673805536.929,-7.324,-32.715,-26.855,-19.531,0.000
1673805536.933,-23.926,-32.715,-20.996,-18.066,0.000
1673805536.936,-20.020,-29.785,-27.344,-23.926,0.000
1673805536.940,-5.371,-24.902,-29.297,-19.043,0.000
1673805536.944,-2.441,-22.949,-23.926,-18.066,0.000
1673805536.948,-25.391,-28.320,-29.785,-20.508,0.000
1673805536.952,-57.129,-31.738,-33.691,-25.879,0.000
1673805536.956,-40.527,-30.762,-31.250,-34.668,0.000
1673805536.960,-29.297,-30.762,-28.320,-27.832,0.000
1673805536.964,-39.062,-31.738,-26.855,-8.789,0.000
1673805536.968,-37.598,-28.320,-23.438,-4.395,0.000
1673805536.972,-30.273,-29.785,-25.391,-22.949,0.000
1673805536.975,-27.344,-29.785,-30.762,-25.879,0.000
1673805536.979,-25.879,-28.809,-33.691,-17.090,0.000
1673805536.983,-25.879,-31.738,-30.762,-28.320,0.000
1673805536.987,-43.457,-29.785,-28.320,-37.109,0.000
1673805536.991,-56.641,-29.297,-28.320,-15.625,0.000
1673805536.995,-40.527,-25.879,-24.414,0.977,0.000
1673805536.999,-25.879,-20.020,-21.484,-18.555,0.000
1673805537.003,-26.367,-18.066,-24.902,-27.344,0.000
1673805537.007,-30.762,-18.555,-24.902,-21.973,0.000
1673805537.011,-22.461,-20.020,-22.461,-22.949,0.000
1673805537.015,-12.207,-20.020,-27.344,-30.273,0.000
1673805537.018,-5.371,-22.949,-33.203,-45.898,0.000
1673805537.022,5.859,-25.391,-26.855,-43.457,0.000
1673805537.026,6.836,-23.438,-27.832,-33.691,0.000
1673805537.030,-9.277,-24.414,-32.715,-33.203,0.000
1673805537.034,-16.113,-28.320,-30.273,-27.832,0.000
1673805537.038,-19.043,-27.344,-27.344,-20.996,0.000
1673805537.042,-41.504,-22.949,-23.438,-12.695,0.000
1673805537.046,-40.527,-23.438,-20.020,-5.371,0.000
1673805537.050,-30.762,-24.902,-23.926,-6.836,0.000
1673805537.054,-13.184,-15.625,-20.996,4.883,0.000
1673805537.058,-4.883,-17.578,-18.066,-2.441,0.000
1673805537.061,-20.020,-24.414,-21.484,-27.344,0.000
1673805537.065,-30.273,-22.949,-22.949,-23.438,0.000
1673805537.069,-40.039,-24.414,-24.902,-21.973,0.000
1673805537.073,-39.062,-22.949,-28.320,-22.949,0.000
1673805537.077,-39.551,-16.113,-24.902,-9.277,0.000
1673805537.081,-44.434,-12.695,-17.578,-2.930,0.000
1673805537.085,-34.668,-13.184,-18.066,-6.348,0.000
1673805537.089,-22.461,-12.695,-17.578,-9.766,0.000
1673805537.093,-22.461,-15.137,-17.578,-18.555,0.000
1673805537.097,-20.508,-14.160,-17.578,-16.113,0.000
1673805537.100,-11.230,-9.277,-14.160,-6.348,0.000
1673805537.104,5.371,-11.719,-17.578,-10.742,0.000
1673805537.108,4.395,-13.184,-20.020,-22.461,0.000
1673805537.112,-20.020,-18.555,-19.043,-13.672,0.000
1673805537.116,-27.832,-22.949,-19.531,-1.465,0.000
1673805537.120,-22.461,-13.672,-21.484,-9.766,0.000
1673805537.124,-22.461,-9.277,-21.973,-9.766,0.000
1673805537.128,-12.207,-12.207,-20.508,-4.395,0.000
1673805537.132,-12.695,-19.531,-23.926,-5.371,0.000
1673805537.136,-29.297,-24.414,-31.738,-4.395,0.000
1673805537.140,-28.809,-16.602,-24.414,-4.883,0.000
1673805537.143,-25.879,-11.719,-18.066,5.371,0.000
1673805537.147,-19.043,-16.602,-20.020,11.719,0.000
1673805537.151,-13.672,-23.438,-21.973,-7.812,0.000
1673805537.155,-10.254,-21.973,-25.391,-20.508,0.000
1673805537.159,-5.859,-20.508,-27.832,-26.855,0.000
1673805537.163,-2.441,-20.020,-29.785,-27.344,0.000
1673805537.167,-1.465,-18.066,-30.273,-23.438,0.000
1673805537.171,-7.812,-21.973,-27.832,-15.625,0.000
1673805537.175,-14.160,-23.438,-26.855,-3.418,0.000
1673805537.179,-10.742,-18.555,-28.320,-5.859,0.000
1673805537.183,-6.836,-15.137,-21.973,-11.719,0.000
1673805537.186,-13.184,-22.461,-22.461,-28.320,0.000
1673805537.190,0.000,-22.461,-20.020,-45.898,0.000
1673805537.194,14.160,-20.508,-21.973,-37.109,0.000
1673805537.198,-15.625,-24.902,-25.391,-37.109,0.000
1673805537.202,-20.996,-25.391,-22.461,-46.387,0.000
1673805537.206,-18.555,-28.320,-27.344,-34.668,0.000
1673805537.210,-34.668,-29.297,-29.297,-23.926,0.000
1673805537.214,-30.273,-21.973,-20.508,-20.020,0.000
1673805537.218,-50.293,-20.020,-17.578,-9.766,0.000
1673805537.222,-54.688,-22.949,-25.391,-8.789,0.000
1673805537.225,-25.879,-25.879,-29.785,-9.766,0.000
1673805537.229,-21.484,-22.949,-23.438,-1.953,0.000
1673805537.233,-21.973,-17.090,-20.996,4.395,0.000
1673805537.237,-31.250,-17.578,-24.414,6.836,0.000
1673805537.241,-33.691,-21.484,-26.855,5.859,0.000
1673805537.245,-20.020,-22.949,-27.832,-7.324,0.000
1673805537.249,-37.109,-20.020,-24.902,-21.973,0.000
1673805537.253,-32.715,-16.113,-24.902,-12.207,0.000
1673805537.257,-10.254,-17.578,-24.902,-7.812,0.000
1673805537.261,-4.395,-19.531,-27.832,-14.648,0.000
1673805537.265,1.953,-17.090,-25.391,-11.719,0.000
1673805537.268,-2.441,-17.090,-20.996,-7.812,0.000
1673805537.272,-13.184,-21.484,-25.391,-8.301,0.000
1673805537.276,-3.906,-19.043,-22.461,-15.137,0.000
1673805537.280,19.531,-15.625,-22.461,-19.043,0.000
1673805537.284,24.414,-13.672,-25.879,-20.996,0.000
1673805537.288,-1.953,-17.578,-25.391,-21.973,0.000
1673805537.292,-21.484,-19.531,-24.902,-6.348,0.000
1673805537.296,-25.879,-20.508,-21.973,-15.137,0.000
1673805537.300,-24.902,-20.996,-25.879,-28.809,0.000
1673805537.304,-10.254,-21.973,-35.645,-28.320,0.000
1673805537.307,0.488,-20.996,-36.133,-23.438,0.000
1673805537.311,-19.531,-23.926,-30.273,-10.254,0.000
1673805537.315,-25.391,-23.438,-27.832,-2.930,0.000
1673805537.319,-27.832,-18.066,-29.297,-10.254,0.000
1673805537.323,-40.527,-17.578,-30.273,-12.207,0.000
1673805537.327,-34.180,-19.043,-29.297,3.418,0.000
1673805537.331,-27.344,-23.926,-26.855,12.207,0.000
1673805537.335,-40.527,-26.367,-28.809,20.508,0.000
1673805537.339,-46.387,-24.414,-26.367,8.789,0.000
1673805537.343,-30.762,-25.879,-25.391,-21.973,0.000
1673805537.347,-29.297,-33.203,-27.832,-31.250,0.000
1673805537.350,-17.090,-31.250,-29.297,-28.809,0.000
1673805537.354,-6.836,-21.973,-27.832,-18.066,0.000
1673805537.358,-8.789,-21.484,-23.926,-10.742,0.000
1673805537.362,-6.348,-24.902,-25.879,-9.277,0.000
1673805537.366,-10.254,-24.902,-27.832,-10.742,0.000
1673805537.370,-26.855,-27.832,-28.320,-14.648,0.000
1673805537.374,-26.367,-25.391,-30.273,-12.695,0.000
1673805537.378,-26.367,-24.414,-33.203,-16.602,0.000
1673805537.382,-20.020,-21.484,-32.227,-15.137,0.000
1673805537.386,-3.418,-22.949,-29.297,-12.695,0.000
1673805537.390,-8.301,-23.438,-32.227,-24.902,0.000
1673805537.393,-10.742,-22.949,-30.273,-24.414,0.000
1673805537.397,-15.137,-21.973,-28.320,-20.508,0.000
1673805537.401,-25.391,-19.531,-33.203,-27.344,0.000
1673805537.405,-32.715,-21.973,-35.645,-31.738,0.000
1673805537.409,-41.992,-30.762,-34.668,-30.762,0.000
1673805537.413,-48.828,-35.156,-34.180,-33.691,0.000
1673805537.417,-50.781,-31.250,-33.203,-42.969,0.000
1673805537.421,-43.457,-29.297,-31.250,-45.410,0.000
1673805537.425,-25.879,-29.297,-29.785,-39.062,0.000
1673805537.429,-21.973,-32.227,-25.391,-20.996,0.000
1673805537.432,-36.133,-30.273,-20.508,-14.160,0.000
1673805537.436,-33.691,-29.785,-27.344,-31.738,0.000
1673805537.440,-24.414,-34.180,-32.227,-22.949,0.000
1673805537.444,-17.090,-34.668,-29.785,-22.949,0.000
1673805537.448,-20.020,-33.203,-29.785,-36.621,0.000
1673805537.452,-18.066,-28.320,-31.738,-37.598,0.000
1673805537.456,-26.855,-23.438,-31.738,-32.715,0.000
1673805537.460,-43.945,-32.227,-37.109,-22.461,0.000
1673805537.464,-34.668,-40.039,-39.062,-15.137,0.000
1673805537.468,-14.648,-32.227,-30.273,-0.977,0.000
1673805537.472,-8.789,-28.320,-24.902,-6.348,0.000
1673805537.475,-21.973,-27.344,-29.297,-13.672,0.000
1673805537.479,-39.062,-27.832,-29.785,-11.230,0.000
1673805537.483,-35.156,-26.855,-24.414,-23.438,0.000
1673805537.487,-34.180,-24.902,-27.832,-33.691,0.000
1673805537.491,-31.250,-28.809,-36.133,-42.480,0.000
1673805537.495,-20.508,-22.461,-36.133,-39.551,0.000
1673805537.499,-23.438,-20.508,-31.250,-28.809,0.000
1673805537.503,-19.043,-21.973,-27.832,-24.414,0.000
1673805537.507,-13.184,-22.949,-30.273,-25.391,0.000
1673805537.511,-36.621,-20.996,-35.645,-21.973,0.000
1673805537.515,-37.109,-22.461,-32.227,-26.367,0.000
1673805537.518,-23.438,-21.973,-27.344,-20.996,0.000
1673805537.522,-22.461,-17.090,-31.738,-13.184,0.000
1673805537.526,-16.113,-25.879,-31.738,-24.902,0.000
1673805537.530,-14.160,-31.738,-26.367,-20.996,0.000
1673805537.534,-27.344,-29.785,-27.832,-16.113,0.000
1673805537.538,-28.809,-29.297,-30.762,-23.926,0.000
1673805537.542,-19.531,-29.785,-29.785,-22.461,0.000
1673805537.546,-20.020,-28.809,-24.414,-15.625,0.000
1673805537.550,-13.672,-20.996,-22.461,-6.836,0.000
1673805537.554,-15.625,-19.531,-26.855,-5.859,0.000
1673805537.557,-16.113,-22.949,-27.832,-7.812,0.000
1673805537.561,-6.348,-27.344,-27.832,1.953,0.000
1673805537.565,-22.461,-27.344,-25.391,5.371,0.000
1673805537.569,-45.410,-25.391,-24.414,0.977,0.000
1673805537.573,-36.133,-28.320,-25.391,-2.441,0.000
1673805537.577,-20.020,-24.902,-23.438,-14.648,0.000
1673805537.581,-13.672,-22.949,-29.785,-27.344,0.000
1673805537.585,-6.836,-22.949,-37.598,-27.832,0.000
1673805537.589,-15.137,-31.738,-39.551,-30.273,0.000
1673805537.593,-36.133,-39.062,-33.691,-28.320,0.000
1673805537.597,-37.598,-28.320,-25.391,-18.555,0.000
1673805537.600,-34.180,-27.832,-27.344,-31.250,0.000
1673805537.604,-37.109,-32.227,-27.832,-41.016,0.000
1673805537.608,-27.344,-36.133,-30.273,-27.832,0.000
1673805537.612,-27.344,-39.062,-33.203,-19.531,0.000
1673805537.616,-47.852,-34.180,-31.738,-14.160,0.000
1673805537.620,-42.480,-31.738,-27.832,-16.113,0.000
1673805537.624,-40.039,-35.156,-25.879,-29.297,0.000
1673805537.628,-48.340,-38.574,-24.902,-32.715,0.000
1673805537.632,-55.176,-38.574,-25.879,-43.457,0.000
1673805537.636,-42.969,-33.203,-25.391,-43.457,0.000
1673805537.640,-24.414,-30.273,-24.414,-31.738,0.000
1673805537.643,-34.668,-37.598,-26.367,-26.367,0.000
1673805537.647,-42.969,-36.133,-33.203,-13.184,0.000
1673805537.651,-37.109,-27.832,-33.203,-12.695,0.000
1673805537.655,-27.344,-29.297,-25.391,-27.344,0.000
1673805537.659,-13.184,-34.668,-24.902,-30.762,0.000
1673805537.663,-0.977,-30.762,-24.902,-14.648,0.000
1673805537.667,-0.488,-28.809,-31.250,-12.695,0.000
1673805537.671,-17.578,-33.203,-36.133,-27.832,0.000
1673805537.675,-20.020,-29.785,-35.645,-31.738,0.000
1673805537.679,-3.418,-25.879,-34.180,-25.391,0.000
1673805537.682,-15.625,-23.926,-29.297,-16.602,0.000
1673805537.686,-37.598,-29.297,-35.645,-18.555,0.000
1673805537.690,-40.527,-29.297,-37.598,-19.043,0.000
1673805537.694,-49.316,-27.832,-34.180,-22.461,0.000
1673805537.698,-42.480,-30.762,-34.668,-30.762,0.000
1673805537.702,-18.066,-32.227,-29.785,-30.273,0.000
1673805537.706,-20.508,-26.855,-30.273,-26.855,0.000
1673805537.710,-37.109,-20.996,-36.133,-23.926,0.000
1673805537.714,-43.457,-22.461,-34.668,-16.113,0.000
1673805537.718,-48.340,-21.973,-28.320,-13.672,0.000
1673805537.722,-47.852,-21.973,-28.809,-23.438,0.000
1673805537.725,-42.969,-26.367,-30.762,-27.344,0.000
1673805537.729,-25.879,-27.832,-31.250,-27.344,0.000
1673805537.733,-18.555,-25.879,-29.297,-36.133,0.000
1673805537.737,-30.762,-25.391,-32.715,-41.016,0.000
1673805537.741,-23.926,-20.996,-30.762,-26.855,0.000
1673805537.745,-15.625,-24.414,-25.391,-20.020,0.000
1673805537.749,-26.855,-28.320,-25.879,-20.996,0.000
1673805537.753,-25.391,-22.949,-23.926,-20.020,0.000
1673805537.757,-11.719,-21.484,-23.438,-14.160,0.000
1673805537.761,-14.160,-20.996,-26.855,-13.672,0.000
1673805537.765,-21.484,-27.832,-28.809,-15.137,0.000
1673805537.768,-32.715,-38.086,-31.250,-10.254,0.000
1673805537.772,-36.133,-38.574,-35.645,-11.719,0.000
1673805537.776,-26.855,-30.273,-37.598,-15.137,0.000
1673805537.780,-27.344,-22.949,-35.645,-28.320,0.000
1673805537.784,-18.555,-23.438,-31.250,-42.480,0.000
1673805537.788,-16.113,-26.367,-32.715,-39.062,0.000
1673805537.792,-42.480,-34.180,-37.598,-28.809,0.000
1673805537.796,-45.410,-35.156,-37.598,-32.227,0.000
1673805537.800,-33.691,-32.715,-34.668,-44.922,0.000
1673805537.804,-40.527,-35.645,-34.668,-47.363,0.000
1673805537.807,-43.945,-36.133,-38.574,-43.945,0.000
1673805537.811,-61.523,-35.645,-36.621,-33.203,0.000
1673805537.815,-70.801,-34.180,-30.762,-20.996,0.000
1673805537.819,-51.758,-31.738,-32.227,-12.207,0.000
1673805537.823,-40.039,-31.250,-35.645,-17.090,0.000
1673805537.827,-37.109,-32.715,-36.133,-32.715,0.000
1673805537.831,-28.320,-38.574,-32.227,-32.227,0.000
1673805537.835,-21.973,-34.668,-29.297,-33.203,0.000
1673805537.839,-21.973,-23.438,-31.250,-29.785,0.000
1673805537.843,-20.996,-24.902,-33.691,-28.809,0.000
1673805537.847,-2.930,-28.320,-35.156,-28.809,0.000
1673805537.850,-3.418,-28.809,-29.297,-26.855,0.000
1673805537.854,-21.484,-22.461,-23.926,-31.250,0.000
1673805537.858,-14.648,-14.648,-27.832,-23.438,0.000
1673805537.862,-12.207,-12.207,-22.461,-15.137,0.000
1673805537.866,-9.277,-15.625,-18.555,-15.137,0.000
1673805537.870,-6.836,-20.508,-21.973,-22.461,0.000
1673805537.874,-12.207,-20.508,-22.461,-16.113,0.000
1673805537.878,-6.836,-22.461,-24.414,0.000,0.000
1673805537.882,-18.555,-25.879,-29.785,-4.395,0.000
1673805537.886,-30.273,-25.391,-32.715,-20.508,0.000
1673805537.890,-26.855,-23.438,-34.180,-24.414,0.000
1673805537.893,-33.691,-21.484,-36.621,-14.160,0.000
1673805537.897,-34.180,-17.578,-30.762,-11.230,0.000
1673805537.901,-31.738,-13.672,-25.879,-20.020,0.000
1673805537.905,-32.715,-21.973,-26.367,-30.762,0.000
1673805537.909,-30.273,-22.949,-23.926,-29.785,0.000
1673805537.913,-33.203,-16.113,-24.414,-32.227,0.000
1673805537.917,-49.316,-20.020,-29.297,-31.250,0.000
1673805537.921,-44.434,-20.020,-25.879,-26.367,0.000
1673805537.925,-31.738,-23.926,-24.902,-26.367,0.000
1673805537.929,-27.344,-27.832,-25.879,-20.508,0.000
1673805537.932,-30.273,-23.438,-27.344,-15.625,0.000
1673805537.936,-56.152,-18.066,-23.438,-14.160,0.000
1673805537.940,-60.547,-17.090,-19.043,-15.137,0.000
1673805537.944,-40.039,-19.531,-20.508,-19.531,0.000
1673805537.948,-33.691,-16.113,-21.484,-12.207,0.000
1673805537.952,-26.367,-15.137,-24.414,-13.184,0.000
1673805537.956,-7.324,-15.625,-23.438,-18.066,0.000
