timestamp,TP9,AF7,AF8,TP10,Right AUX
1673806009.813,20.020,-10.254,-20.508,4.883,0.000
1673806009.817,-1.953,-12.207,-24.414,-0.977,0.000
1673806009.821,0.488,-14.648,-26.367,-10.742,0.000
1673806009.825,6.348,-14.648,-20.020,-19.043,0.000
1673806009.829,-6.348,-14.648,-14.160,-20.508,0.000
1673806009.833,-9.766,-19.531,-11.719,-5.371,0.000
1673806009.837,-11.719,-20.996,-19.043,-9.277,0.000
1673806009.841,-13.672,-24.414,-27.344,-20.996,0.000
1673806009.844,-5.371,-23.926,-22.461,-22.949,0.000
1673806009.848,-6.348,-22.461,-23.926,-23.438,0.000
1673806009.852,-12.207,-20.020,-24.414,-26.367,0.000
1673806009.856,-5.859,-17.578,-21.484,-17.090,0.000
1673806009.860,-0.488,-15.625,-20.020,-15.137,0.000
1673806009.864,-2.930,-19.531,-24.902,-25.391,0.000
1673806009.868,-10.254,-27.832,-28.809,-26.855,0.000
1673806009.872,-11.230,-31.250,-27.344,-30.762,0.000
1673806009.876,-1.465,-26.367,-26.367,-36.133,0.000
1673806009.880,-0.977,-22.461,-29.297,-32.715,0.000
1673806009.884,-2.930,-25.879,-36.621,-27.832,0.000
1673806009.887,-6.348,-23.438,-36.621,-38.086,0.000
1673806009.891,-14.648,-19.531,-31.250,-38.574,0.000
1673806009.895,-17.090,-29.297,-32.715,-38.086,0.000
1673806009.899,-12.207,-27.344,-34.668,-37.109,0.000
1673806009.903,-2.441,-17.090,-34.180,-29.297,0.000
1673806009.907,2.441,-15.625,-36.133,-40.527,0.000
1673806009.911,-6.348,-20.996,-34.668,-54.199,0.000
1673806009.915,-16.602,-30.273,-34.668,-48.828,0.000
1673806009.919,-18.066,-40.527,-39.551,-44.922,0.000
1673806009.923,-18.066,-37.109,-37.598,-56.152,0.000
1673806009.926,-12.207,-29.297,-36.621,-59.570,0.000
1673806009.930,-12.695,-29.785,-37.598,-47.363,0.000
1673806009.934,-20.508,-30.762,-34.668,-36.621,0.000
1673806009.938,-31.250,-28.320,-34.180,-35.645,0.000
1673806009.942,-30.273,-31.738,-34.180,-40.527,0.000
1673806009.946,-17.578,-36.621,-35.645,-38.086,0.000
1673806009.950,-3.906,-31.250,-35.156,-27.344,0.000
1673806009.954,-7.324,-30.273,-37.109,-44.434,0.000
1673806009.958,-25.391,-31.738,-36.621,-57.129,0.000
1673806009.962,-25.879,-34.180,-35.645,-41.504,0.000
1673806009.966,-20.020,-36.133,-35.645,-29.297,0.000
1673806009.969,-29.785,-42.969,-32.715,-33.691,0.000
1673806009.973,-33.691,-42.969,-37.109,-39.062,0.000
1673806009.977,-27.344,-39.551,-42.969,-38.574,0.000
1673806009.981,-31.250,-39.062,-38.086,-33.203,0.000
1673806009.985,-39.551,-40.039,-35.645,-30.273,0.000
1673806009.989,-39.551,-44.434,-40.039,-32.715,0.000
1673806009.993,-32.715,-39.551,-37.109,-31.738,0.000
1673806009.997,-29.297,-36.621,-39.062,-27.832,0.000
1673806010.001,-35.645,-37.109,-47.363,-27.344,0.000
1673806010.005,-33.203,-37.598,-39.062,-35.645,0.000
1673806010.008,-22.949,-47.852,-33.691,-41.992,0.000
1673806010.012,-20.996,-47.363,-43.945,-41.992,0.000
1673806010.016,-12.695,-33.203,-44.922,-36.621,0.000
1673806010.020,-21.973,-29.785,-37.598,-33.691,0.000
1673806010.024,-12.207,-27.344,-34.668,-38.086,0.000
1673806010.028,2.930,-30.762,-41.016,-39.062,0.000
1673806010.032,-15.137,-36.133,-44.922,-38.086,0.000
1673806010.036,-22.949,-32.715,-38.086,-39.551,0.000
1673806010.040,-24.414,-30.762,-34.180,-40.039,0.000
1673806010.044,-24.414,-39.551,-35.645,-47.852,0.000
1673806010.048,-16.113,-37.109,-36.133,-41.992,0.000
1673806010.051,-16.602,-24.414,-37.109,-35.156,0.000
1673806010.055,-24.902,-30.762,-39.551,-39.551,0.000
1673806010.059,-19.043,-34.668,-41.504,-43.457,0.000
1673806010.063,-12.207,-27.832,-37.598,-34.668,0.000
1673806010.067,-22.949,-32.715,-36.133,-22.949,0.000
1673806010.071,-29.785,-37.598,-37.109,-23.926,0.000
1673806010.075,-25.879,-37.109,-37.109,-29.785,0.000
1673806010.079,-23.438,-35.645,-38.086,-26.855,0.000
1673806010.083,-20.508,-34.180,-45.410,-19.043,0.000
1673806010.087,-24.414,-39.551,-41.016,-19.531,0.000
1673806010.091,-20.020,-36.133,-31.250,-20.020,0.000
1673806010.094,-18.555,-34.180,-31.250,-13.672,0.000
1673806010.098,-24.902,-37.109,-33.203,-14.648,0.000
1673806010.102,-31.250,-38.574,-38.086,-20.020,0.000
1673806010.106,-30.762,-33.691,-38.574,-27.832,0.000
1673806010.110,-21.973,-31.250,-34.180,-21.484,0.000
1673806010.114,-24.902,-33.691,-34.180,-15.137,0.000
1673806010.118,-20.508,-22.949,-31.738,-17.578,0.000
1673806010.122,-7.324,-20.996,-32.227,-24.902,0.000
1673806010.126,5.371,-20.508,-35.645,-26.855,0.000
1673806010.130,14.160,-23.926,-35.156,-32.227,0.000
1673806010.133,-5.859,-35.645,-41.016,-33.691,0.000
1673806010.137,-26.367,-38.086,-48.340,-34.180,0.000
1673806010.141,-28.320,-35.156,-40.039,-30.762,0.000
1673806010.145,-28.320,-28.320,-37.598,-26.367,0.000
1673806010.149,-28.809,-26.367,-45.410,-27.832,0.000
1673806010.153,-20.996,-23.926,-42.969,-26.855,0.000
1673806010.157,-16.602,-21.484,-40.039,-32.227,0.000
1673806010.161,-21.973,-27.832,-41.992,-29.785,0.000
1673806010.165,-28.320,-33.691,-38.574,-27.832,0.000
1673806010.169,-30.273,-31.738,-39.062,-28.320,0.000
1673806010.173,-21.973,-28.320,-41.992,-28.809,0.000
1673806010.176,-12.695,-29.297,-37.109,-16.113,0.000
1673806010.180,-17.578,-32.715,-37.109,-6.348,0.000
1673806010.184,-23.926,-27.832,-32.715,-5.859,0.000
1673806010.188,-21.973,-19.043,-30.273,-11.230,0.000
1673806010.192,-30.273,-28.809,-36.621,-21.973,0.000
1673806010.196,-33.691,-38.086,-40.527,-27.344,0.000
1673806010.200,-35.156,-37.598,-39.551,-25.391,0.000
1673806010.204,-37.598,-32.227,-34.180,-30.762,0.000
1673806010.208,-32.715,-22.949,-33.203,-32.715,0.000
1673806010.212,-30.762,-19.043,-36.133,-33.203,0.000
1673806010.216,-33.203,-22.461,-35.645,-33.691,0.000
1673806010.219,-38.086,-30.273,-29.785,-22.461,0.000
1673806010.223,-36.133,-29.785,-28.809,-30.273,0.000
1673806010.227,-35.156,-29.297,-32.227,-36.621,0.000
1673806010.231,-32.227,-33.203,-38.086,-27.832,0.000
1673806010.235,-27.832,-35.645,-35.156,-27.344,0.000
1673806010.239,-39.062,-33.691,-26.855,-29.297,0.000
1673806010.243,-43.457,-30.762,-25.391,-23.926,0.000
1673806010.247,-38.574,-31.250,-27.344,-18.066,0.000
1673806010.251,-30.273,-32.227,-29.297,-20.020,0.000
1673806010.255,-21.484,-32.227,-29.297,-26.855,0.000
1673806010.258,-15.137,-25.391,-28.320,-27.344,0.000
1673806010.262,-11.719,-23.926,-27.344,-23.438,0.000
1673806010.266,-11.230,-21.973,-22.949,-13.184,0.000
1673806010.270,-9.277,-30.273,-20.996,-21.973,0.000
1673806010.274,-14.160,-37.598,-23.926,-23.926,0.000
1673806010.278,-21.973,-29.785,-27.344,-16.602,0.000
1673806010.282,-18.066,-26.367,-27.344,-15.625,0.000
1673806010.286,-20.508,-31.250,-31.738,-8.789,0.000
1673806010.290,-24.414,-27.832,-31.250,-11.719,0.000
1673806010.294,-20.020,-24.414,-27.832,-17.090,0.000
1673806010.298,-18.066,-32.715,-29.297,-12.207,0.000
1673806010.301,-20.508,-34.180,-32.715,-12.695,0.000
1673806010.305,-23.926,-33.203,-35.156,-20.508,0.000
1673806010.309,-23.438,-39.551,-31.250,-20.996,0.000
1673806010.313,-30.273,-44.922,-31.250,-13.672,0.000
1673806010.317,-40.527,-38.086,-32.715,-16.113,0.000
1673806010.321,-50.293,-27.344,-37.109,-11.230,0.000
1673806010.325,-45.410,-29.785,-38.574,-13.184,0.000
1673806010.329,-39.551,-29.785,-31.250,-20.996,0.000
1673806010.333,-43.945,-25.391,-30.273,-16.602,0.000
1673806010.337,-40.527,-24.902,-31.250,-17.578,0.000
1673806010.341,-48.340,-26.855,-33.691,-25.391,0.000
1673806010.344,-53.223,-26.367,-32.715,-24.414,0.000
1673806010.348,-41.992,-22.461,-32.715,-18.555,0.000
1673806010.352,-39.062,-26.855,-38.574,-19.531,0.000
1673806010.356,-34.668,-29.297,-38.574,-23.438,0.000
1673806010.360,-34.668,-30.273,-40.039,-29.297,0.000
1673806010.364,-29.785,-24.902,-39.551,-26.855,0.000
1673806010.368,-23.438,-21.484,-41.504,-24.902,0.000
1673806010.372,-19.043,-36.133,-42.480,-28.320,0.000
1673806010.376,-13.184,-42.969,-40.527,-29.785,0.000
1673806010.380,-4.883,-25.391,-35.156,-20.508,0.000
1673806010.383,3.418,-16.113,-30.273,-16.602,0.000
1673806010.387,4.883,-20.020,-30.273,-26.855,0.000
1673806010.391,1.465,-18.066,-26.855,-28.809,0.000
1673806010.395,1.465,-15.625,-20.996,-16.602,0.000
1673806010.399,-9.766,-17.090,-22.461,-7.812,0.000
1673806010.403,-19.531,-23.438,-31.738,-15.137,0.000
1673806010.407,-14.648,-37.598,-36.621,-35.156,0.000
1673806010.411,-5.859,-39.062,-35.645,-32.715,0.000
1673806010.415,-9.766,-26.855,-34.668,-19.043,0.000
1673806010.419,-17.578,-30.273,-41.016,-17.090,0.000
1673806010.423,-16.113,-33.691,-47.363,-21.484,0.000
1673806010.426,-16.113,-27.832,-41.016,-29.297,0.000
1673806010.430,-20.020,-25.879,-36.133,-23.438,0.000
1673806010.434,-28.809,-23.438,-34.180,-19.043,0.000
1673806010.438,-37.109,-23.926,-32.227,-19.043,0.000
1673806010.442,-37.109,-25.879,-31.250,-14.160,0.000
1673806010.446,-34.668,-21.973,-28.809,-10.742,0.000
1673806010.450,-31.738,-23.926,-27.832,-12.207,0.000
1673806010.454,-27.832,-34.668,-30.762,-19.043,0.000
1673806010.458,-18.555,-34.668,-31.738,-11.719,0.000
1673806010.462,-15.137,-23.438,-27.832,-13.184,0.000
1673806010.465,-22.461,-18.555,-27.344,-15.625,0.000
1673806010.469,-25.879,-24.414,-29.785,-9.766,0.000
1673806010.473,-25.879,-24.414,-32.227,-6.348,0.000
1673806010.477,-29.297,-21.973,-31.738,-10.742,0.000
1673806010.481,-28.809,-25.391,-29.785,-17.090,0.000
1673806010.485,-19.043,-23.926,-30.273,-9.277,0.000
1673806010.489,-19.043,-25.879,-29.297,-20.508,0.000
1673806010.493,-22.949,-34.668,-29.297,-37.598,0.000
1673806010.497,-20.020,-37.598,-36.133,-34.668,0.000
1673806010.501,-5.371,-21.973,-32.227,-21.973,0.000
1673806010.505,17.090,-16.113,-27.832,-23.926,0.000
1673806010.508,16.113,-20.996,-34.668,-38.574,0.000
1673806010.512,4.883,-13.672,-43.457,-39.551,0.000
1673806010.516,1.465,-11.230,-39.551,-33.203,0.000
1673806010.520,-6.836,-19.043,-34.180,-20.020,0.000
1673806010.524,-32.227,-24.902,-36.621,-19.043,0.000
1673806010.528,-47.852,-33.691,-36.133,-21.484,0.000
1673806010.532,-46.875,-36.621,-34.668,-19.531,0.000
1673806010.536,-44.922,-30.273,-26.855,-25.391,0.000
1673806010.540,-43.945,-26.855,-24.414,-37.598,0.000
1673806010.544,-35.156,-25.391,-29.785,-39.551,0.000
1673806010.548,-29.297,-26.855,-28.320,-22.461,0.000
1673806010.551,-36.621,-23.438,-27.344,-17.090,0.000
1673806010.555,-36.621,-19.531,-38.086,-33.691,0.000
1673806010.559,-31.250,-16.602,-31.250,-37.109,0.000
1673806010.563,-33.691,-21.484,-17.090,-33.203,0.000
1673806010.567,-31.250,-19.043,-16.602,-18.555,0.000
1673806010.571,-29.297,-15.137,-19.531,-16.113,0.000
1673806010.575,-21.484,-18.066,-20.996,-24.902,0.000
1673806010.579,-10.254,-15.625,-14.160,-22.461,0.000
1673806010.583,-5.371,-13.672,-12.695,-21.973,0.000
1673806010.587,-8.789,-21.484,-13.672,-23.438,0.000
1673806010.591,-4.395,-19.043,-10.254,-29.297,0.000
1673806010.594,6.348,-1.465,-12.207,-21.484,0.000
1673806010.598,-2.441,-9.277,-18.066,-18.066,0.000
1673806010.602,-12.207,-11.230,-20.996,-20.020,0.000
1673806010.606,-5.859,-13.184,-17.090,-21.973,0.000
1673806010.610,3.906,-20.508,-19.043,-20.020,0.000
1673806010.614,8.789,-13.184,-18.555,-10.742,0.000
1673806010.618,15.137,-13.184,-10.742,-18.066,0.000
1673806010.622,8.789,-11.719,-11.719,-24.414,0.000
1673806010.626,-2.441,-0.977,-13.184,-21.973,0.000
1673806010.630,-10.742,-2.441,-10.742,-14.648,0.000
1673806010.633,-18.066,-15.625,-9.277,-14.648,0.000
1673806010.637,-22.461,-17.090,-8.789,-12.207,0.000
1673806010.641,-23.926,-14.160,-11.230,-9.766,0.000
1673806010.645,-30.273,-20.996,-20.020,-13.672,0.000
1673806010.649,-23.926,-20.508,-21.484,-6.348,0.000
1673806010.653,-22.949,-11.230,-18.066,-11.719,0.000
1673806010.657,-28.809,-10.742,-18.066,-20.996,0.000
1673806010.661,-15.137,-10.254,-18.066,-19.531,0.000
1673806010.665,-7.324,-9.277,-21.484,-14.648,0.000
1673806010.669,-7.324,-12.695,-21.973,-18.066,0.000
1673806010.673,-3.418,-7.324,-17.090,-18.555,0.000
1673806010.676,-5.859,-9.277,-19.531,-9.766,0.000
1673806010.680,-5.859,-11.719,-17.090,-3.418,0.000
1673806010.684,-0.977,-13.184,-18.066,1.465,0.000
1673806010.688,-9.277,-20.508,-29.297,-7.812,0.000
1673806010.692,-5.371,-13.672,-28.809,-13.184,0.000
1673806010.696,1.953,-17.090,-26.367,-5.859,0.000
1673806010.700,-5.371,-28.320,-28.320,-13.184,0.000
1673806010.704,-13.672,-20.020,-23.926,-20.996,0.000
1673806010.708,-13.672,-11.230,-20.996,-19.531,0.000
1673806010.712,-9.277,-14.648,-21.973,-15.625,0.000
1673806010.716,-10.742,-18.555,-24.414,-18.555,0.000
1673806010.719,-8.301,-14.648,-26.367,-28.320,0.000
1673806010.723,5.371,-18.066,-23.438,-28.809,0.000
1673806010.727,14.160,-19.531,-18.066,-22.949,0.000
1673806010.731,-8.789,-26.855,-19.531,-24.902,0.000
1673806010.735,-21.973,-33.691,-25.879,-38.574,0.000
1673806010.739,-25.879,-25.391,-26.367,-43.945,0.000
1673806010.743,-47.363,-22.461,-31.250,-47.363,0.000
1673806010.747,-44.434,-23.438,-38.086,-36.133,0.000
1673806010.751,-30.273,-21.484,-32.715,-29.785,0.000
1673806010.755,-24.414,-24.414,-29.297,-37.109,0.000
1673806010.758,-19.531,-25.391,-34.180,-41.504,0.000
1673806010.762,-16.602,-33.203,-32.715,-40.527,0.000
1673806010.766,-18.066,-42.969,-31.250,-33.691,0.000
1673806010.770,-18.066,-35.156,-28.809,-40.527,0.000
1673806010.774,-8.789,-27.344,-30.273,-34.668,0.000
1673806010.778,-5.371,-27.344,-34.180,-21.484,0.000
1673806010.782,-10.742,-28.320,-36.133,-23.438,0.000
1673806010.786,-7.812,-26.367,-37.598,-22.461,0.000
1673806010.790,-3.906,-22.949,-39.062,-26.367,0.000
1673806010.794,-3.418,-22.461,-38.086,-26.367,0.000
1673806010.798,-6.348,-26.367,-31.738,-21.484,0.000
1673806010.801,-7.324,-32.227,-31.738,-26.367,0.000
1673806010.805,-1.953,-23.926,-33.203,-29.785,0.000
1673806010.809,-0.977,-17.090,-37.109,-33.203,0.000
1673806010.813,-6.348,-28.809,-37.109,-40.527,0.000
1673806010.817,-9.277,-27.344,-34.668,-26.367,0.000
1673806010.821,-4.395,-21.973,-37.598,-23.438,0.000
1673806010.825,-10.742,-29.297,-40.527,-46.875,0.000
1673806010.829,-12.695,-25.879,-39.551,-38.574,0.000
1673806010.833,-3.418,-21.973,-35.645,-23.438,0.000
1673806010.837,-7.812,-32.227,-30.762,-28.320,0.000
1673806010.840,-25.879,-48.828,-34.668,-32.715,0.000
1673806010.844,-41.504,-41.992,-37.598,-38.086,0.000
1673806010.848,-32.227,-21.973,-30.273,-30.762,0.000
1673806010.852,-23.926,-21.484,-29.785,-27.832,0.000
1673806010.856,-17.578,-27.832,-28.809,-31.250,0.000
1673806010.860,-13.184,-27.344,-24.414,-27.832,0.000
1673806010.864,-22.461,-29.785,-24.414,-23.926,0.000
1673806010.868,-26.855,-32.227,-24.902,-18.555,0.000
1673806010.872,-24.902,-38.086,-29.785,-24.414,0.000
1673806010.876,-18.555,-41.016,-26.855,-17.578,0.000
1673806010.880,-15.625,-42.480,-26.367,-15.625,0.000
1673806010.883,-15.137,-32.227,-37.598,-27.832,0.000
1673806010.887,-12.207,-23.926,-35.645,-35.156,0.000
1673806010.891,-0.977,-24.902,-28.809,-31.738,0.000
1673806010.895,-1.465,-29.297,-32.227,-21.484,0.000
1673806010.899,-17.578,-40.527,-35.645,-25.391,0.000
1673806010.903,-17.090,-35.156,-32.227,-33.203,0.000
1673806010.907,-14.160,-26.367,-30.273,-32.715,0.000
1673806010.911,-11.230,-30.762,-33.691,-16.602,0.000
1673806010.915,-9.277,-29.785,-35.645,-16.113,0.000
1673806010.919,-14.648,-14.160,-35.156,-15.137,0.000
1673806010.923,-15.137,-20.020,-34.668,-14.160,0.000
1673806010.926,-10.254,-29.785,-31.738,-20.508,0.000
1673806010.930,-3.906,-25.391,-29.785,-21.484,0.000
1673806010.934,-9.766,-31.250,-33.203,-26.855,0.000
1673806010.938,-12.695,-35.645,-38.086,-23.438,0.000
1673806010.942,-14.648,-27.344,-36.133,-23.926,0.000
1673806010.946,-17.090,-36.133,-33.203,-27.832,0.000
1673806010.950,-21.484,-44.434,-28.809,-24.414,0.000
1673806010.954,-44.922,-27.832,-28.809,-24.902,0.000
1673806010.958,-52.734,-20.996,-37.109,-26.855,0.000
1673806010.962,-42.480,-24.902,-41.992,-33.691,0.000
1673806010.965,-35.156,-20.508,-36.621,-29.297,0.000
1673806010.969,-36.621,-19.043,-31.250,-25.879,0.000
1673806010.973,-38.086,-28.809,-36.621,-33.203,0.000
1673806010.977,-31.738,-37.598,-40.039,-30.762,0.000
1673806010.981,-28.809,-29.297,-37.598,-24.414,0.000
1673806010.985,-27.832,-23.926,-37.598,-21.484,0.000
1673806010.989,-24.902,-26.367,-37.598,-28.320,0.000
1673806010.993,-22.949,-29.297,-39.062,-30.762,0.000
1673806010.997,-17.578,-30.762,-40.039,-32.227,0.000
1673806011.001,-11.719,-24.902,-37.109,-28.320,0.000
1673806011.005,-16.602,-29.785,-36.621,-23.926,0.000
1673806011.008,-12.695,-25.879,-37.598,-29.785,0.000
1673806011.012,-6.348,-23.438,-36.133,-23.926,0.000
1673806011.016,-13.672,-25.879,-35.645,-19.043,0.000
1673806011.020,-14.160,-18.555,-32.715,-21.484,0.000
1673806011.024,-5.371,-20.996,-29.297,-22.949,0.000
1673806011.028,5.859,-22.461,-30.762,-19.531,0.000
1673806011.032,-5.371,-28.809,-38.574,-21.973,0.000
1673806011.036,-25.391,-39.062,-34.668,-25.879,0.000
1673806011.040,-22.461,-23.926,-24.902,-23.438,0.000
1673806011.044,-14.648,-15.625,-26.367,-26.855,0.000
1673806011.048,-15.137,-25.879,-27.832,-22.461,0.000
1673806011.051,-13.672,-25.879,-28.320,-12.695,0.000
1673806011.055,-14.160,-19.531,-26.367,-17.090,0.000
1673806011.059,-22.949,-25.879,-22.949,-22.949,0.000
1673806011.063,-27.344,-28.809,-29.297,-17.578,0.000
1673806011.067,-25.879,-22.949,-37.109,-17.578,0.000
1673806011.071,-22.949,-24.902,-36.133,-22.461,0.000
1673806011.075,-16.113,-19.531,-31.250,-20.020,0.000
1673806011.079,-15.137,-22.949,-32.715,-20.996,0.000
1673806011.083,-20.996,-26.855,-33.691,-24.902,0.000
1673806011.087,-19.043,-29.297,-32.715,-30.762,0.000
1673806011.090,-20.996,-28.809,-34.668,-36.621,0.000
1673806011.094,-29.297,-28.320,-34.180,-37.598,0.000
1673806011.098,-23.926,-29.785,-28.809,-30.762,0.000
1673806011.102,-22.949,-24.902,-30.762,-32.227,0.000
1673806011.106,-22.949,-23.926,-38.086,-41.992,0.000
1673806011.110,-13.672,-30.762,-38.086,-45.898,0.000
1673806011.114,-3.418,-24.902,-32.715,-33.691,0.000
1673806011.118,5.859,-15.137,-28.809,-12.207,0.000
1673806011.122,-0.977,-23.438,-33.203,-20.020,0.000
1673806011.126,-15.625,-33.203,-41.992,-32.715,0.000
1673806011.130,-20.020,-31.738,-40.039,-21.484,0.000
1673806011.133,-20.996,-26.367,-32.227,-18.066,0.000
1673806011.137,-19.531,-35.645,-35.645,-21.973,0.000
1673806011.141,-10.742,-41.504,-40.527,-24.902,0.000
1673806011.145,4.883,-29.297,-39.062,-23.926,0.000
1673806011.149,4.883,-39.062,-39.551,-17.090,0.000
1673806011.153,-1.465,-47.852,-39.551,-21.973,0.000
1673806011.157,-9.277,-25.391,-38.574,-35.156,0.000
1673806011.161,-21.973,-19.043,-33.691,-30.762,0.000
1673806011.165,-17.090,-20.996,-25.391,-8.789,0.000
1673806011.169,-16.602,-17.578,-29.785,-14.160,0.000
1673806011.172,-20.508,-23.926,-35.156,-27.344,0.000
1673806011.176,-20.508,-37.109,-36.133,-29.297,0.000
1673806011.180,-24.414,-33.691,-39.062,-21.973,0.000
1673806011.184,-31.738,-28.809,-35.645,-27.832,0.000
1673806011.188,-32.227,-36.133,-38.086,-36.621,0.000
1673806011.192,-20.996,-32.715,-43.457,-31.250,0.000
1673806011.196,-23.438,-28.809,-39.062,-34.668,0.000
1673806011.200,-32.715,-36.133,-36.621,-41.504,0.000
1673806011.204,-26.855,-34.180,-38.574,-47.363,0.000
1673806011.208,-24.902,-24.414,-33.203,-43.945,0.000
1673806011.212,-41.504,-28.320,-36.621,-38.086,0.000
1673806011.215,-39.062,-34.668,-41.016,-37.598,0.000
1673806011.219,-27.344,-31.250,-32.715,-39.062,0.000
1673806011.223,-31.250,-29.297,-30.762,-42.969,0.000
1673806011.227,-24.414,-26.855,-30.762,-45.410,0.000
1673806011.231,-24.414,-21.973,-32.715,-42.969,0.000
1673806011.235,-20.020,-22.461,-27.344,-33.203,0.000
1673806011.239,-7.324,-21.973,-23.438,-24.414,0.000
1673806011.243,-7.812,-18.555,-28.809,-28.320,0.000
1673806011.247,-5.859,-21.484,-28.320,-25.879,0.000
1673806011.251,0.977,-27.832,-25.879,-19.043,0.000
1673806011.255,4.883,-19.531,-20.508,-21.973,0.000
1673806011.258,4.395,-8.301,-18.555,-31.250,0.000
1673806011.262,-6.836,-15.625,-24.414,-26.367,0.000
1673806011.266,-8.789,-23.438,-25.391,-12.695,0.000
1673806011.270,-0.977,-16.113,-23.438,-14.648,0.000
1673806011.274,-6.836,-10.254,-22.949,-19.531,0.000
1673806011.278,-4.395,-10.254,-23.926,-14.160,0.000
1673806011.282,4.883,-13.184,-25.391,-11.230,0.000
1673806011.286,-6.836,-22.949,-21.973,-15.625,0.000
1673806011.290,-18.066,-25.879,-22.461,-20.996,0.000
1673806011.294,-8.301,-20.996,-27.832,-24.902,0.000
1673806011.297,-9.277,-21.484,-22.949,-19.531,0.000
1673806011.301,-16.602,-25.879,-24.414,-16.113,0.000
1673806011.305,-14.160,-27.832,-34.180,-27.344,0.000
1673806011.309,-8.301,-24.414,-28.320,-22.949,0.000
1673806011.313,-1.953,-23.438,-25.391,-15.625,0.000
1673806011.317,-12.207,-23.438,-27.832,-10.254,0.000
1673806011.321,-39.062,-20.508,-28.809,-19.043,0.000
1673806011.325,-35.645,-25.879,-31.250,-26.367,0.000
1673806011.329,-28.809,-30.762,-34.180,-19.043,0.000
1673806011.333,-34.180,-30.762,-38.086,-22.949,0.000
1673806011.337,-26.367,-38.574,-38.574,-26.855,0.000
1673806011.340,-24.902,-37.109,-36.133,-32.715,0.000
1673806011.344,-27.344,-27.344,-36.133,-30.273,0.000
1673806011.348,-20.508,-26.367,-41.992,-29.785,0.000
1673806011.352,-18.066,-30.273,-39.062,-31.738,0.000
1673806011.356,-25.391,-30.762,-35.645,-36.621,0.000
1673806011.360,-18.555,-21.973,-35.645,-42.480,0.000
1673806011.364,-22.949,-28.320,-32.227,-32.227,0.000
1673806011.368,-26.855,-31.250,-29.297,-21.484,0.000
1673806011.372,-18.555,-24.902,-31.250,-23.438,0.000
1673806011.376,-18.066,-26.367,-30.762,-29.297,0.000
1673806011.380,-11.719,-24.414,-17.090,-16.602,0.000
1673806011.383,-14.160,-25.391,-21.484,-16.113,0.000
1673806011.387,-9.766,-19.531,-30.762,-18.555,0.000
1673806011.391,-4.395,-13.184,-27.344,-12.207,0.000
1673806011.395,-6.348,-22.461,-26.855,-17.578,0.000
1673806011.399,-15.625,-27.344,-32.227,-15.137,0.000
1673806011.403,-22.949,-24.902,-35.156,-11.230,0.000
1673806011.407,-13.184,-28.320,-27.344,-17.578,0.000
1673806011.411,-8.301,-20.508,-25.391,-22.949,0.000
1673806011.415,-16.602,-7.812,-19.043,-14.160,0.000
1673806011.419,-20.020,-9.766,-15.137,-8.301,0.000
1673806011.422,-15.137,-21.484,-18.555,-13.672,0.000
1673806011.426,-6.348,-18.555,-24.902,-10.742,0.000
1673806011.430,-9.277,-9.766,-27.832,-6.836,0.000
1673806011.434,-16.602,-11.230,-19.531,-0.977,0.000
1673806011.438,-13.184,-20.020,-17.578,-0.488,0.000
1673806011.442,4.395,-20.508,-20.020,-19.531,0.000
1673806011.446,18.555,-1.465,-21.484,-20.020,0.000
1673806011.450,13.184,-0.977,-19.531,-11.230,0.000
1673806011.454,-7.812,-12.207,-18.555,-26.367,0.000
1673806011.458,-20.020,-13.184,-20.020,-30.762,0.000
1673806011.462,-19.043,-11.719,-18.555,-20.508,0.000
1673806011.465,-20.996,-14.160,-20.020,-14.648,0.000
1673806011.469,-23.926,-16.113,-21.973,-23.438,0.000
1673806011.473,-18.555,-14.160,-21.484,-28.809,0.000
1673806011.477,-8.301,-7.324,-17.578,-16.113,0.000
1673806011.481,-1.465,-4.883,-16.602,-4.883,0.000
1673806011.485,-14.648,-7.812,-20.508,-15.137,0.000
1673806011.489,-18.555,-2.930,-20.020,-21.973,0.000
1673806011.493,-5.371,-5.371,-19.043,-23.438,0.000
1673806011.497,-6.348,-12.207,-23.926,-16.113,0.000
1673806011.501,-8.789,-9.766,-20.020,-14.160,0.000
1673806011.505,-9.766,-16.113,-11.230,-30.762,0.000
1673806011.508,-12.695,-17.578,-15.625,-28.809,0.000
1673806011.512,-4.883,-14.648,-27.832,-16.113,0.000
1673806011.516,3.418,-19.043,-29.785,-14.648,0.000
1673806011.520,-0.488,-19.531,-25.391,-19.531,0.000
1673806011.524,0.977,-8.301,-18.555,-10.254,0.000
1673806011.528,-8.301,-11.719,-15.137,-10.742,0.000
1673806011.532,-17.578,-23.926,-24.414,-11.230,0.000
1673806011.536,-10.742,-24.902,-34.668,-6.348,0.000
1673806011.540,-5.859,-24.902,-33.691,-19.531,0.000
1673806011.544,-5.371,-27.344,-30.273,-30.273,0.000
1673806011.547,-12.207,-24.902,-30.273,-20.020,0.000
1673806011.551,-25.391,-15.137,-25.879,-15.625,0.000
1673806011.555,-27.344,-15.137,-23.438,-13.184,0.000
1673806011.559,-31.250,-23.926,-23.926,-14.160,0.000
1673806011.563,-34.180,-20.508,-24.414,-13.184,0.000
1673806011.567,-26.367,-15.137,-23.926,-2.930,0.000
1673806011.571,-23.926,-15.625,-24.414,-13.184,0.000
1673806011.575,-27.832,-26.367,-28.809,-27.832,0.000
1673806011.579,-26.855,-29.297,-25.879,-28.809,0.000
1673806011.583,-21.973,-15.625,-24.414,-28.320,0.000
1673806011.587,-26.367,-26.367,-30.273,-32.715,0.000
1673806011.590,-26.367,-35.645,-30.762,-42.480,0.000
1673806011.594,-11.719,-32.227,-28.320,-33.691,0.000
1673806011.598,-7.812,-31.738,-32.715,-22.949,0.000
1673806011.602,-14.648,-23.926,-35.156,-24.902,0.000
1673806011.606,-18.555,-26.367,-38.086,-25.879,0.000
1673806011.610,-13.672,-27.344,-40.039,-21.484,0.000
1673806011.614,-16.113,-20.996,-33.203,-13.672,0.000
1673806011.618,-20.020,-22.949,-31.250,-11.719,0.000
1673806011.622,-15.137,-18.555,-30.762,-15.625,0.000
1673806011.626,-14.160,-19.531,-30.273,-14.160,0.000
1673806011.629,-19.531,-28.809,-38.574,-9.277,0.000
1673806011.633,-27.344,-30.273,-41.504,-16.602,0.000
1673806011.637,-21.484,-30.273,-32.715,-22.461,0.000
1673806011.641,-7.812,-26.367,-28.320,-23.926,0.000
1673806011.645,-7.324,-22.461,-31.250,-20.020,0.000
1673806011.649,-19.043,-24.902,-24.902,-4.395,0.000
1673806011.653,-33.691,-31.250,-22.461,-3.418,0.000
1673806011.657,-36.133,-34.180,-25.879,0.488,0.000
1673806011.661,-36.133,-30.762,-20.508,1.465,0.000
1673806011.665,-41.992,-30.273,-29.297,-9.277,0.000
1673806011.669,-44.434,-29.297,-32.227,-15.625,0.000
1673806011.672,-39.062,-31.250,-28.320,-14.160,0.000
1673806011.676,-36.133,-35.156,-32.715,-20.996,0.000
1673806011.680,-36.133,-28.320,-39.551,-36.621,0.000
1673806011.684,-29.297,-14.160,-41.016,-35.156,0.000
1673806011.688,-20.020,-12.207,-31.738,-34.668,0.000
1673806011.692,-13.672,-17.090,-33.203,-39.551,0.000
1673806011.696,-19.043,-17.578,-30.762,-36.133,0.000
1673806011.700,-25.879,-29.297,-29.297,-23.438,0.000
1673806011.704,-27.832,-29.297,-32.227,-13.672,0.000
1673806011.708,-19.531,-20.020,-29.297,-13.184,0.000
1673806011.712,-13.184,-24.414,-31.250,-13.672,0.000
1673806011.715,-12.207,-26.855,-25.879,-10.254,0.000
1673806011.719,-6.348,-25.879,-27.832,-6.348,0.000
1673806011.723,-5.859,-28.320,-33.691,-13.184,0.000
1673806011.727,-3.906,-22.461,-30.762,-14.160,0.000
1673806011.731,0.977,-19.043,-25.391,-7.812,0.000
1673806011.735,-10.254,-21.973,-25.879,-7.324,0.000
1673806011.739,-8.789,-17.578,-30.762,-25.391,0.000
1673806011.743,6.348,-10.742,-29.297,-18.066,0.000
1673806011.747,8.789,-9.277,-25.879,-7.812,0.000
1673806011.751,-0.977,-13.672,-26.855,-15.137,0.000
1673806011.755,-19.043,-15.625,-24.902,-15.625,0.000
1673806011.758,-34.180,-23.926,-27.344,-16.113,0.000
1673806011.762,-32.227,-25.879,-27.344,-5.859,0.000
1673806011.766,-39.551,-22.949,-24.902,-4.883,0.000
1673806011.770,-48.828,-30.273,-23.438,-17.578,0.000
1673806011.774,-41.992,-30.273,-17.090,-22.949,0.000
1673806011.778,-32.715,-23.438,-20.508,-34.180,0.000
1673806011.782,-32.715,-34.180,-30.762,-28.320,0.000
1673806011.786,-39.062,-37.598,-35.645,-23.438,0.000
1673806011.790,-36.621,-35.156,-30.762,-38.574,0.000
1673806011.794,-35.156,-39.551,-30.273,-45.410,0.000
1673806011.797,-31.738,-36.621,-31.250,-31.250,0.000
1673806011.801,-34.668,-34.180,-33.203,-21.484,0.000
1673806011.805,-41.016,-31.738,-39.551,-31.250,0.000
1673806011.809,-35.156,-35.156,-38.574,-31.738,0.000
1673806011.813,-31.250,-38.086,-38.086,-22.949,0.000
1673806011.817,-30.273,-37.109,-34.668,-22.949,0.000
1673806011.821,-24.902,-32.715,-29.297,-22.949,0.000
1673806011.825,-22.949,-32.227,-28.320,-31.250,0.000
1673806011.829,-21.973,-29.297,-31.250,-34.668,0.000
1673806011.833,-16.602,-20.996,-33.203,-23.926,0.000
1673806011.837,-19.043,-22.949,-32.227,-20.996,0.000
1673806011.840,-11.719,-15.625,-25.391,-24.414,0.000
1673806011.844,-4.395,-8.789,-21.973,-23.926,0.000
1673806011.848,-12.207,-19.043,-26.855,-24.414,0.000
1673806011.852,-4.883,-23.438,-29.785,-16.113,0.000
1673806011.856,1.465,-21.484,-26.367,-10.742,0.000
1673806011.860,-10.742,-21.484,-25.391,-20.508,0.000
1673806011.864,-11.230,-24.902,-23.926,-19.531,0.000
1673806011.868,-17.090,-22.949,-23.438,-16.113,0.000
1673806011.872,-21.484,-16.113,-22.461,-20.996,0.000
1673806011.876,-23.926,-18.066,-24.414,-25.879,0.000
1673806011.879,-38.086,-29.785,-20.508,-18.066,0.000
1673806011.883,-36.621,-25.391,-21.973,-4.883,0.000
1673806011.887,-31.738,-25.879,-29.785,-8.301,0.000
1673806011.891,-28.809,-30.762,-30.762,-12.207,0.000
1673806011.895,-17.578,-26.855,-29.297,-15.625,0.000
1673806011.899,-19.043,-28.809,-23.926,-15.137,0.000
1673806011.903,-24.902,-30.273,-28.320,-13.672,0.000
1673806011.907,-24.414,-25.391,-32.715,-24.902,0.000
1673806011.911,-20.020,-21.484,-33.203,-21.484,0.000
1673806011.915,-24.902,-21.973,-31.250,-15.137,0.000
1673806011.919,-29.785,-33.691,-36.133,-26.367,0.000
1673806011.922,-25.879,-41.016,-36.621,-32.227,0.000
1673806011.926,-25.879,-29.297,-30.273,-34.668,0.000
1673806011.930,-35.156,-26.367,-34.668,-29.297,0.000
1673806011.934,-39.551,-34.668,-40.039,-25.879,0.000
1673806011.938,-24.414,-32.715,-42.969,-38.574,0.000
1673806011.942,-8.301,-27.832,-35.156,-41.016,0.000
1673806011.946,-1.953,-22.461,-28.809,-37.109,0.000
1673806011.950,0.977,-17.090,-34.180,-41.016,0.000
1673806011.954,-5.859,-21.484,-36.133,-34.180,0.000
1673806011.958,-22.949,-19.531,-32.227,-26.367,0.000
1673806011.962,-31.738,-19.531,-28.320,-18.555,0.000
1673806011.965,-31.250,-20.020,-29.297,-16.113,0.000
1673806011.969,-27.344,-17.578,-26.367,-24.414,0.000
1673806011.973,-16.602,-21.484,-33.203,-22.949,0.000
1673806011.977,-6.348,-27.344,-37.109,-22.949,0.000
1673806011.981,-20.996,-31.250,-24.414,-25.879,0.000
1673806011.985,-26.367,-28.809,-20.996,-19.531,0.000
1673806011.989,-7.812,-26.855,-19.531,-18.066,0.000
1673806011.993,-7.324,-35.645,-21.484,-23.438,0.000
1673806011.997,-7.324,-40.039,-30.762,-26.855,0.000
1673806012.001,-3.906,-34.668,-23.926,-16.602,0.000
1673806012.004,-23.926,-22.949,-19.531,-13.184,0.000
1673806012.008,-31.738,-22.461,-25.879,-18.555,0.000
1673806012.012,-21.973,-27.344,-26.855,-17.090,0.000
1673806012.016,-31.250,-23.926,-26.367,-12.207,0.000
1673806012.020,-38.086,-25.391,-25.391,-10.742,0.000
1673806012.024,-35.156,-31.250,-27.344,-20.996,0.000
1673806012.028,-29.785,-26.367,-31.738,-22.461,0.000
1673806012.032,-19.531,-19.531,-27.344,-23.926,0.000
1673806012.036,-13.672,-22.949,-19.531,-16.113,0.000
1673806012.040,-20.996,-25.879,-19.531,-18.066,0.000
1673806012.044,-21.484,-25.879,-24.414,-20.020,0.000
1673806012.047,-11.230,-30.273,-31.250,-14.648,0.000
1673806012.051,-10.254,-24.414,-28.320,-25.879,0.000
1673806012.055,-21.484,-21.973,-25.391,-34.668,0.000
1673806012.059,-31.250,-27.832,-27.832,-38.086,0.000
1673806012.063,-24.414,-22.949,-26.367,-32.715,0.000
1673806012.067,-23.926,-28.809,-24.414,-27.344,0.000
1673806012.071,-22.461,-41.992,-29.785,-33.691,0.000
1673806012.075,-15.137,-36.621,-33.691,-37.109,0.000
1673806012.079,-11.230,-26.367,-26.855,-23.926,0.000
1673806012.083,-20.508,-30.762,-26.855,-16.602,0.000
1673806012.087,-39.062,-31.250,-33.203,-27.344,0.000
1673806012.090,-37.109,-26.855,-29.785,-28.320,0.000
1673806012.094,-28.320,-24.414,-28.809,-23.438,0.000
1673806012.098,-30.273,-28.320,-29.297,-23.926,0.000
1673806012.102,-30.273,-27.832,-24.902,-26.855,0.000
1673806012.106,-20.996,-23.926,-20.508,-29.297,0.000
1673806012.110,-25.391,-21.484,-19.043,-27.832,0.000
1673806012.114,-29.785,-21.973,-27.832,-36.133,0.000
1673806012.118,-22.949,-20.508,-27.344,-30.762,0.000
1673806012.122,-23.926,-20.020,-22.461,-18.066,0.000
1673806012.126,-25.879,-21.484,-25.391,-21.973,0.000
1673806012.129,-28.320,-24.902,-25.879,-17.578,0.000
1673806012.133,-28.809,-21.973,-23.926,-10.254,0.000
1673806012.137,-22.461,-10.254,-21.484,-19.531,0.000
1673806012.141,-16.602,-12.695,-17.578,-32.227,0.000
1673806012.145,-25.391,-20.996,-19.531,-29.297,0.000
1673806012.149,-32.227,-22.461,-22.461,-16.602,0.000
1673806012.153,-20.508,-18.066,-20.508,-17.578,0.000
1673806012.157,-18.066,-10.742,-24.902,-21.973,0.000
1673806012.161,-17.578,-17.090,-22.949,-21.484,0.000
1673806012.165,-15.137,-26.367,-23.926,-23.438,0.000
1673806012.169,-17.578,-16.113,-28.320,-27.344,0.000
1673806012.172,-15.137,-15.625,-29.785,-26.855,0.000
1673806012.176,-12.695,-21.484,-31.738,-27.344,0.000
1673806012.180,-16.113,-17.578,-32.227,-21.973,0.000
1673806012.184,-22.461,-25.879,-36.621,-24.902,0.000
1673806012.188,-25.879,-28.320,-38.574,-28.809,0.000
1673806012.192,-22.949,-25.879,-39.062,-24.902,0.000
1673806012.196,-19.531,-28.320,-36.133,-20.996,0.000
1673806012.200,-21.484,-21.484,-31.738,-11.719,0.000
1673806012.204,-17.578,-20.996,-33.691,-13.672,0.000
1673806012.208,-20.508,-28.809,-40.039,-23.926,0.000
1673806012.212,-27.344,-27.832,-38.574,-29.297,0.000
1673806012.215,-25.879,-25.391,-32.227,-26.367,0.000
1673806012.219,-29.297,-20.996,-34.180,-25.879,0.000
1673806012.223,-21.973,-13.672,-35.156,-27.344,0.000
1673806012.227,-14.160,-19.043,-37.598,-37.109,0.000
1673806012.231,-22.461,-28.320,-39.062,-37.109,0.000
1673806012.235,-23.438,-24.414,-34.668,-20.508,0.000
1673806012.239,-19.043,-18.555,-36.621,-19.043,0.000
1673806012.243,-3.906,-18.066,-29.297,-16.113,0.000
1673806012.247,8.789,-23.438,-32.227,-11.230,0.000
1673806012.251,1.953,-23.926,-36.133,-18.066,0.000
1673806012.254,-1.953,-18.555,-26.855,-16.113,0.000
1673806012.258,-2.930,-12.695,-22.461,-21.973,0.000
1673806012.262,-8.301,-16.113,-23.438,-24.414,0.000
1673806012.266,1.953,-20.996,-26.855,-15.625,0.000
1673806012.270,4.883,-12.207,-25.879,-22.461,0.000
1673806012.274,-4.883,-9.277,-26.855,-27.344,0.000
1673806012.278,-18.066,-18.555,-28.809,-17.090,0.000
1673806012.282,-23.926,-26.367,-24.414,-16.113,0.000
1673806012.286,-14.648,-29.785,-22.461,-24.414,0.000
1673806012.290,-15.137,-23.438,-18.066,-26.855,0.000
1673806012.294,-16.602,-14.648,-17.578,-30.273,0.000
1673806012.297,-9.277,-9.766,-22.461,-24.414,0.000
1673806012.301,-9.766,-10.742,-22.949,-12.207,0.000
1673806012.305,-6.348,-10.742,-22.461,-13.672,0.000
1673806012.309,-1.465,-9.277,-18.066,-28.320,0.000
1673806012.313,-11.719,-11.230,-12.695,-20.020,0.000
1673806012.317,-25.391,-10.742,-13.184,-5.859,0.000
1673806012.321,-26.367,-11.719,-12.207,-16.113,0.000
1673806012.325,-19.043,-16.113,-12.695,-24.902,0.000
1673806012.329,-11.230,-8.789,-14.160,-23.926,0.000
1673806012.333,-5.859,-0.977,-15.137,-14.648,0.000
1673806012.336,-5.859,-3.906,-18.555,-16.113,0.000
1673806012.340,-12.207,-4.395,-20.020,-28.320,0.000
1673806012.344,-20.508,-4.883,-16.602,-16.602,0.000
1673806012.348,-17.578,-6.836,-12.207,-5.859,0.000
1673806012.352,-10.742,-12.207,-12.207,-7.324,0.000
1673806012.356,-0.977,-12.207,-8.301,-0.977,0.000
1673806012.360,11.230,-7.812,-9.277,-0.977,0.000
1673806012.364,-5.371,-11.719,-17.090,8.301,0.000
1673806012.368,-19.531,-23.438,-13.672,8.789,0.000
1673806012.372,-11.719,-21.484,-11.230,-4.883,0.000
1673806012.376,-7.324,-8.301,-15.625,-6.348,0.000
1673806012.379,-5.371,-7.324,-12.695,2.930,0.000
1673806012.383,-16.602,-13.184,-11.719,8.301,0.000
1673806012.387,-18.555,-15.625,-11.230,-2.930,0.000
1673806012.391,-8.789,-5.371,-11.230,-4.395,0.000
1673806012.395,-2.930,-0.977,-10.254,4.883,0.000
1673806012.399,-1.953,-20.020,-9.277,5.371,0.000
1673806012.403,-1.953,-32.715,-17.578,-1.465,0.000
1673806012.407,-6.348,-16.113,-21.484,-6.348,0.000
1673806012.411,-9.277,-8.301,-21.973,-8.301,0.000
1673806012.415,-20.020,-13.672,-16.602,-11.230,0.000
1673806012.419,-27.344,-17.090,-15.137,-17.090,0.000
1673806012.422,-21.973,-18.555,-20.996,-20.020,0.000
1673806012.426,-25.391,-21.484,-19.043,-15.137,0.000
1673806012.430,-27.344,-29.785,-22.949,-17.090,0.000
1673806012.434,-29.297,-21.973,-24.414,-13.184,0.000
1673806012.438,-25.391,-12.695,-21.973,-9.766,0.000
1673806012.442,-16.602,-19.531,-24.414,-19.043,0.000
1673806012.446,-21.973,-27.344,-30.762,-30.762,0.000
1673806012.450,-28.320,-21.484,-33.691,-29.785,0.000
1673806012.454,-22.949,-17.090,-29.297,-26.367,0.000
1673806012.458,-21.973,-25.391,-30.762,-32.227,0.000
1673806012.462,-24.414,-23.926,-31.738,-26.855,0.000
1673806012.465,-23.438,-21.484,-31.250,-14.160,0.000
1673806012.469,-20.996,-16.113,-28.320,-5.371,0.000
1673806012.473,-23.926,-13.672,-31.738,-20.508,0.000
1673806012.477,-25.879,-21.973,-36.133,-20.020,0.000
1673806012.481,-23.438,-22.461,-29.785,-9.766,0.000
1673806012.485,-25.879,-23.926,-27.832,-18.555,0.000
1673806012.489,-30.273,-29.297,-32.227,-26.855,0.000
1673806012.493,-30.273,-27.344,-29.297,-28.320,0.000
1673806012.497,-27.832,-20.996,-25.879,-27.344,0.000
1673806012.501,-22.949,-18.555,-28.320,-32.715,0.000
1673806012.504,-27.832,-20.508,-31.738,-33.691,0.000
1673806012.508,-41.992,-22.949,-33.691,-29.297,0.000
1673806012.512,-55.664,-23.438,-31.738,-21.484,0.000
1673806012.516,-59.082,-23.926,-31.738,-16.113,0.000
1673806012.520,-60.059,-33.203,-38.086,-26.855,0.000
1673806012.524,-59.570,-33.203,-43.457,-28.320,0.000
1673806012.528,-52.246,-27.344,-41.992,-22.949,0.000
1673806012.532,-47.852,-28.320,-37.109,-18.066,0.000
1673806012.536,-41.992,-19.043,-37.109,-16.113,0.000
1673806012.540,-31.738,-11.230,-40.039,-19.043,0.000
1673806012.544,-20.508,-17.090,-37.109,-18.555,0.000
1673806012.547,-19.043,-22.949,-28.320,-16.602,0.000
1673806012.551,-20.996,-15.625,-28.320,-19.043,0.000
1673806012.555,-14.648,-9.277,-30.762,-23.926,0.000
1673806012.559,-12.695,-15.625,-26.367,-23.926,0.000
1673806012.563,-23.926,-20.020,-33.203,-23.438,0.000
1673806012.567,-35.645,-24.414,-41.016,-26.367,0.000
1673806012.571,-26.855,-22.461,-37.109,-24.414,0.000
1673806012.575,-15.625,-13.672,-37.598,-27.344,0.000
1673806012.579,-13.672,-11.230,-33.203,-27.832,0.000
1673806012.583,-9.766,-10.254,-29.297,-16.602,0.000
1673806012.587,1.465,-0.977,-31.250,-11.719,0.000
1673806012.590,2.930,-1.953,-27.832,-12.695,0.000
1673806012.594,-19.531,-15.137,-28.320,-13.672,0.000
1673806012.598,-29.297,-18.066,-26.367,-13.672,0.000
1673806012.602,-16.113,-13.672,-21.484,-9.766,0.000
1673806012.606,-13.184,-12.695,-24.902,-8.301,0.000
1673806012.610,-16.602,-19.531,-32.227,-13.184,0.000
1673806012.614,-12.695,-20.020,-27.832,-11.719,0.000
1673806012.618,-8.301,-9.766,-25.879,-8.301,0.000
1673806012.622,-19.043,-18.066,-34.668,-6.836,0.000
1673806012.626,-23.926,-21.484,-35.156,-11.230,0.000
1673806012.629,-6.836,-15.137,-26.855,-12.207,0.000
1673806012.633,-3.418,-14.160,-27.344,-8.301,0.000
1673806012.637,-9.277,-14.648,-31.250,-15.137,0.000
1673806012.641,-6.348,-25.879,-27.344,-14.160,0.000
1673806012.645,-6.836,-34.180,-22.461,-8.301,0.000
1673806012.649,-1.953,-27.344,-20.996,-2.930,0.000
1673806012.653,-11.719,-23.438,-24.902,-7.812,0.000
1673806012.657,-21.484,-21.973,-26.367,-18.066,0.000
1673806012.661,-12.695,-17.578,-22.461,-17.578,0.000
1673806012.665,-12.207,-21.484,-25.879,-17.578,0.000
1673806012.669,-16.113,-22.949,-28.809,-18.555,0.000
1673806012.672,-16.113,-18.066,-28.320,-20.020,0.000
1673806012.676,-16.602,-18.555,-27.344,-20.508,0.000
1673806012.680,-22.461,-25.879,-31.738,-26.367,0.000
1673806012.684,-29.785,-25.391,-26.367,-28.809,0.000
1673806012.688,-26.367,-31.250,-15.625,-20.020,0.000
1673806012.692,-22.461,-25.879,-14.160,-19.531,0.000
1673806012.696,-30.273,-13.672,-16.113,-25.879,0.000
1673806012.700,-33.203,-15.625,-22.461,-22.461,0.000
1673806012.704,-32.715,-20.508,-25.391,-22.461,0.000
1673806012.708,-24.414,-17.578,-24.902,-28.809,0.000
1673806012.711,-13.672,-20.020,-28.320,-28.809,0.000
1673806012.715,-10.742,-30.762,-30.762,-28.809,0.000
1673806012.719,-17.090,-25.879,-29.785,-30.273,0.000
1673806012.723,-28.320,-21.973,-27.344,-24.902,0.000
1673806012.727,-45.410,-30.762,-25.879,-27.832,0.000
1673806012.731,-59.570,-35.645,-31.738,-26.367,0.000
1673806012.735,-64.941,-33.691,-29.297,-27.832,0.000
1673806012.739,-56.152,-34.668,-20.020,-31.250,0.000
1673806012.743,-31.738,-35.156,-25.879,-23.926,0.000
1673806012.747,-18.555,-39.551,-32.227,-18.555,0.000
1673806012.751,-20.508,-36.133,-21.484,-19.043,0.000
1673806012.754,-28.809,-21.484,-16.113,-13.672,0.000
1673806012.758,-30.762,-20.020,-23.438,-16.602,0.000
1673806012.762,-26.367,-21.973,-28.320,-17.090,0.000
1673806012.766,-24.902,-21.484,-26.855,-11.719,0.000
1673806012.770,-26.855,-23.926,-27.344,-20.996,0.000
1673806012.774,-22.461,-26.855,-25.879,-26.367,0.000
1673806012.778,-23.926,-38.086,-31.250,-30.273,0.000
1673806012.782,-28.320,-43.945,-28.809,-21.973,0.000
1673806012.786,-34.668,-24.414,-24.902,-10.742,0.000
1673806012.790,-45.410,-23.438,-29.297,-22.949,0.000
1673806012.794,-36.133,-31.250,-25.879,-32.227,0.000
1673806012.797,-33.691,-15.625,-23.438,-21.973,0.000
1673806012.801,-35.645,-12.695,-24.414,-23.438,0.000
1673806012.805,-32.715,-24.902,-30.762,-39.551,0.000
1673806012.809,-37.598,-27.832,-35.156,-34.668,0.000
1673806012.813,-31.250,-27.344,-33.691,-24.414,0.000
1673806012.817,-32.227,-29.785,-36.621,-25.391,0.000
1673806012.821,-36.621,-35.156,-40.039,-35.645,0.000
1673806012.825,-35.645,-40.039,-35.156,-35.645,0.000
1673806012.829,-37.109,-34.180,-32.715,-34.668,0.000
1673806012.833,-39.062,-25.879,-32.715,-40.527,0.000
1673806012.836,-33.691,-28.320,-34.180,-41.992,0.000
1673806012.840,-30.273,-30.273,-34.668,-46.875,0.000
1673806012.844,-35.156,-26.855,-31.250,-34.668,0.000
1673806012.848,-42.969,-32.227,-31.738,-27.344,0.000
1673806012.852,-42.480,-31.738,-25.391,-26.855,0.000
1673806012.856,-45.410,-25.391,-22.949,-39.062,0.000
1673806012.860,-45.410,-29.297,-34.180,-47.363,0.000
1673806012.864,-39.062,-26.855,-36.133,-43.457,0.000
1673806012.868,-29.785,-21.484,-31.738,-37.598,0.000
1673806012.872,-21.484,-25.879,-30.273,-35.645,0.000
1673806012.876,-20.020,-28.809,-26.855,-39.551,0.000
1673806012.879,-20.020,-28.320,-29.297,-25.391,0.000
1673806012.883,-20.996,-21.973,-32.715,-25.879,0.000
1673806012.887,-16.113,-16.602,-28.320,-35.156,0.000
1673806012.891,-14.160,-20.020,-27.832,-35.156,0.000
1673806012.895,-18.066,-24.902,-24.902,-37.598,0.000
1673806012.899,-15.625,-29.297,-22.461,-37.598,0.000
1673806012.903,-23.438,-32.715,-25.879,-38.086,0.000
1673806012.907,-26.367,-33.203,-26.367,-34.668,0.000
1673806012.911,-17.578,-27.832,-23.926,-33.203,0.000
1673806012.915,-23.438,-23.926,-33.203,-31.250,0.000
1673806012.919,-26.855,-18.555,-37.109,-31.250,0.000
1673806012.922,-19.531,-23.438,-31.250,-31.738,0.000
1673806012.926,-18.066,-27.832,-27.832,-37.109,0.000
1673806012.930,-21.973,-26.367,-28.809,-45.410,0.000
1673806012.934,-27.344,-27.344,-34.180,-35.156,0.000
1673806012.938,-30.273,-23.926,-39.551,-37.109,0.000
1673806012.942,-37.598,-26.367,-42.480,-47.363,0.000
1673806012.946,-32.715,-25.879,-31.738,-36.621,0.000
1673806012.950,-24.902,-29.297,-21.973,-32.715,0.000
1673806012.954,-25.391,-31.738,-27.344,-40.527,0.000
1673806012.958,-31.738,-31.250,-30.273,-44.922,0.000
1673806012.961,-28.320,-29.297,-25.879,-45.898,0.000
1673806012.965,-31.250,-28.320,-24.902,-34.180,0.000
1673806012.969,-32.227,-29.297,-27.344,-28.320,0.000
1673806012.973,-31.250,-21.973,-25.391,-28.320,0.000
1673806012.977,-25.879,-22.461,-24.414,-13.672,0.000
1673806012.981,-17.578,-27.344,-27.344,-1.465,0.000
1673806012.985,-23.438,-29.297,-26.367,-6.836,0.000
1673806012.989,-25.391,-29.785,-27.344,-14.160,0.000
1673806012.993,-20.020,-24.414,-26.855,-11.719,0.000
1673806012.997,-14.648,-14.648,-26.367,-8.789,0.000
1673806013.001,-18.555,-17.578,-23.438,-10.254,0.000
1673806013.004,-20.508,-25.879,-21.484,-16.602,0.000
1673806013.008,-12.207,-19.531,-20.020,-18.555,0.000
1673806013.012,-8.301,-18.066,-17.578,-19.043,0.000
1673806013.016,-11.230,-23.438,-22.949,-16.602,0.000
1673806013.020,-12.207,-24.414,-22.461,-17.090,0.000
1673806013.024,-13.672,-24.902,-20.508,-19.531,0.000
1673806013.028,-23.926,-27.344,-23.438,-20.996,0.000
1673806013.032,-23.926,-27.832,-29.297,-20.508,0.000
1673806013.036,-19.043,-24.414,-27.344,-16.602,0.000
1673806013.040,-23.926,-19.043,-25.391,-30.762,0.000
1673806013.043,-26.367,-18.066,-23.438,-41.992,0.000
1673806013.047,-29.297,-18.555,-21.973,-42.969,0.000
1673806013.051,-38.086,-24.902,-28.809,-39.062,0.000
1673806013.055,-48.340,-29.785,-31.250,-32.715,0.000
1673806013.059,-49.805,-32.227,-27.832,-34.180,0.000
1673806013.063,-41.016,-35.645,-27.344,-28.809,0.000
1673806013.067,-24.414,-28.320,-23.926,-18.555,0.000
1673806013.071,-25.391,-18.555,-22.949,-14.648,0.000
1673806013.075,-29.297,-21.484,-27.344,-29.297,0.000
1673806013.079,-21.484,-25.879,-28.320,-23.926,0.000
1673806013.083,-30.273,-25.879,-27.344,-7.812,0.000
1673806013.086,-31.250,-18.555,-23.926,-15.137,0.000
1673806013.090,-19.531,-14.648,-23.438,-20.508,0.000
1673806013.094,-15.137,-17.578,-26.367,-19.531,0.000
1673806013.098,-19.531,-17.090,-23.926,-15.137,0.000
1673806013.102,-25.391,-20.996,-28.320,-17.090,0.000
1673806013.106,-19.531,-29.297,-32.715,-26.367,0.000
1673806013.110,-11.719,-28.320,-32.715,-26.367,0.000
1673806013.114,-9.766,-26.367,-26.367,-17.578,0.000
1673806013.118,-17.090,-24.414,-27.344,-18.066,0.000
1673806013.122,-34.668,-23.926,-33.203,-36.133,0.000
1673806013.126,-36.621,-22.461,-29.785,-31.250,0.000
1673806013.129,-27.344,-15.625,-30.273,-20.508,0.000
1673806013.133,-28.320,-20.508,-32.715,-32.227,0.000
1673806013.137,-37.598,-25.879,-31.738,-41.504,0.000
1673806013.141,-35.156,-17.090,-27.832,-33.203,0.000
1673806013.145,-28.320,-16.113,-23.438,-23.438,0.000
1673806013.149,-38.574,-24.902,-26.855,-28.809,0.000
1673806013.153,-43.457,-26.855,-23.438,-30.273,0.000
1673806013.157,-37.109,-24.414,-19.531,-24.902,0.000
1673806013.161,-24.414,-14.160,-22.949,-27.344,0.000
1673806013.165,-23.926,-11.230,-27.344,-26.367,0.000
1673806013.168,-36.621,-16.113,-26.367,-6.348,0.000
1673806013.172,-32.715,-19.043,-23.926,-3.418,0.000
1673806013.176,-40.527,-22.461,-27.344,-14.648,0.000
1673806013.180,-40.527,-21.973,-28.320,-10.254,0.000
1673806013.184,-28.809,-17.090,-25.879,-2.441,0.000
1673806013.188,-26.367,-18.066,-20.020,-7.812,0.000
1673806013.192,-22.949,-27.344,-27.832,-18.555,0.000
1673806013.196,-22.949,-25.391,-31.738,-21.973,0.000
1673806013.200,-26.367,-19.531,-20.996,-14.160,0.000
1673806013.204,-28.809,-17.578,-18.066,-8.789,0.000
1673806013.208,-24.902,-16.602,-20.020,-18.066,0.000
1673806013.211,-21.973,-29.297,-23.438,-26.855,0.000
1673806013.215,-22.949,-30.273,-25.879,-17.090,0.000
1673806013.219,-21.484,-17.090,-22.461,-13.184,0.000
1673806013.223,-20.020,-11.230,-23.926,-18.555,0.000
1673806013.227,-15.625,-13.672,-28.320,-16.113,0.000
1673806013.231,-10.742,-14.648,-25.391,-8.301,0.000
1673806013.235,-9.766,-6.348,-19.531,-3.418,0.000
1673806013.239,-21.973,-2.441,-21.484,-11.719,0.000
1673806013.243,-20.508,-11.230,-18.066,-15.625,0.000
1673806013.247,-15.137,-15.137,-14.160,-9.277,0.000
1673806013.251,-17.090,-7.324,-14.160,-5.859,0.000
1673806013.254,-19.531,-15.137,-11.230,-11.719,0.000
1673806013.258,-21.484,-16.113,-16.113,-13.184,0.000
1673806013.262,-15.625,-1.465,-14.648,-7.324,0.000
1673806013.266,-13.672,0.977,-9.766,-3.906,0.000
1673806013.270,-18.555,-1.465,-13.672,-8.789,0.000
1673806013.274,-13.184,-5.859,-17.090,-7.812,0.000
1673806013.278,-3.418,-2.930,-12.695,0.000,0.000
1673806013.282,6.348,-0.488,-6.348,4.395,0.000
1673806013.286,-4.395,-7.812,-7.324,1.465,0.000
1673806013.290,-2.930,-7.324,-9.277,-3.906,0.000
1673806013.293,4.395,-0.488,-8.301,-7.812,0.000
1673806013.297,6.348,0.977,-6.836,-3.418,0.000
1673806013.301,2.441,2.441,-7.324,2.441,0.000
1673806013.305,2.930,0.000,-6.348,2.441,0.000
1673806013.309,13.184,-0.488,-3.418,3.418,0.000
1673806013.313,10.254,-5.859,-13.184,-0.488,0.000
1673806013.317,4.883,-8.301,-26.855,-0.488,0.000
1673806013.321,4.883,-2.930,-21.484,1.465,0.000
1673806013.325,4.883,-10.254,-14.648,-6.348,0.000
1673806013.329,-13.184,-18.066,-18.555,-14.648,0.000
1673806013.333,-20.020,-15.625,-18.066,-14.160,0.000
1673806013.336,-14.648,-7.812,-14.648,-11.230,0.000
1673806013.340,-22.461,-15.625,-17.578,-13.184,0.000
1673806013.344,-22.461,-26.855,-18.555,-21.484,0.000
1673806013.348,-14.648,-20.508,-13.184,-15.625,0.000
1673806013.352,-9.766,-14.160,-13.672,-6.836,0.000
1673806013.356,-7.324,-9.766,-18.066,-26.855,0.000
1673806013.360,-9.766,-9.277,-20.996,-32.227,0.000
1673806013.364,-13.672,-13.184,-23.438,-23.926,0.000
1673806013.368,-23.438,-10.254,-25.879,-8.301,0.000
1673806013.372,-32.227,-17.578,-31.250,-13.672,0.000
1673806013.376,-29.785,-24.902,-30.762,-31.250,0.000
1673806013.379,-24.414,-18.555,-28.320,-28.320,0.000
1673806013.383,-29.785,-33.691,-34.668,-37.598,0.000
1673806013.387,-27.344,-34.180,-35.156,-41.992,0.000
1673806013.391,-12.695,-19.531,-33.203,-32.715,0.000
1673806013.395,-8.301,-20.020,-30.273,-27.832,0.000
1673806013.399,-18.555,-24.414,-31.250,-28.320,0.000
1673806013.403,-26.367,-28.809,-35.156,-28.809,0.000
1673806013.407,-26.367,-26.855,-32.715,-33.203,0.000
1673806013.411,-18.555,-31.250,-29.785,-37.598,0.000
1673806013.415,-9.766,-35.645,-27.344,-25.391,0.000
1673806013.418,-9.277,-29.297,-29.785,-20.020,0.000
1673806013.422,-14.160,-28.320,-31.738,-28.320,0.000
1673806013.426,-13.672,-29.297,-21.973,-27.344,0.000
1673806013.430,-16.602,-23.926,-19.043,-20.508,0.000
1673806013.434,-20.020,-22.461,-24.414,-20.020,0.000
1673806013.438,-20.020,-24.902,-24.902,-26.855,0.000
1673806013.442,-18.555,-22.949,-23.438,-28.320,0.000
1673806013.446,-18.066,-18.066,-29.785,-31.250,0.000
1673806013.450,-23.438,-22.949,-31.738,-35.156,0.000
1673806013.454,-23.926,-23.926,-27.344,-33.203,0.000
1673806013.458,-18.555,-18.555,-27.832,-29.785,0.000
1673806013.461,-28.320,-14.648,-25.391,-34.180,0.000
1673806013.465,-36.133,-20.508,-29.297,-30.273,0.000
1673806013.469,-25.879,-33.691,-29.297,-20.508,0.000
1673806013.473,-20.508,-31.250,-26.855,-27.832,0.000
1673806013.477,-18.066,-31.738,-28.320,-36.133,0.000
1673806013.481,-17.578,-32.715,-27.832,-31.250,0.000
1673806013.485,-21.484,-23.438,-29.785,-24.414,0.000
1673806013.489,-20.996,-20.996,-31.738,-24.902,0.000
1673806013.493,-20.020,-23.926,-28.320,-31.250,0.000
1673806013.497,-15.625,-27.344,-28.809,-23.926,0.000
1673806013.501,-16.602,-23.438,-34.668,-20.996,0.000
1673806013.504,-8.789,-16.602,-26.367,-7.812,0.000
1673806013.508,-6.836,-18.066,-25.391,-3.906,0.000
1673806013.512,-13.672,-25.879,-33.203,-22.461,0.000
1673806013.516,-17.090,-31.738,-33.691,-18.555,0.000
1673806013.520,-28.320,-27.832,-34.668,-19.043,0.000
1673806013.524,-30.762,-26.855,-36.133,-38.086,0.000
1673806013.528,-24.902,-33.203,-34.668,-38.574,0.000
1673806013.532,-24.414,-31.250,-36.133,-17.090,0.000
1673806013.536,-31.250,-28.320,-40.527,-25.879,0.000
1673806013.540,-37.109,-32.227,-39.062,-37.109,0.000
1673806013.543,-24.902,-32.227,-31.738,-38.086,0.000
1673806013.547,-14.160,-24.414,-26.855,-29.297,0.000
1673806013.551,-21.973,-21.973,-32.227,-26.367,0.000
1673806013.555,-23.926,-28.320,-34.180,-40.527,0.000
1673806013.559,-23.438,-30.762,-27.344,-42.480,0.000
1673806013.563,-19.531,-23.926,-25.879,-32.715,0.000
1673806013.567,-18.066,-19.043,-21.484,-21.973,0.000
1673806013.571,-28.809,-20.020,-20.020,-17.578,0.000
1673806013.575,-16.113,-14.160,-20.996,-16.113,0.000
1673806013.579,-20.996,-18.555,-20.996,-20.020,0.000
1673806013.583,-41.992,-25.391,-22.949,-20.508,0.000
1673806013.586,-45.410,-32.227,-28.809,-18.555,0.000
1673806013.590,-39.062,-34.180,-30.762,-20.996,0.000
1673806013.594,-30.273,-25.879,-27.344,-10.742,0.000
1673806013.598,-31.250,-33.203,-32.715,-9.277,0.000
1673806013.602,-28.320,-26.367,-28.320,-3.906,0.000
1673806013.606,-26.367,-20.996,-29.785,-0.977,0.000
1673806013.610,-32.227,-20.508,-39.062,-9.766,0.000
1673806013.614,-30.762,-12.207,-33.691,-11.719,0.000
1673806013.618,-22.949,-15.625,-30.762,-12.207,0.000
1673806013.622,-16.113,-13.184,-32.227,-16.113,0.000
1673806013.626,-15.137,-13.672,-33.203,-20.996,0.000
1673806013.629,-21.973,-23.926,-35.156,-15.625,0.000
1673806013.633,-24.414,-26.367,-39.551,-13.184,0.000
1673806013.637,-16.113,-21.973,-29.785,-2.441,0.000
1673806013.641,-20.020,-27.344,-25.391,-3.906,0.000
1673806013.645,-16.113,-32.715,-28.320,-13.672,0.000
1673806013.649,-14.160,-33.691,-26.855,-12.207,0.000
1673806013.653,-25.879,-32.715,-27.344,-12.207,0.000
1673806013.657,-18.066,-25.391,-25.879,-20.996,0.000
1673806013.661,-18.066,-27.344,-26.855,-27.344,0.000
1673806013.665,-33.691,-34.180,-20.020,-22.461,0.000
1673806013.668,-36.621,-28.809,-22.949,-22.461,0.000
1673806013.672,-36.133,-24.902,-26.855,-28.809,0.000
1673806013.676,-33.203,-24.902,-25.879,-32.227,0.000
1673806013.680,-31.738,-26.367,-27.832,-27.832,0.000
1673806013.684,-31.250,-33.203,-22.461,-20.996,0.000
1673806013.688,-29.785,-29.785,-22.461,-20.020,0.000
1673806013.692,-24.902,-25.879,-28.320,-23.926,0.000
1673806013.696,-24.902,-24.902,-20.020,-21.484,0.000
1673806013.700,-44.922,-24.414,-22.949,-27.832,0.000
1673806013.704,-49.316,-29.785,-34.180,-24.902,0.000
1673806013.708,-35.645,-19.043,-26.367,-9.277,0.000
1673806013.711,-28.809,-14.648,-22.949,-13.184,0.000
1673806013.715,-28.809,-23.926,-29.297,-10.742,0.000
1673806013.719,-29.785,-20.996,-27.344,-9.766,0.000
1673806013.723,-35.645,-25.879,-22.949,-20.996,0.000
1673806013.727,-29.785,-26.855,-23.438,-12.207,0.000
1673806013.731,-34.180,-20.996,-30.273,-6.348,0.000
1673806013.735,-45.898,-28.809,-32.227,-16.113,0.000
1673806013.739,-40.039,-35.645,-32.227,-19.531,0.000
1673806013.743,-33.203,-28.809,-32.227,-16.113,0.000
1673806013.747,-44.434,-23.438,-29.785,-16.602,0.000
1673806013.751,-47.363,-26.855,-33.203,-22.461,0.000
1673806013.754,-37.598,-25.879,-34.180,-29.297,0.000
1673806013.758,-35.156,-28.809,-39.062,-39.551,0.000
1673806013.762,-35.156,-30.273,-38.574,-38.574,0.000
1673806013.766,-29.297,-28.809,-34.180,-32.715,0.000
1673806013.770,-19.043,-33.691,-30.762,-32.715,0.000
1673806013.774,-27.344,-30.762,-27.832,-33.691,0.000
1673806013.778,-38.574,-25.391,-32.227,-37.598,0.000
1673806013.782,-44.434,-31.250,-33.691,-41.992,0.000
1673806013.786,-43.457,-34.180,-28.809,-37.109,0.000
1673806013.790,-41.016,-31.250,-31.738,-43.457,0.000
1673806013.793,-49.805,-31.250,-32.715,-49.316,0.000
1673806013.797,-51.270,-27.832,-36.621,-41.992,0.000
1673806013.801,-42.480,-30.762,-39.062,-32.715,0.000
1673806013.805,-37.598,-32.227,-36.621,-32.715,0.000
1673806013.809,-32.715,-31.738,-31.738,-34.668,0.000
1673806013.813,-30.762,-25.391,-28.320,-34.180,0.000
1673806013.817,-33.691,-20.996,-32.227,-25.391,0.000
1673806013.821,-36.133,-30.273,-34.668,-22.949,0.000
1673806013.825,-40.039,-28.320,-39.551,-32.715,0.000
1673806013.829,-20.996,-21.484,-40.039,-23.926,0.000
1673806013.833,-23.438,-31.250,-36.621,-13.672,0.000
1673806013.836,-36.621,-34.668,-38.574,-14.648,0.000
1673806013.840,-28.320,-25.879,-40.527,-24.414,0.000
1673806013.844,-24.902,-24.902,-33.203,-22.949,0.000
1673806013.848,-25.391,-35.156,-31.738,-16.113,0.000
1673806013.852,-22.949,-31.250,-34.668,-20.996,0.000
1673806013.856,-19.531,-23.438,-30.273,-31.738,0.000
1673806013.860,-20.996,-26.855,-30.273,-36.133,0.000
1673806013.864,-26.367,-30.762,-31.738,-26.855,0.000
1673806013.868,-22.461,-34.180,-38.086,-25.879,0.000
1673806013.872,-17.090,-28.809,-41.992,-40.039,0.000
1673806013.876,-27.832,-24.902,-36.133,-51.758,0.000
1673806013.879,-26.855,-22.949,-25.879,-43.457,0.000
1673806013.883,-17.090,-27.832,-29.297,-46.387,0.000
1673806013.887,-29.297,-30.273,-33.691,-48.828,0.000
1673806013.891,-31.250,-20.508,-31.250,-42.480,0.000
1673806013.895,-27.344,-16.113,-37.109,-44.434,0.000
1673806013.899,-32.227,-30.762,-35.645,-37.598,0.000
1673806013.903,-33.203,-33.691,-33.203,-28.320,0.000
1673806013.907,-35.156,-20.020,-31.738,-24.902,0.000
1673806013.911,-34.180,-23.438,-24.902,-23.438,0.000
1673806013.915,-41.992,-31.250,-28.809,-19.043,0.000
1673806013.918,-38.086,-27.344,-36.133,-7.324,0.000
1673806013.922,-28.320,-20.020,-26.855,-3.418,0.000
1673806013.926,-21.973,-24.902,-20.996,-13.672,0.000
1673806013.930,-28.809,-32.227,-25.879,-28.320,0.000
1673806013.934,-28.320,-29.785,-26.855,-25.391,0.000
1673806013.938,-15.625,-36.133,-31.738,-17.090,0.000
1673806013.942,-2.441,-31.250,-32.227,-7.812,0.000
1673806013.946,-2.930,-18.555,-23.926,-8.789,0.000
1673806013.950,-12.207,-14.648,-20.996,-14.648,0.000
1673806013.954,-9.277,-13.672,-21.973,-10.742,0.000
1673806013.958,-15.137,-17.578,-25.391,-14.160,0.000
1673806013.961,-17.578,-17.090,-31.250,-25.391,0.000
1673806013.965,-10.742,-12.207,-28.809,-26.367,0.000
1673806013.969,-6.348,-12.207,-27.344,-12.695,0.000
1673806013.973,-20.508,-20.508,-31.738,-18.555,0.000
1673806013.977,-35.156,-24.414,-27.832,-27.344,0.000
1673806013.981,-29.785,-28.320,-25.391,-13.184,0.000
