timestamp,TP9,AF7,AF8,TP10,Right AUX
1673805292.898,-42.480,-21.973,-20.020,-5.859,0.000
1673805292.902,-35.645,-23.438,-20.508,-11.719,0.000
1673805292.905,-33.691,-20.020,-19.531,-17.578,0.000
1673805292.909,-38.086,-16.602,-18.555,-14.160,0.000
1673805292.913,-30.273,-20.508,-18.555,-18.066,0.000
1673805292.917,-21.973,-14.648,-21.973,-24.414,0.000
1673805292.921,-19.531,-8.301,-28.809,-30.273,0.000
1673805292.925,-33.203,-10.254,-30.762,-35.645,0.000
1673805292.929,-31.738,-15.625,-30.762,-38.086,0.000
1673805292.933,-38.086,-20.508,-37.598,-33.203,0.000
1673805292.937,-52.246,-22.461,-33.691,-24.902,0.000
1673805292.941,-43.457,-29.297,-33.691,-27.344,0.000
1673805292.944,-40.039,-27.832,-41.016,-25.879,0.000
1673805292.948,-34.180,-25.391,-35.645,-21.973,0.000
1673805292.952,-40.527,-29.785,-29.785,-20.020,0.000
1673805292.956,-34.180,-35.645,-31.250,-20.508,0.000
1673805292.960,-9.766,-34.180,-28.320,-24.414,0.000
1673805292.964,-20.508,-31.738,-27.344,-24.902,0.000
1673805292.968,-57.129,-26.367,-27.344,-21.973,0.000
1673805292.972,-72.754,-26.367,-24.902,-18.555,0.000
1673805292.976,-67.383,-27.344,-26.367,-17.578,0.000
1673805292.980,-59.082,-23.926,-30.273,-20.996,0.000
1673805292.984,-46.387,-26.855,-31.250,-15.625,0.000
1673805292.987,-38.086,-29.297,-32.715,-10.742,0.000
1673805292.991,-27.344,-27.832,-30.762,-22.461,0.000
1673805292.995,-17.090,-24.414,-27.344,-33.691,0.000
1673805292.999,-15.625,-22.949,-29.297,-37.598,0.000
1673805293.003,-27.344,-27.832,-24.902,-38.574,0.000
1673805293.007,-38.574,-29.297,-23.926,-48.340,0.000
1673805293.011,-34.668,-20.508,-24.902,-37.109,0.000
1673805293.015,-32.227,-20.508,-23.926,-27.344,0.000
1673805293.019,-38.574,-20.508,-22.949,-34.180,0.000
1673805293.023,-35.645,-21.484,-28.320,-27.832,0.000
1673805293.027,-28.320,-20.508,-31.250,-25.879,0.000
1673805293.030,-22.949,-25.391,-31.738,-34.180,0.000
1673805293.034,-22.949,-36.621,-31.250,-34.668,0.000
1673805293.038,-46.387,-28.320,-29.297,-24.902,0.000
1673805293.042,-55.176,-19.531,-33.203,-30.273,0.000
1673805293.046,-42.969,-22.461,-32.227,-37.598,0.000
1673805293.050,-58.594,-27.832,-29.785,-24.414,0.000
1673805293.054,-57.129,-28.809,-25.879,-19.043,0.000
1673805293.058,-33.203,-22.949,-24.902,-20.508,0.000
1673805293.062,-42.969,-21.484,-25.879,-29.785,0.000
1673805293.066,-46.875,-29.785,-24.414,-37.598,0.000
1673805293.069,-45.898,-32.227,-26.367,-22.949,0.000
1673805293.073,-54.199,-25.879,-27.344,-26.855,0.000
1673805293.077,-42.969,-20.996,-28.320,-42.480,0.000
1673805293.081,-39.062,-24.902,-28.809,-40.527,0.000
1673805293.085,-29.785,-22.461,-25.879,-27.344,0.000
1673805293.089,-22.461,-17.090,-24.902,-21.973,0.000
1673805293.093,-26.367,-23.926,-27.344,-36.621,0.000
1673805293.097,-28.809,-29.785,-30.762,-33.203,0.000
1673805293.101,-36.133,-25.391,-30.273,-20.996,0.000
1673805293.105,-53.223,-21.484,-23.926,-20.020,0.000
1673805293.109,-57.129,-28.320,-25.391,-21.484,0.000
1673805293.112,-36.621,-25.391,-22.949,-15.625,0.000
1673805293.116,-19.043,-24.902,-21.484,-13.184,0.000
1673805293.120,-18.555,-32.227,-21.484,-18.066,0.000
1673805293.124,-13.672,-26.855,-22.949,-13.184,0.000
1673805293.128,-20.508,-26.367,-27.344,-14.160,0.000
1673805293.132,-51.270,-37.598,-28.320,-10.254,0.000
1673805293.136,-46.387,-37.598,-30.273,-0.488,0.000
1673805293.140,-19.531,-26.367,-24.902,-6.836,0.000
1673805293.144,2.930,-22.461,-25.391,-13.184,0.000
1673805293.148,0.488,-27.832,-27.832,-21.973,0.000
1673805293.152,-31.250,-20.020,-25.879,-20.996,0.000
1673805293.155,-56.152,-12.207,-20.996,-11.719,0.000
1673805293.159,-56.152,-16.113,-18.066,-13.184,0.000
1673805293.163,-48.828,-23.438,-20.020,-14.648,0.000
1673805293.167,-59.570,-31.738,-25.391,-16.113,0.000
1673805293.171,-57.129,-31.250,-26.855,-14.648,0.000
1673805293.175,-46.387,-26.855,-20.996,-20.508,0.000
1673805293.179,-51.758,-31.738,-23.438,-21.973,0.000
1673805293.183,-38.574,-29.785,-24.414,-11.719,0.000
1673805293.187,-28.809,-21.484,-26.855,-8.301,0.000
1673805293.191,-31.738,-23.926,-31.738,-10.742,0.000
1673805293.194,-19.043,-25.879,-27.832,-19.531,0.000
1673805293.198,4.883,-21.973,-25.391,-22.461,0.000
1673805293.202,20.996,-16.602,-30.762,-6.348,0.000
1673805293.206,10.254,-15.137,-32.715,-8.301,0.000
1673805293.210,-14.160,-12.207,-29.297,-19.531,0.000
1673805293.214,-28.320,-15.625,-29.785,-20.020,0.000
1673805293.218,-18.066,-25.391,-29.297,-12.695,0.000
1673805293.222,-2.930,-23.438,-26.855,-11.719,0.000
1673805293.226,-2.441,-16.602,-34.180,-23.438,0.000
1673805293.230,-21.973,-23.926,-33.203,-20.508,0.000
1673805293.234,-29.785,-33.691,-29.785,-10.742,0.000
1673805293.237,-34.180,-28.320,-33.691,-8.789,0.000
1673805293.241,-61.523,-22.461,-30.762,-8.789,0.000
1673805293.245,-73.730,-22.461,-26.367,-9.766,0.000
1673805293.249,-61.523,-28.809,-29.297,1.953,0.000
1673805293.253,-58.594,-29.785,-34.180,5.371,0.000
1673805293.257,-50.293,-32.227,-37.109,-10.254,0.000
1673805293.261,-39.062,-24.414,-34.180,-12.207,0.000
1673805293.265,-30.762,-20.020,-32.715,-20.996,0.000
1673805293.269,-32.227,-27.344,-30.762,-27.344,0.000
1673805293.273,-34.668,-32.715,-28.320,-25.391,0.000
1673805293.276,-37.598,-30.273,-28.809,-35.645,0.000
1673805293.280,-24.902,-28.809,-30.273,-41.504,0.000
1673805293.284,-7.812,-27.832,-31.250,-32.227,0.000
1673805293.288,-8.301,-29.297,-27.832,-28.320,0.000
1673805293.292,-21.484,-31.738,-29.297,-14.160,0.000
1673805293.296,-29.785,-27.344,-34.180,-6.836,0.000
1673805293.300,-24.414,-29.297,-32.715,-25.879,0.000
1673805293.304,-17.578,-30.762,-30.273,-24.414,0.000
1673805293.308,-25.879,-21.973,-28.809,-13.672,0.000
1673805293.312,-42.480,-18.066,-29.297,-21.973,0.000
1673805293.316,-45.410,-19.531,-32.227,-21.973,0.000
1673805293.319,-45.410,-22.949,-32.715,-21.484,0.000
1673805293.323,-43.457,-26.367,-31.738,-23.926,0.000
1673805293.327,-45.410,-22.949,-30.762,-31.250,0.000
1673805293.331,-57.617,-24.414,-28.320,-31.738,0.000
1673805293.335,-58.105,-27.344,-27.832,-23.438,0.000
1673805293.339,-34.668,-20.996,-26.855,-25.879,0.000
1673805293.343,-17.578,-16.602,-30.762,-32.715,0.000
1673805293.347,-18.066,-23.926,-29.297,-31.250,0.000
1673805293.351,-27.832,-30.762,-28.809,-25.391,0.000
1673805293.355,-47.363,-23.926,-24.902,-21.973,0.000
1673805293.359,-72.266,-19.043,-21.484,-13.672,0.000
1673805293.362,-76.172,-19.043,-28.809,-19.531,0.000
1673805293.366,-57.617,-20.508,-27.832,-27.832,0.000
1673805293.370,-41.992,-18.066,-30.273,-27.832,0.000
1673805293.374,-33.203,-16.602,-35.645,-35.645,0.000
1673805293.378,-26.855,-19.531,-36.621,-45.898,0.000
1673805293.382,-50.293,-28.809,-37.109,-38.086,0.000
1673805293.386,-69.824,-34.668,-42.480,-37.109,0.000
1673805293.390,-57.617,-30.273,-41.016,-49.316,0.000
1673805293.394,-36.133,-21.973,-33.691,-52.734,0.000
1673805293.398,-28.320,-15.625,-31.250,-42.480,0.000
1673805293.401,-44.434,-19.043,-30.762,-24.902,0.000
1673805293.405,-40.527,-24.902,-32.715,-24.414,0.000
1673805293.409,-27.832,-29.297,-31.250,-39.062,0.000
1673805293.413,-10.742,-29.785,-29.297,-50.293,0.000
1673805293.417,-17.090,-27.344,-32.715,-48.828,0.000
1673805293.421,-48.340,-20.508,-38.574,-43.945,0.000
1673805293.425,-55.176,-18.066,-39.062,-38.574,0.000
1673805293.429,-62.988,-38.086,-38.086,-37.109,0.000
1673805293.433,-63.477,-40.527,-38.086,-37.109,0.000
1673805293.437,-52.734,-29.297,-37.598,-32.715,0.000
1673805293.441,-59.570,-33.203,-39.551,-31.250,0.000
1673805293.444,-49.805,-23.926,-35.156,-30.273,0.000
1673805293.448,-33.691,-18.555,-33.203,-28.809,0.000
1673805293.452,-35.645,-30.273,-34.180,-23.438,0.000
1673805293.456,-45.898,-31.250,-29.297,-7.812,0.000
1673805293.460,-43.945,-33.691,-27.832,-14.160,0.000
1673805293.464,-25.391,-31.250,-34.668,-30.762,0.000
1673805293.468,-6.836,-34.180,-33.691,-28.320,0.000
1673805293.472,3.906,-30.273,-24.902,-27.344,0.000
1673805293.476,-27.832,-20.996,-22.949,-20.508,0.000
1673805293.480,-51.270,-25.391,-26.367,-18.555,0.000
1673805293.484,-36.133,-27.832,-25.391,-19.531,0.000
1673805293.487,-27.344,-28.320,-24.902,-11.719,0.000
1673805293.491,-34.668,-30.273,-32.715,-12.695,0.000
1673805293.495,-40.039,-29.785,-35.645,-13.672,0.000
1673805293.499,-25.879,-31.250,-22.949,2.441,0.000
1673805293.503,-33.203,-38.574,-14.160,2.441,0.000
1673805293.507,-50.781,-38.086,-19.531,-14.160,0.000
1673805293.511,-44.434,-29.297,-25.391,-24.414,0.000
1673805293.515,-24.902,-18.555,-25.391,-24.902,0.000
1673805293.519,-39.551,-22.949,-24.902,-12.695,0.000
1673805293.523,-49.805,-24.902,-27.344,-10.254,0.000
1673805293.526,-36.133,-17.578,-23.926,-16.113,0.000
1673805293.530,-30.273,-16.113,-23.926,-23.926,0.000
1673805293.534,-35.645,-29.785,-31.738,-20.996,0.000
1673805293.538,-42.969,-38.086,-33.203,-12.207,0.000
1673805293.542,-35.645,-28.320,-29.785,-10.742,0.000
1673805293.546,-15.625,-25.391,-29.297,-13.184,0.000
1673805293.550,4.395,-30.273,-24.414,-28.320,0.000
1673805293.554,5.371,-26.367,-24.414,-40.527,0.000
1673805293.558,-2.441,-21.484,-32.227,-38.086,0.000
1673805293.562,-22.461,-27.344,-34.180,-36.621,0.000
1673805293.566,-35.645,-35.156,-26.855,-34.180,0.000
1673805293.569,-26.855,-19.531,-24.414,-25.391,0.000
1673805293.573,-35.156,-12.207,-32.715,-27.344,0.000
1673805293.577,-51.270,-27.344,-29.785,-34.668,0.000
1673805293.581,-53.711,-27.344,-25.391,-23.926,0.000
1673805293.585,-45.410,-22.461,-24.414,-14.648,0.000
1673805293.589,-27.832,-23.926,-25.879,-19.531,0.000
1673805293.593,-27.344,-19.531,-31.250,-20.020,0.000
1673805293.597,-43.945,-14.160,-28.809,-16.602,0.000
1673805293.601,-44.922,-16.113,-27.344,-16.113,0.000
1673805293.605,-23.926,-21.973,-28.320,-17.578,0.000
1673805293.609,-20.020,-20.020,-21.973,-17.578,0.000
1673805293.612,-19.531,-19.531,-18.555,-17.090,0.000
1673805293.616,-20.020,-25.879,-21.484,-19.531,0.000
1673805293.620,-31.738,-26.855,-19.043,-19.043,0.000
1673805293.624,-36.133,-31.250,-22.461,-20.020,0.000
1673805293.628,-39.062,-40.039,-24.902,-17.578,0.000
1673805293.632,-43.457,-33.203,-21.484,-16.113,0.000
1673805293.636,-39.551,-19.531,-20.996,-9.277,0.000
1673805293.640,-31.250,-13.672,-23.926,-10.742,0.000
1673805293.644,-21.973,-9.277,-26.855,-11.230,0.000
1673805293.648,-11.230,-10.254,-23.438,-7.812,0.000
1673805293.651,-5.371,-9.277,-20.508,-9.766,0.000
1673805293.655,-11.719,-12.695,-19.531,-12.695,0.000
1673805293.659,-19.531,-14.160,-21.973,-20.996,0.000
1673805293.663,-17.578,-11.230,-25.391,-26.367,0.000
1673805293.667,-25.391,-19.043,-27.832,-18.066,0.000
1673805293.671,-33.203,-27.832,-25.879,-9.766,0.000
1673805293.675,-22.461,-29.297,-18.555,-18.555,0.000
1673805293.679,-8.301,-28.320,-21.484,-24.902,0.000
1673805293.683,-24.414,-20.508,-24.414,-3.906,0.000
1673805293.687,-35.156,-11.719,-17.578,12.695,0.000
1673805293.691,-27.344,-14.648,-15.137,5.859,0.000
1673805293.694,-17.090,-17.578,-18.555,-0.488,0.000
1673805293.698,-21.484,-16.602,-21.484,-6.836,0.000
1673805293.702,-21.484,-12.207,-19.531,-10.254,0.000
1673805293.706,-25.879,-16.113,-22.949,-15.137,0.000
1673805293.710,-32.715,-23.438,-23.438,-15.137,0.000
1673805293.714,-28.809,-23.926,-26.367,-14.160,0.000
1673805293.718,-39.062,-22.949,-28.809,-7.812,0.000
1673805293.722,-49.316,-22.949,-26.855,-5.859,0.000
1673805293.726,-49.316,-28.809,-27.344,-9.766,0.000
1673805293.730,-36.621,-28.809,-32.715,-8.301,0.000
1673805293.734,-24.414,-30.762,-38.086,-21.973,0.000
1673805293.737,-17.578,-29.785,-31.738,-26.367,0.000
1673805293.741,1.465,-15.625,-29.297,-20.996,0.000
1673805293.745,4.883,-4.883,-30.273,-24.902,0.000
1673805293.749,-21.484,-6.348,-26.367,-26.367,0.000
1673805293.753,-54.199,-14.160,-24.414,-24.414,0.000
1673805293.757,-46.875,-13.672,-25.879,-26.367,0.000
1673805293.761,-11.719,-4.883,-27.832,-21.484,0.000
1673805293.765,-4.883,-14.648,-27.832,-27.832,0.000
1673805293.769,-20.508,-31.250,-37.109,-42.969,0.000
1673805293.773,-14.160,-30.273,-40.527,-34.668,0.000
1673805293.776,-22.461,-30.273,-36.133,-16.113,0.000
1673805293.780,-54.688,-30.762,-35.645,-16.113,0.000
1673805293.784,-62.012,-28.320,-36.621,-20.508,0.000
1673805293.788,-60.547,-34.180,-32.227,-20.996,0.000
1673805293.792,-45.410,-39.062,-35.156,-24.414,0.000
1673805293.796,-33.691,-31.738,-33.691,-11.230,0.000
1673805293.800,-36.621,-23.438,-33.203,-2.441,0.000
1673805293.804,-35.156,-31.250,-35.156,-0.977,0.000
1673805293.808,-30.762,-39.062,-23.438,-5.371,0.000
1673805293.812,-27.344,-34.180,-18.066,-12.207,0.000
1673805293.816,-10.254,-26.367,-22.949,-7.812,0.000
1673805293.819,-24.902,-27.344,-23.438,-7.324,0.000
1673805293.823,-50.293,-33.203,-25.879,-13.672,0.000
1673805293.827,-29.785,-31.738,-27.344,-20.020,0.000
1673805293.831,-10.254,-23.926,-26.367,-25.391,0.000
1673805293.835,-16.602,-22.949,-35.156,-26.855,0.000
1673805293.839,-29.785,-30.762,-40.527,-23.438,0.000
1673805293.843,-24.414,-30.762,-33.203,-28.320,0.000
1673805293.847,-29.785,-34.180,-29.297,-36.133,0.000
1673805293.851,-23.926,-47.363,-25.391,-28.809,0.000
1673805293.855,-13.184,-42.480,-26.367,-21.484,0.000
1673805293.859,-12.207,-25.879,-28.320,-19.043,0.000
1673805293.862,-23.926,-25.391,-26.855,-14.648,0.000
1673805293.866,-24.414,-23.926,-18.555,-11.230,0.000
1673805293.870,-17.578,-25.391,-26.855,-13.672,0.000
1673805293.874,-47.363,-33.691,-33.203,-16.113,0.000
1673805293.878,-52.246,-34.180,-24.414,-13.672,0.000
1673805293.882,-42.969,-31.738,-24.414,-9.277,0.000
1673805293.886,-22.461,-30.273,-27.344,-5.371,0.000
1673805293.890,-17.578,-27.832,-26.367,2.930,0.000
1673805293.894,-35.645,-25.879,-30.762,-2.930,0.000
1673805293.898,-40.039,-26.367,-25.391,0.000,0.000
1673805293.901,-41.016,-27.832,-22.461,8.789,0.000
1673805293.905,-34.180,-29.297,-29.785,-4.395,0.000
1673805293.909,-13.184,-24.414,-24.414,-1.953,0.000
1673805293.913,-7.812,-17.578,-18.066,3.906,0.000
1673805293.917,-1.465,-15.137,-18.066,-11.230,0.000
1673805293.921,-0.977,-16.113,-24.902,-17.090,0.000
1673805293.925,-11.230,-13.184,-28.809,-18.555,0.000
1673805293.929,-20.996,-14.648,-29.785,-24.414,0.000
1673805293.933,-23.438,-19.043,-28.320,-25.391,0.000
1673805293.937,-18.555,-19.531,-24.902,-22.461,0.000
1673805293.941,-25.391,-20.020,-24.414,-23.438,0.000
1673805293.944,-24.414,-22.461,-26.367,-23.438,0.000
1673805293.948,-27.344,-27.832,-26.367,-29.785,0.000
1673805293.952,-25.391,-22.461,-24.902,-30.273,0.000
1673805293.956,-16.602,-23.926,-23.926,-20.996,0.000
1673805293.960,-16.113,-33.203,-26.855,-24.414,0.000
1673805293.964,-26.367,-26.855,-18.555,-21.973,0.000
1673805293.968,-33.691,-20.508,-15.625,-24.414,0.000
1673805293.972,-17.090,-20.508,-19.043,-23.926,0.000
1673805293.976,-8.789,-26.855,-18.066,-25.879,0.000
1673805293.980,-20.508,-27.344,-18.066,-24.902,0.000
1673805293.984,-25.391,-24.902,-23.926,-10.254,0.000
1673805293.987,-29.785,-25.879,-28.320,-7.812,0.000
1673805293.991,-36.133,-23.926,-20.996,-10.254,0.000
1673805293.995,-31.250,-29.785,-20.996,-3.906,0.000
1673805293.999,-18.066,-31.250,-23.926,7.324,0.000
1673805294.003,-15.625,-24.902,-20.996,6.348,0.000
1673805294.007,-6.836,-17.578,-20.020,-11.719,0.000
1673805294.011,-0.977,-12.695,-19.043,-14.648,0.000
1673805294.015,-17.090,-22.949,-21.973,-13.184,0.000
1673805294.019,-32.715,-33.203,-25.391,-9.277,0.000
1673805294.023,-27.344,-24.902,-25.879,-3.906,0.000
1673805294.026,-11.719,-15.625,-24.414,-15.137,0.000
1673805294.030,-11.719,-18.066,-24.414,-27.344,0.000
1673805294.034,-35.156,-23.438,-23.438,-20.996,0.000
1673805294.038,-45.898,-27.344,-18.066,-18.555,0.000
1673805294.042,-31.250,-25.391,-19.531,-28.320,0.000
1673805294.046,-12.695,-19.043,-24.902,-35.645,0.000
1673805294.050,-1.953,-16.602,-31.738,-35.645,0.000
1673805294.054,-9.277,-21.973,-29.785,-28.320,0.000
1673805294.058,-26.855,-27.832,-26.855,-30.273,0.000
1673805294.062,-26.855,-20.996,-27.344,-30.273,0.000
1673805294.066,-29.297,-16.113,-22.461,-15.625,0.000
1673805294.069,-16.602,-21.484,-20.020,-7.324,0.000
1673805294.073,9.277,-16.602,-21.484,-10.742,0.000
1673805294.077,-0.977,-17.578,-24.414,-12.207,0.000
1673805294.081,-23.438,-31.250,-24.902,-10.742,0.000
1673805294.085,-35.156,-35.645,-28.320,-11.230,0.000
1673805294.089,-35.156,-31.738,-34.180,-8.789,0.000
1673805294.093,-33.691,-36.133,-28.320,-14.160,0.000
1673805294.097,-27.344,-40.527,-27.344,-15.625,0.000
1673805294.101,-25.879,-36.621,-33.203,-14.160,0.000
1673805294.105,-37.598,-31.250,-32.227,-20.508,0.000
1673805294.109,-33.691,-24.902,-32.715,-25.391,0.000
1673805294.112,-25.391,-26.367,-35.645,-34.180,0.000
1673805294.116,-37.109,-27.832,-35.156,-33.203,0.000
1673805294.120,-59.082,-27.832,-37.598,-25.879,0.000
1673805294.124,-51.270,-24.414,-41.504,-32.227,0.000
1673805294.128,-41.504,-29.785,-34.180,-33.203,0.000
1673805294.132,-37.598,-41.016,-34.180,-29.785,0.000
1673805294.136,-30.762,-38.574,-38.574,-31.250,0.000
1673805294.140,-26.367,-32.227,-34.180,-33.691,0.000
1673805294.144,-17.090,-35.156,-34.180,-36.621,0.000
1673805294.148,-32.715,-34.180,-37.598,-27.344,0.000
1673805294.151,-58.594,-39.551,-32.227,-16.113,0.000
1673805294.155,-53.223,-42.480,-30.762,-27.832,0.000
1673805294.159,-33.203,-40.039,-28.809,-42.480,0.000
1673805294.163,-27.344,-34.180,-22.461,-35.645,0.000
1673805294.167,-42.969,-32.715,-26.855,-30.762,0.000
1673805294.171,-50.781,-32.715,-31.250,-28.320,0.000
1673805294.175,-41.016,-25.879,-31.738,-25.391,0.000
1673805294.179,-35.645,-32.715,-27.344,-26.855,0.000
1673805294.183,-35.645,-37.109,-25.879,-15.137,0.000
1673805294.187,-55.176,-33.203,-30.273,-10.254,0.000
1673805294.191,-68.848,-35.156,-28.809,-22.461,0.000
1673805294.194,-59.570,-32.227,-29.297,-31.738,0.000
1673805294.198,-52.246,-24.902,-34.180,-34.180,0.000
1673805294.202,-46.875,-28.320,-37.109,-39.551,0.000
1673805294.206,-41.504,-36.621,-37.109,-40.039,0.000
1673805294.210,-46.387,-32.227,-33.691,-40.039,0.000
1673805294.214,-47.852,-26.855,-31.250,-41.016,0.000
1673805294.218,-43.457,-35.645,-30.273,-37.598,0.000
1673805294.222,-39.062,-28.809,-28.320,-41.992,0.000
1673805294.226,-39.062,-19.043,-32.715,-59.570,0.000
1673805294.230,-42.480,-25.879,-35.156,-60.059,0.000
1673805294.234,-41.992,-34.668,-34.668,-50.293,0.000
1673805294.237,-37.109,-27.344,-35.645,-44.434,0.000
1673805294.241,-28.809,-17.090,-38.086,-39.062,0.000
1673805294.245,-21.484,-19.531,-37.109,-46.875,0.000
1673805294.249,-2.930,-28.320,-34.668,-40.039,0.000
1673805294.253,-10.254,-27.344,-40.039,-17.578,0.000
1673805294.257,-21.484,-24.902,-38.574,-18.066,0.000
1673805294.261,-20.020,-32.715,-32.227,-20.996,0.000
1673805294.265,-29.785,-28.320,-29.297,-13.672,0.000
1673805294.269,-32.715,-20.508,-35.156,-4.395,0.000
1673805294.273,-55.176,-26.367,-40.039,-14.648,0.000
1673805294.276,-55.664,-33.203,-35.156,-34.180,0.000
1673805294.280,-34.668,-34.180,-35.156,-30.762,0.000
1673805294.284,-25.879,-32.227,-32.715,-20.996,0.000
1673805294.288,-28.809,-39.551,-29.297,-17.090,0.000
1673805294.292,-33.691,-43.945,-30.273,-20.508,0.000
1673805294.296,-37.109,-37.109,-26.367,-24.902,0.000
1673805294.300,-39.062,-32.715,-24.902,-25.879,0.000
1673805294.304,-41.016,-30.762,-26.367,-26.855,0.000
1673805294.308,-41.504,-31.738,-25.879,-30.762,0.000
1673805294.312,-28.809,-26.367,-30.273,-35.645,0.000
1673805294.316,-13.184,-17.090,-30.762,-37.109,0.000
1673805294.319,-17.090,-22.949,-26.367,-30.273,0.000
1673805294.323,-27.832,-23.926,-25.879,-28.320,0.000
1673805294.327,-31.738,-27.832,-28.809,-23.438,0.000
1673805294.331,-41.016,-37.109,-30.762,-17.090,0.000
1673805294.335,-39.551,-23.926,-32.227,-23.926,0.000
1673805294.339,-31.738,-17.090,-30.762,-24.902,0.000
1673805294.343,-28.320,-32.227,-29.297,-20.508,0.000
1673805294.347,-14.160,-36.133,-30.762,-24.902,0.000
1673805294.351,-4.395,-26.367,-32.227,-19.531,0.000
1673805294.355,-26.367,-22.461,-25.391,-13.184,0.000
1673805294.359,-34.668,-25.879,-24.414,-23.926,0.000
1673805294.362,-22.949,-26.367,-26.367,-29.297,0.000
1673805294.366,-17.578,-23.926,-23.438,-28.809,0.000
1673805294.370,-16.602,-26.367,-26.367,-36.133,0.000
1673805294.374,-32.715,-20.996,-26.367,-32.227,0.000
1673805294.378,-33.203,-24.414,-29.785,-20.020,0.000
1673805294.382,-18.555,-32.715,-32.715,-22.949,0.000
1673805294.386,-12.207,-31.250,-25.391,-23.926,0.000
1673805294.390,-19.531,-34.668,-25.879,-21.973,0.000
1673805294.394,-38.574,-34.668,-28.809,-27.832,0.000
1673805294.398,-40.527,-32.227,-32.227,-33.691,0.000
1673805294.401,-48.340,-33.691,-36.621,-33.691,0.000
1673805294.405,-59.082,-34.180,-42.969,-22.949,0.000
1673805294.409,-54.199,-31.738,-36.621,-19.531,0.000
1673805294.413,-54.199,-32.715,-25.879,-28.809,0.000
1673805294.417,-40.527,-32.227,-30.762,-25.391,0.000
1673805294.421,-36.621,-29.785,-27.344,-17.090,0.000
1673805294.425,-38.086,-38.086,-30.273,-30.273,0.000
1673805294.429,-41.504,-36.133,-32.715,-32.227,0.000
1673805294.433,-59.082,-27.832,-24.902,-16.602,0.000
1673805294.437,-59.570,-25.879,-26.367,-18.555,0.000
1673805294.441,-33.691,-19.531,-25.391,-21.973,0.000
1673805294.444,-19.531,-17.578,-27.344,-18.555,0.000
1673805294.448,-16.113,-16.113,-29.297,-17.090,0.000
1673805294.452,-4.395,-16.602,-24.414,-14.648,0.000
1673805294.456,-1.465,-18.555,-25.391,-21.973,0.000
1673805294.460,-16.113,-19.531,-31.738,-25.391,0.000
1673805294.464,-33.203,-22.461,-34.668,-23.438,0.000
1673805294.468,-18.066,-23.926,-27.344,-29.785,0.000
1673805294.472,-7.324,-27.344,-27.344,-28.320,0.000
1673805294.476,-15.625,-23.438,-24.902,-21.973,0.000
1673805294.480,-7.812,-14.648,-17.578,-23.926,0.000
1673805294.484,-11.719,-23.438,-19.531,-23.926,0.000
1673805294.487,-17.090,-34.668,-22.461,-22.949,0.000
1673805294.491,-27.344,-28.320,-22.461,-26.855,0.000
1673805294.495,-39.062,-14.160,-19.043,-23.926,0.000
1673805294.499,-36.133,-9.277,-17.578,-18.066,0.000
1673805294.503,-36.621,-11.719,-24.902,-17.578,0.000
1673805294.507,-31.250,-17.578,-29.297,-21.973,0.000
1673805294.511,-25.879,-17.578,-26.855,-18.555,0.000
1673805294.515,-18.066,-10.742,-25.391,-17.578,0.000
1673805294.519,-22.949,-15.137,-26.367,-20.020,0.000
1673805294.523,-46.387,-15.625,-24.414,-18.555,0.000
1673805294.526,-54.688,-12.695,-20.020,-22.949,0.000
1673805294.530,-41.016,-20.508,-18.066,-25.879,0.000
1673805294.534,-31.250,-21.484,-18.066,-18.066,0.000
1673805294.538,-17.578,-19.531,-20.020,-7.812,0.000
1673805294.542,-1.465,-18.066,-24.414,-16.113,0.000
1673805294.546,5.371,-8.789,-25.391,-13.184,0.000
1673805294.550,-0.488,-7.812,-22.461,-7.324,0.000
1673805294.554,-7.324,-12.207,-25.391,-5.371,0.000
1673805294.558,-11.230,-10.742,-18.066,6.348,0.000
1673805294.562,-0.977,-13.184,-18.555,-2.930,0.000
1673805294.566,6.348,-15.625,-39.551,-8.789,0.000
1673805294.569,-9.277,-20.020,-34.668,-13.672,0.000
1673805294.573,-26.367,-27.344,-18.555,-20.020,0.000
1673805294.577,-18.555,-31.250,-14.648,-10.254,0.000
1673805294.581,-3.418,-20.508,-13.184,-4.883,0.000
1673805294.585,4.395,-7.812,-19.043,-14.648,0.000
1673805294.589,2.441,-17.578,-27.344,-22.949,0.000
1673805294.593,-23.438,-36.133,-27.832,-20.996,0.000
1673805294.597,-44.922,-32.227,-28.809,-20.508,0.000
1673805294.601,-45.410,-28.320,-34.668,-22.949,0.000
1673805294.605,-50.293,-40.039,-33.203,-21.484,0.000
1673805294.609,-43.945,-36.621,-31.250,-24.414,0.000
1673805294.612,-31.738,-29.297,-33.691,-27.344,0.000
1673805294.616,-43.945,-38.086,-32.227,-17.578,0.000
1673805294.620,-52.734,-35.156,-30.762,-13.184,0.000
1673805294.624,-46.387,-18.555,-35.156,-22.461,0.000
1673805294.628,-35.645,-13.672,-33.691,-20.996,0.000
1673805294.632,-21.484,-23.438,-30.273,-13.672,0.000
1673805294.636,-12.695,-23.926,-35.645,-20.020,0.000
1673805294.640,-13.672,-11.230,-32.227,-21.973,0.000
1673805294.644,-16.602,-11.719,-24.902,-24.414,0.000
1673805294.648,-12.207,-21.973,-24.414,-25.391,0.000
1673805294.651,8.301,-15.625,-20.996,-22.461,0.000
1673805294.655,7.812,-13.184,-20.020,-20.020,0.000
1673805294.659,-12.695,-29.297,-26.367,-23.438,0.000
1673805294.663,-13.672,-25.879,-34.668,-23.926,0.000
1673805294.667,-1.465,-17.578,-38.086,-13.672,0.000
1673805294.671,12.207,-22.461,-26.367,-8.301,0.000
1673805294.675,8.301,-25.879,-15.625,-13.184,0.000
1673805294.679,4.395,-18.555,-22.949,-13.184,0.000
1673805294.683,-11.719,-13.184,-23.438,-13.672,0.000
1673805294.687,-53.223,-19.531,-23.438,-15.137,0.000
1673805294.691,-58.594,-17.578,-23.438,-10.742,0.000
1673805294.694,-41.992,-15.625,-20.020,-17.578,0.000
1673805294.698,-28.809,-24.414,-22.461,-20.020,0.000
1673805294.702,-18.066,-26.367,-27.344,-23.926,0.000
1673805294.706,-8.789,-21.484,-36.133,-36.133,0.000
1673805294.710,-11.719,-15.625,-41.992,-39.062,0.000
1673805294.714,-34.180,-20.508,-35.156,-30.273,0.000
1673805294.718,-53.223,-32.227,-27.832,-12.695,0.000
1673805294.722,-53.223,-29.785,-25.879,-12.207,0.000
1673805294.726,-40.039,-16.113,-26.855,-19.043,0.000
1673805294.730,-22.949,-12.207,-28.320,-17.578,0.000
1673805294.734,-21.973,-21.973,-29.297,-20.996,0.000
1673805294.737,-27.344,-28.809,-28.809,-24.414,0.000
1673805294.741,-22.461,-22.949,-36.133,-36.133,0.000
1673805294.745,-17.090,-18.066,-34.180,-30.273,0.000
1673805294.749,5.859,-24.902,-25.391,-16.113,0.000
1673805294.753,9.277,-26.367,-27.344,-22.461,0.000
1673805294.757,1.953,-21.973,-26.855,-31.738,0.000
1673805294.761,-9.766,-19.531,-25.391,-26.855,0.000
1673805294.765,-59.570,-20.020,-22.461,-22.461,0.000
1673805294.769,-61.523,-20.020,-25.879,-30.762,0.000
1673805294.773,-37.109,-29.297,-29.785,-33.691,0.000
1673805294.776,-31.738,-31.738,-27.344,-31.738,0.000
1673805294.780,-26.367,-26.367,-25.879,-35.156,0.000
1673805294.784,-30.273,-29.297,-24.414,-33.691,0.000
1673805294.788,-54.688,-27.344,-22.461,-27.344,0.000
1673805294.792,-62.988,-24.902,-26.855,-29.785,0.000
1673805294.796,-42.480,-28.809,-29.785,-33.203,0.000
1673805294.800,-27.832,-28.809,-29.785,-28.320,0.000
1673805294.804,-26.367,-28.809,-26.367,-22.461,0.000
1673805294.808,-51.270,-33.203,-22.461,-17.578,0.000
1673805294.812,-69.336,-30.273,-19.531,-9.766,0.000
1673805294.816,-57.617,-22.461,-14.160,-18.066,0.000
1673805294.819,-41.992,-19.531,-18.066,-23.438,0.000
1673805294.823,-19.531,-24.414,-20.020,-28.320,0.000
1673805294.827,0.000,-26.855,-23.926,-41.016,0.000
1673805294.831,7.324,-26.855,-29.785,-43.945,0.000
1673805294.835,-23.438,-26.855,-24.902,-29.297,0.000
1673805294.839,-47.852,-22.949,-24.414,-13.672,0.000
1673805294.843,-30.273,-23.438,-25.391,-10.742,0.000
1673805294.847,-14.648,-20.020,-24.902,-18.555,0.000
1673805294.851,2.441,-20.996,-28.809,-24.902,0.000
1673805294.855,6.836,-25.879,-34.180,-20.020,0.000
1673805294.858,-26.367,-30.273,-36.133,-22.949,0.000
1673805294.862,-58.105,-38.086,-23.438,-19.531,0.000
1673805294.866,-54.199,-36.621,-17.090,-5.859,0.000
1673805294.870,-29.297,-21.484,-24.902,-8.301,0.000
1673805294.874,-20.996,-15.625,-30.273,-20.020,0.000
1673805294.878,-36.621,-21.484,-27.344,-29.785,0.000
1673805294.882,-36.133,-30.273,-24.902,-27.344,0.000
1673805294.886,-30.273,-24.414,-21.973,-19.531,0.000
1673805294.890,-26.367,-16.602,-25.879,-26.367,0.000
1673805294.894,-19.531,-21.973,-28.320,-30.273,0.000
1673805294.898,-6.836,-20.508,-23.926,-26.367,0.000
1673805294.901,-23.926,-28.320,-26.367,-30.762,0.000
1673805294.905,-51.758,-36.621,-31.250,-29.297,0.000
1673805294.909,-40.527,-32.715,-32.715,-31.738,0.000
1673805294.913,-27.832,-31.250,-31.250,-34.180,0.000
1673805294.917,-36.133,-27.832,-29.297,-24.414,0.000
1673805294.921,-43.457,-32.227,-29.297,-26.367,0.000
1673805294.925,-33.691,-48.828,-33.691,-25.879,0.000
1673805294.929,-22.949,-45.410,-39.551,-30.762,0.000
1673805294.933,-26.855,-34.180,-38.574,-31.738,0.000
1673805294.937,-43.945,-31.738,-30.273,-21.484,0.000
1673805294.941,-43.945,-31.250,-21.484,-23.438,0.000
1673805294.944,-54.199,-27.832,-26.855,-18.555,0.000
1673805294.948,-46.875,-27.344,-29.785,-14.160,0.000
1673805294.952,-20.020,-27.832,-28.320,-15.137,0.000
1673805294.956,-29.785,-23.438,-30.273,-8.301,0.000
1673805294.960,-49.805,-24.902,-32.227,-4.395,0.000
1673805294.964,-43.457,-27.832,-36.621,-11.719,0.000
1673805294.968,-23.926,-28.809,-38.574,-11.230,0.000
1673805294.972,-13.184,-29.785,-34.668,-11.719,0.000
1673805294.976,1.953,-34.180,-35.156,-21.484,0.000
1673805294.980,-2.930,-32.715,-35.645,-22.949,0.000
1673805294.983,-32.715,-31.250,-36.133,-18.555,0.000
1673805294.987,-30.762,-31.250,-35.645,-8.789,0.000
1673805294.991,-24.414,-26.855,-31.738,-7.324,0.000
1673805294.995,-33.203,-28.320,-35.645,-18.066,0.000
1673805294.999,-24.902,-22.461,-38.086,-21.484,0.000
1673805295.003,-19.043,-23.926,-36.133,-22.949,0.000
1673805295.007,-44.434,-31.250,-36.621,-16.602,0.000
1673805295.011,-35.645,-29.785,-33.203,-16.113,0.000
1673805295.015,-20.996,-21.484,-25.391,-17.578,0.000
1673805295.019,-40.039,-16.113,-31.250,-12.207,0.000
1673805295.023,-60.547,-28.320,-32.227,-14.160,0.000
1673805295.026,-54.688,-34.180,-24.414,-21.484,0.000
1673805295.030,-34.180,-27.832,-23.438,-23.926,0.000
1673805295.034,-25.391,-26.367,-27.344,-7.324,0.000
1673805295.038,-25.391,-34.668,-31.738,-5.371,0.000
1673805295.042,-30.762,-37.109,-30.273,-25.879,0.000
1673805295.046,-28.809,-24.414,-26.855,-18.555,0.000
1673805295.050,-21.973,-25.391,-29.297,-13.672,0.000
1673805295.054,-33.203,-30.762,-36.133,-13.184,0.000
1673805295.058,-46.387,-30.273,-36.133,-20.020,0.000
1673805295.062,-25.391,-30.273,-25.391,-29.297,0.000
1673805295.066,-12.695,-42.480,-27.832,-17.578,0.000
1673805295.069,-26.367,-54.688,-41.016,-29.297,0.000
1673805295.073,-28.809,-42.969,-39.551,-42.480,0.000
1673805295.077,-3.906,-24.902,-31.250,-25.879,0.000
1673805295.081,8.789,-28.320,-35.156,-21.973,0.000
1673805295.085,-17.578,-32.715,-41.016,-30.762,0.000
1673805295.089,-40.527,-21.484,-30.273,-30.273,0.000
1673805295.093,-55.664,-30.762,-26.367,-36.133,0.000
1673805295.097,-38.086,-34.180,-30.762,-41.504,0.000
1673805295.101,-27.344,-26.855,-28.320,-24.902,0.000
1673805295.105,-53.223,-37.109,-31.250,-15.137,0.000
1673805295.108,-59.082,-40.527,-30.762,-11.719,0.000
1673805295.112,-29.297,-37.598,-26.855,-16.113,0.000
1673805295.116,-25.879,-37.598,-29.785,-20.020,0.000
1673805295.120,-39.062,-25.879,-27.832,-13.672,0.000
1673805295.124,-31.738,-17.578,-15.137,-1.465,0.000
1673805295.128,-40.527,-28.809,-13.672,3.906,0.000
1673805295.132,-54.688,-38.574,-26.367,-0.977,0.000
1673805295.136,-42.969,-34.180,-24.414,4.395,0.000
1673805295.140,-11.719,-30.762,-10.742,7.324,0.000
1673805295.144,-19.043,-32.715,-16.602,-1.953,0.000
1673805295.148,-33.691,-28.320,-22.461,-9.766,0.000
1673805295.151,-16.602,-22.949,-11.719,-4.883,0.000
1673805295.155,3.906,-19.531,-12.207,9.766,0.000
1673805295.159,-15.137,-26.367,-22.461,-2.441,0.000
1673805295.163,-50.781,-32.715,-26.367,-20.996,0.000
1673805295.167,-55.664,-26.367,-27.344,-14.160,0.000
1673805295.171,-41.992,-22.461,-27.344,-4.883,0.000
1673805295.175,-25.879,-20.996,-28.320,-11.230,0.000
1673805295.179,-10.254,-20.020,-28.320,-17.578,0.000
1673805295.183,-7.812,-20.508,-27.832,-6.836,0.000
1673805295.187,-20.020,-27.344,-23.926,-4.395,0.000
1673805295.191,-14.648,-27.832,-23.438,-14.648,0.000
1673805295.194,12.695,-19.531,-23.926,-17.578,0.000
1673805295.198,27.344,-18.066,-22.461,-19.531,0.000
1673805295.202,1.465,-17.090,-21.973,-5.859,0.000
1673805295.206,-14.648,-13.184,-18.555,4.395,0.000
1673805295.210,-18.066,-18.066,-16.113,1.953,0.000
1673805295.214,-25.391,-29.785,-24.414,9.277,0.000
1673805295.218,-8.301,-16.113,-22.949,20.508,0.000
1673805295.222,13.184,-6.836,-23.926,11.719,0.000
1673805295.226,20.996,-18.066,-31.250,-3.906,0.000
1673805295.230,-9.766,-21.484,-27.832,2.441,0.000
1673805295.233,-33.203,-18.555,-18.555,9.277,0.000
1673805295.237,-32.227,-26.367,-12.207,3.906,0.000
1673805295.241,-36.621,-33.203,-20.508,-6.348,0.000
1673805295.245,-38.574,-27.344,-31.250,-8.301,0.000
1673805295.249,-30.762,-22.461,-33.203,-6.836,0.000
1673805295.253,-15.625,-27.832,-31.738,-11.230,0.000
1673805295.257,-18.555,-42.969,-26.367,-16.113,0.000
1673805295.261,-30.762,-37.598,-22.949,-26.855,0.000
1673805295.265,-35.156,-32.227,-23.438,-31.250,0.000
1673805295.269,-22.461,-31.250,-23.438,-22.461,0.000
1673805295.273,-11.719,-18.555,-18.555,-18.066,0.000
1673805295.276,-15.137,-19.531,-18.555,-25.879,0.000
1673805295.280,-15.137,-36.133,-30.273,-33.691,0.000
1673805295.284,-24.902,-34.668,-36.133,-40.039,0.000
1673805295.288,-34.180,-17.578,-32.715,-42.480,0.000
1673805295.292,-33.691,-19.043,-32.715,-42.969,0.000
1673805295.296,-57.617,-23.438,-30.273,-36.621,0.000
1673805295.300,-64.941,-25.391,-24.414,-21.973,0.000
1673805295.304,-51.270,-24.902,-25.391,-15.625,0.000
1673805295.308,-47.852,-24.902,-22.461,-22.949,0.000
1673805295.312,-61.035,-30.273,-23.926,-21.484,0.000
1673805295.316,-66.895,-32.715,-27.832,-15.137,0.000
1673805295.319,-51.270,-34.668,-23.926,-4.883,0.000
1673805295.323,-31.250,-44.434,-24.902,-4.395,0.000
1673805295.327,-35.645,-37.598,-26.855,-12.207,0.000
1673805295.331,-41.992,-24.902,-29.785,-9.766,0.000
1673805295.335,-28.320,-28.320,-33.691,-8.301,0.000
1673805295.339,-26.367,-34.180,-34.180,-13.184,0.000
1673805295.343,-24.414,-33.691,-36.133,-22.949,0.000
1673805295.347,-22.949,-30.762,-29.297,-29.785,0.000
1673805295.351,-23.438,-22.461,-26.855,-23.926,0.000
1673805295.355,-20.996,-19.531,-38.086,-14.648,0.000
1673805295.358,-20.020,-22.461,-40.039,-31.250,0.000
1673805295.362,-6.836,-18.555,-31.738,-41.016,0.000
1673805295.366,16.113,-14.648,-32.227,-26.855,0.000
1673805295.370,14.160,-14.648,-32.227,-36.133,0.000
1673805295.374,-33.691,-20.020,-23.438,-41.016,0.000
1673805295.378,-64.941,-31.250,-24.414,-40.527,0.000
1673805295.382,-39.062,-33.203,-29.297,-44.434,0.000
1673805295.386,-22.949,-25.391,-24.414,-38.086,0.000
1673805295.390,-32.227,-21.973,-22.461,-34.180,0.000
1673805295.394,-45.898,-17.090,-27.344,-35.156,0.000
1673805295.398,-42.969,-18.066,-25.879,-25.879,0.000
1673805295.401,-35.156,-22.461,-21.973,-13.184,0.000
1673805295.405,-27.832,-13.184,-22.461,-11.230,0.000
1673805295.409,-5.371,-8.789,-25.879,-13.672,0.000
1673805295.413,-8.789,-20.020,-28.320,-16.602,0.000
1673805295.417,-27.344,-20.020,-22.461,-6.836,0.000
1673805295.421,-24.414,-20.020,-16.602,-2.930,0.000
1673805295.425,-30.762,-20.508,-17.578,-16.602,0.000
1673805295.429,-27.344,-16.113,-24.414,-22.949,0.000
1673805295.433,-19.531,-16.602,-20.996,-27.832,0.000
1673805295.437,-15.137,-18.066,-15.137,-25.879,0.000
1673805295.441,0.488,-13.184,-14.648,-18.555,0.000
1673805295.444,9.766,-15.625,-15.625,-24.902,0.000
1673805295.448,4.395,-24.902,-19.531,-30.762,0.000
1673805295.452,1.953,-18.555,-20.508,-25.391,0.000
1673805295.456,8.301,-10.254,-28.320,-18.555,0.000
1673805295.460,-22.461,-13.672,-27.832,-27.832,0.000
1673805295.464,-36.133,-18.066,-16.602,-26.367,0.000
1673805295.468,-22.949,-17.090,-20.508,-17.578,0.000
1673805295.472,-35.645,-18.066,-19.531,-15.137,0.000
1673805295.476,-41.504,-17.578,-20.508,-17.578,0.000
1673805295.480,-12.695,-13.672,-25.879,-23.438,0.000
1673805295.483,21.484,-12.695,-28.809,-19.531,0.000
1673805295.487,23.438,-22.949,-32.227,-24.902,0.000
1673805295.491,14.648,-29.785,-28.809,-31.738,0.000
1673805295.495,-21.973,-24.902,-24.902,-17.090,0.000
1673805295.499,-55.664,-27.344,-21.484,-12.207,0.000
1673805295.503,-47.852,-32.715,-22.461,-13.672,0.000
1673805295.507,-34.668,-28.320,-24.414,-18.555,0.000
1673805295.511,-31.250,-17.090,-18.555,-17.578,0.000
1673805295.515,-29.297,-21.484,-23.438,-14.648,0.000
1673805295.519,-8.789,-15.137,-29.785,-9.766,0.000
1673805295.523,-3.906,-10.254,-22.461,-12.695,0.000
1673805295.526,-26.367,-19.043,-20.508,-5.371,0.000
1673805295.530,-30.762,-26.367,-20.508,-0.488,0.000
1673805295.534,-30.273,-33.691,-26.855,-8.789,0.000
1673805295.538,-29.297,-29.297,-25.391,0.977,0.000
1673805295.542,-22.461,-24.414,-14.160,-3.418,0.000
1673805295.546,-23.438,-28.320,-14.160,-8.301,0.000
1673805295.550,-26.367,-22.461,-24.414,-10.742,0.000
1673805295.554,-20.996,-27.344,-25.391,-14.160,0.000
1673805295.558,-6.348,-38.086,-18.555,-10.254,0.000
1673805295.562,8.789,-21.484,-18.066,-20.020,0.000
1673805295.566,21.973,-20.996,-21.484,-21.484,0.000
1673805295.569,17.578,-27.832,-22.461,-14.160,0.000
1673805295.573,10.742,-9.766,-11.719,-7.812,0.000
1673805295.577,1.953,-5.371,-17.090,-8.301,0.000
1673805295.581,11.719,-12.695,-24.414,-7.324,0.000
1673805295.585,6.348,-20.508,-12.207,-8.301,0.000
1673805295.589,-7.324,-42.480,-16.602,-28.809,0.000
1673805295.593,-3.906,-35.156,-19.043,-25.879,0.000
1673805295.597,-32.227,-16.113,-13.184,-11.230,0.000
1673805295.601,-59.570,-35.156,-20.996,-19.531,0.000
1673805295.605,-65.430,-30.762,-31.738,-25.879,0.000
1673805295.608,-65.918,-21.973,-29.785,-28.809,0.000
1673805295.612,-61.523,-21.973,-27.832,-33.203,0.000
1673805295.616,-60.547,-18.555,-32.715,-31.738,0.000
1673805295.620,-54.199,-25.879,-36.133,-24.414,0.000
1673805295.624,-49.316,-22.461,-32.715,-17.090,0.000
1673805295.628,-35.645,-24.902,-31.738,-13.672,0.000
1673805295.632,-28.320,-27.832,-41.016,-5.371,0.000
1673805295.636,-33.203,-24.414,-34.180,-10.254,0.000
1673805295.640,-34.668,-27.832,-24.414,-29.785,0.000
1673805295.644,-33.203,-37.109,-31.738,-37.109,0.000
1673805295.648,-29.297,-30.762,-36.621,-38.086,0.000
1673805295.651,-7.812,-26.855,-29.785,-46.387,0.000
1673805295.655,14.648,-31.250,-31.738,-36.133,0.000
1673805295.659,10.254,-31.738,-42.969,-38.574,0.000
1673805295.663,-8.789,-24.902,-35.645,-37.109,0.000
1673805295.667,-47.852,-23.926,-26.855,-25.879,0.000
1673805295.671,-46.875,-27.832,-32.715,-32.227,0.000
1673805295.675,-1.465,-28.320,-32.715,-29.297,0.000
1673805295.679,21.484,-30.273,-31.738,-26.367,0.000
1673805295.683,17.090,-24.414,-33.691,-26.367,0.000
1673805295.687,-22.461,-23.438,-32.715,-15.625,0.000
1673805295.691,-44.922,-29.297,-28.320,-9.277,0.000
1673805295.694,-56.152,-37.598,-35.645,-20.996,0.000
1673805295.698,-69.824,-31.738,-45.898,-22.949,0.000
1673805295.702,-62.988,-26.367,-36.133,-13.184,0.000
1673805295.706,-59.570,-28.809,-22.461,-6.348,0.000
1673805295.710,-45.898,-30.273,-18.066,-7.324,0.000
1673805295.714,-40.039,-37.598,-22.461,-13.672,0.000
1673805295.718,-34.180,-34.668,-27.344,-9.766,0.000
1673805295.722,-25.391,-28.320,-25.879,-6.348,0.000
1673805295.726,-23.438,-20.020,-24.414,-15.137,0.000
1673805295.730,-18.066,-21.973,-32.227,-37.109,0.000
1673805295.733,5.859,-24.902,-32.715,-41.016,0.000
1673805295.737,4.883,-13.672,-29.297,-23.926,0.000
1673805295.741,-18.555,-16.113,-44.434,-28.320,0.000
1673805295.745,-25.879,-28.320,-46.875,-26.855,0.000
1673805295.749,-28.809,-32.227,-31.738,-13.184,0.000
1673805295.753,-11.230,-18.555,-30.762,-15.625,0.000
1673805295.757,7.812,-14.648,-36.621,-27.344,0.000
1673805295.761,24.902,-14.160,-40.527,-37.109,0.000
1673805295.765,9.766,-16.602,-42.969,-31.738,0.000
1673805295.769,-61.035,-28.320,-41.504,-21.973,0.000
1673805295.773,-65.918,-35.156,-40.039,-18.555,0.000
1673805295.776,-33.203,-31.738,-37.109,-21.484,0.000
1673805295.780,-45.898,-25.391,-42.969,-20.020,0.000
1673805295.784,-48.340,-29.785,-36.621,-7.812,0.000
1673805295.788,-45.898,-26.855,-20.996,-2.930,0.000
1673805295.792,-47.852,-30.273,-20.020,-17.578,0.000
1673805295.796,-43.945,-34.180,-29.297,-28.320,0.000
1673805295.800,-42.480,-33.203,-34.668,-22.949,0.000
1673805295.804,-41.992,-39.062,-35.645,-26.855,0.000
1673805295.808,-33.203,-30.762,-39.062,-35.645,0.000
1673805295.812,-23.926,-25.879,-38.574,-34.668,0.000
1673805295.816,-19.043,-38.086,-37.598,-36.133,0.000
1673805295.819,-12.207,-43.945,-39.062,-39.551,0.000
1673805295.823,-36.621,-35.156,-36.621,-38.574,0.000
1673805295.827,-59.082,-30.762,-31.250,-35.156,0.000
1673805295.831,-46.387,-31.738,-24.414,-29.785,0.000
1673805295.835,-34.668,-25.391,-25.879,-27.344,0.000
1673805295.839,-14.160,-21.484,-32.227,-35.645,0.000
1673805295.843,7.812,-20.996,-28.320,-33.691,0.000
1673805295.847,-11.719,-18.066,-29.785,-28.320,0.000
1673805295.851,-45.898,-19.531,-38.574,-31.250,0.000
1673805295.855,-52.246,-22.949,-35.156,-29.297,0.000
1673805295.858,-29.297,-20.508,-31.738,-24.414,0.000
1673805295.862,-22.461,-22.461,-31.738,-15.137,0.000
1673805295.866,-40.527,-25.391,-31.250,-19.531,0.000
1673805295.870,-55.176,-22.949,-30.273,-28.320,0.000
1673805295.874,-57.129,-20.508,-27.344,-30.273,0.000
1673805295.878,-45.410,-32.715,-29.297,-36.133,0.000
1673805295.882,-27.344,-39.062,-31.250,-29.297,0.000
1673805295.886,-30.762,-22.949,-30.762,-19.043,0.000
1673805295.890,-41.016,-18.555,-31.738,-14.648,0.000
1673805295.894,-28.320,-18.066,-35.645,-14.160,0.000
1673805295.898,-24.902,-21.973,-39.062,-16.602,0.000
1673805295.901,-24.902,-26.855,-38.086,-17.090,0.000
1673805295.905,-13.184,-24.902,-38.574,-16.602,0.000
1673805295.909,-7.324,-28.809,-36.133,-20.020,0.000
1673805295.913,-11.230,-34.180,-27.832,-23.438,0.000
1673805295.917,-25.391,-34.180,-25.879,-18.555,0.000
1673805295.921,-42.480,-35.156,-37.109,-23.438,0.000
1673805295.925,-34.668,-34.180,-34.180,-25.879,0.000
1673805295.929,-23.926,-27.344,-28.320,-22.461,0.000
1673805295.933,-34.180,-19.043,-24.902,-16.602,0.000
1673805295.937,-28.320,-6.348,-11.719,-9.277,0.000
1673805295.941,-15.625,-8.301,-19.531,-19.531,0.000
1673805295.944,-7.324,-20.996,-34.180,-27.344,0.000
1673805295.948,-10.254,-25.879,-28.320,-25.879,0.000
1673805295.952,-21.484,-26.855,-20.020,-28.320,0.000
1673805295.956,-5.859,-16.602,-19.531,-26.367,0.000
1673805295.960,-0.488,-16.602,-28.320,-31.250,0.000
1673805295.964,-28.809,-22.461,-37.598,-41.504,0.000
1673805295.968,-48.828,-33.203,-41.992,-42.480,0.000
1673805295.972,-36.621,-38.574,-41.992,-44.922,0.000
1673805295.976,-20.996,-30.762,-33.691,-44.434,0.000
1673805295.980,-32.715,-26.855,-35.156,-31.250,0.000
1673805295.983,-31.250,-31.738,-41.992,-25.391,0.000
1673805295.987,-33.203,-42.969,-40.527,-27.832,0.000
1673805295.991,-46.387,-33.691,-36.621,-21.973,0.000
1673805295.995,-32.227,-25.879,-27.832,-30.762,0.000
1673805295.999,-20.508,-35.156,-24.414,-33.203,0.000
1673805296.003,-26.855,-33.203,-28.809,-19.043,0.000
1673805296.007,-49.316,-30.762,-41.504,-24.414,0.000
1673805296.011,-48.828,-22.949,-41.504,-24.902,0.000
1673805296.015,-37.109,-25.879,-35.156,-21.484,0.000
1673805296.019,-33.203,-26.855,-36.621,-22.949,0.000
1673805296.023,-20.508,-30.762,-23.926,-10.254,0.000
1673805296.026,-14.648,-40.039,-15.137,-5.371,0.000
1673805296.030,-22.949,-36.133,-28.809,-22.949,0.000
1673805296.034,-29.785,-39.551,-43.945,-21.973,0.000
1673805296.038,-32.227,-37.598,-33.691,-0.488,0.000
1673805296.042,-32.227,-19.531,-20.020,-15.137,0.000
1673805296.046,-36.621,-29.297,-26.367,-45.410,0.000
1673805296.050,-35.156,-30.273,-34.180,-38.086,0.000
1673805296.054,-24.902,-18.555,-34.180,-30.762,0.000
1673805296.058,-37.598,-27.832,-34.668,-41.992,0.000
1673805296.062,-47.852,-33.691,-37.109,-47.363,0.000
1673805296.066,-31.250,-35.156,-34.180,-41.504,0.000
1673805296.069,-18.066,-30.762,-32.715,-25.391,0.000
1673805296.073,-12.695,-30.273,-35.156,-27.832,0.000
1673805296.077,-14.648,-22.949,-31.250,-38.086,0.000
1673805296.081,-28.809,-19.531,-29.785,-33.691,0.000
1673805296.085,-41.992,-20.508,-30.762,-29.785,0.000
1673805296.089,-34.180,-31.738,-26.855,-27.344,0.000
1673805296.093,-7.812,-35.645,-34.180,-20.508,0.000
1673805296.097,-5.859,-21.973,-35.156,-11.719,0.000
1673805296.101,-33.691,-23.438,-34.180,-7.812,0.000
1673805296.105,-36.621,-27.832,-34.668,-4.883,0.000
1673805296.108,-27.832,-26.367,-23.926,-7.324,0.000
1673805296.112,-27.832,-33.691,-21.973,-9.277,0.000
1673805296.116,-33.691,-31.738,-23.438,-5.859,0.000
1673805296.120,-33.203,-24.902,-30.273,-15.137,0.000
1673805296.124,-17.090,-27.832,-36.133,-18.066,0.000
1673805296.128,0.488,-18.555,-33.691,-18.555,0.000
1673805296.132,-7.324,-20.508,-25.879,-15.625,0.000
1673805296.136,-51.758,-39.062,-25.391,-9.277,0.000
1673805296.140,-72.266,-45.898,-27.344,-17.578,0.000
1673805296.144,-70.312,-48.340,-32.227,-25.879,0.000
1673805296.148,-67.871,-42.480,-35.645,-31.250,0.000
1673805296.151,-60.059,-30.273,-36.133,-23.438,0.000
1673805296.155,-51.758,-30.273,-31.250,-5.859,0.000
1673805296.159,-39.551,-30.762,-29.785,-12.207,0.000
1673805296.163,-34.668,-31.250,-37.109,-30.762,0.000
1673805296.167,-26.855,-45.410,-29.297,-36.133,0.000
1673805296.171,-15.137,-46.387,-24.414,-40.527,0.000
1673805296.175,-16.602,-33.203,-29.785,-37.109,0.000
1673805296.179,-31.250,-35.645,-31.250,-23.438,0.000
1673805296.183,-31.738,-37.109,-25.879,-13.672,0.000
1673805296.187,-21.484,-32.227,-27.344,-14.648,0.000
1673805296.191,-19.531,-34.668,-33.691,-27.344,0.000
1673805296.194,-12.207,-38.574,-32.715,-26.367,0.000
1673805296.198,-2.441,-31.738,-29.785,-9.766,0.000
1673805296.202,-11.719,-32.715,-27.344,2.441,0.000
1673805296.206,-26.367,-26.367,-27.344,5.859,0.000
1673805296.210,-22.949,-18.555,-24.902,-10.742,0.000
1673805296.214,-19.531,-23.926,-29.785,-22.461,0.000
1673805296.218,-32.227,-32.715,-36.621,-23.438,0.000
1673805296.222,-38.574,-34.180,-34.668,-24.414,0.000
1673805296.226,-37.109,-36.621,-34.668,-31.250,0.000
1673805296.230,-31.250,-39.551,-31.738,-28.320,0.000
1673805296.233,-44.922,-31.250,-41.016,-13.672,0.000
1673805296.237,-59.082,-26.855,-36.621,-14.160,0.000
1673805296.241,-53.711,-34.180,-19.043,-24.902,0.000
1673805296.245,-39.551,-29.785,-23.926,-24.902,0.000
1673805296.249,-28.809,-21.484,-30.762,-16.602,0.000
1673805296.253,-30.273,-27.344,-31.250,-13.672,0.000
1673805296.257,-28.809,-32.715,-30.273,-16.602,0.000
1673805296.261,-27.832,-28.809,-26.367,-9.766,0.000
1673805296.265,-29.297,-33.203,-25.391,-19.043,0.000
1673805296.269,-22.949,-27.344,-22.461,-22.949,0.000
1673805296.273,-16.602,-11.719,-17.090,-7.812,0.000
1673805296.276,-18.555,-17.578,-24.414,-11.719,0.000
1673805296.280,-13.672,-20.996,-26.367,-18.066,0.000
1673805296.284,-11.719,-10.742,-24.414,-16.602,0.000
1673805296.288,-10.254,-14.160,-31.738,-20.996,0.000
1673805296.292,4.395,-26.855,-39.062,-23.926,0.000
1673805296.296,5.859,-23.438,-33.691,-21.973,0.000
1673805296.300,2.930,-14.648,-29.785,-23.926,0.000
1673805296.304,-12.207,-17.090,-27.344,-30.762,0.000
1673805296.308,-34.668,-24.902,-25.391,-34.180,0.000
1673805296.312,-18.555,-22.461,-24.414,-31.250,0.000
1673805296.315,-4.395,-19.531,-30.762,-31.738,0.000
1673805296.319,-8.789,-20.020,-40.527,-32.715,0.000
1673805296.323,-17.090,-10.742,-30.273,-33.691,0.000
1673805296.327,-17.578,-20.508,-25.391,-24.414,0.000
1673805296.331,-20.996,-25.879,-31.250,-8.301,0.000
1673805296.335,-33.203,-9.277,-27.832,-7.324,0.000
1673805296.339,-34.668,-5.371,-22.461,-6.836,0.000
1673805296.343,-35.156,-12.695,-17.578,-2.441,0.000
1673805296.347,-32.715,-19.531,-18.555,-9.277,0.000
1673805296.351,-17.090,-13.672,-12.695,4.883,0.000
1673805296.355,-6.348,-4.883,-10.742,21.484,0.000
1673805296.358,-0.488,-4.395,-14.648,6.836,0.000
1673805296.362,11.719,-6.836,-16.602,-2.441,0.000
1673805296.366,14.160,-18.066,-23.438,0.000,0.000
1673805296.370,12.695,-33.691,-32.227,-4.395,0.000
1673805296.374,6.836,-21.973,-24.902,-9.766,0.000
1673805296.378,-2.441,-3.418,-16.113,-20.020,0.000
1673805296.382,-18.555,-3.906,-16.602,-13.184,0.000
1673805296.386,-28.809,-10.254,-15.625,0.488,0.000
1673805296.390,-20.996,-9.766,-15.137,1.953,0.000
1673805296.394,-17.578,-19.531,-17.090,-4.883,0.000
1673805296.398,-7.812,-25.391,-18.066,-15.137,0.000
1673805296.401,-1.465,-20.508,-22.949,-14.648,0.000
1673805296.405,-5.371,-17.090,-29.297,-18.555,0.000
1673805296.409,-7.812,-19.531,-24.414,-21.973,0.000
1673805296.413,8.789,-24.414,-22.461,-14.648,0.000
1673805296.417,-1.465,-21.484,-20.020,-8.301,0.000
1673805296.421,-47.852,-22.949,-18.555,-10.742,0.000
1673805296.425,-47.852,-25.391,-19.531,-12.695,0.000
1673805296.429,-35.156,-24.414,-16.113,-5.859,0.000
1673805296.433,-32.227,-30.762,-23.438,-7.812,0.000
1673805296.437,-33.203,-28.320,-31.250,-2.930,0.000
1673805296.441,-34.668,-20.020,-28.809,-5.371,0.000
1673805296.444,-31.250,-16.602,-27.832,-6.836,0.000
1673805296.448,-12.207,-10.742,-21.484,-0.977,0.000
1673805296.452,0.488,-15.137,-17.090,1.465,0.000
1673805296.456,-2.441,-24.414,-17.090,11.719,0.000
1673805296.460,-0.488,-20.020,-20.020,2.441,0.000
1673805296.464,-10.254,-18.066,-19.043,-7.812,0.000
1673805296.468,-13.672,-19.043,-17.578,-1.953,0.000
1673805296.472,-26.855,-23.438,-18.555,8.301,0.000
1673805296.476,-36.133,-33.691,-25.879,-7.812,0.000
1673805296.480,-21.973,-21.484,-22.949,-21.973,0.000
1673805296.483,-7.812,-18.555,-17.578,-18.555,0.000
1673805296.487,-6.836,-23.438,-24.414,-10.742,0.000
1673805296.491,-14.160,-24.902,-25.391,-4.883,0.000
1673805296.495,-20.996,-33.203,-30.762,-15.625,0.000
1673805296.499,-17.578,-36.621,-29.297,-27.832,0.000
1673805296.503,-14.648,-27.344,-28.320,-27.832,0.000
1673805296.507,-28.320,-16.602,-36.621,-30.762,0.000
1673805296.511,-44.434,-23.438,-34.668,-39.062,0.000
1673805296.515,-40.039,-24.902,-25.391,-36.133,0.000
1673805296.519,-34.668,-20.020,-23.438,-24.414,0.000
1673805296.523,-34.668,-25.391,-25.879,-25.391,0.000
1673805296.526,-25.391,-30.762,-16.602,-26.855,0.000
1673805296.530,-13.184,-30.762,-20.020,-31.250,0.000
1673805296.534,-11.230,-23.438,-23.926,-21.973,0.000
1673805296.538,-19.531,-20.996,-23.926,-10.254,0.000
1673805296.542,-7.812,-26.367,-29.297,-17.090,0.000
1673805296.546,-16.602,-27.832,-32.715,-4.883,0.000
1673805296.550,-29.297,-27.344,-27.832,3.906,0.000
1673805296.554,-19.043,-25.879,-21.973,4.395,0.000
1673805296.558,-37.109,-21.484,-16.602,7.324,0.000
1673805296.562,-57.617,-26.367,-13.672,1.953,0.000
1673805296.565,-54.688,-33.203,-24.414,4.395,0.000
1673805296.569,-40.039,-25.391,-27.832,2.441,0.000
1673805296.573,-23.926,-20.020,-28.809,-3.906,0.000
1673805296.577,-20.020,-28.809,-25.879,-4.395,0.000
1673805296.581,-15.625,-25.879,-19.043,-3.418,0.000
1673805296.585,-31.738,-17.578,-27.344,-7.324,0.000
1673805296.589,-39.062,-19.531,-31.738,-8.789,0.000
1673805296.593,-27.832,-26.855,-26.855,-15.137,0.000
1673805296.597,-24.902,-21.973,-26.855,-39.551,0.000
1673805296.601,-11.719,-14.648,-33.691,-41.504,0.000
1673805296.605,-3.906,-16.113,-37.109,-39.551,0.000
1673805296.608,-11.230,-41.992,-37.598,-50.293,0.000
1673805296.612,-12.207,-46.387,-41.992,-42.969,0.000
1673805296.616,-8.789,-13.672,-31.250,-30.273,0.000
1673805296.620,-14.648,-9.766,-15.625,-34.180,0.000
1673805296.624,-26.367,-16.113,-17.090,-23.438,0.000
1673805296.628,-38.086,-11.230,-15.137,-10.742,0.000
1673805296.632,-50.293,-16.602,-23.438,-21.484,0.000
1673805296.636,-50.293,-24.414,-30.273,-16.602,0.000
1673805296.640,-20.508,-19.043,-3.418,7.324,0.000
1673805296.644,-4.395,-18.066,-2.930,3.418,0.000
1673805296.648,-24.414,-19.531,-19.043,-8.301,0.000
1673805296.651,-35.645,-17.090,-16.113,0.000,0.000
1673805296.655,-41.016,-23.438,-15.137,-0.977,0.000
1673805296.659,-41.016,-20.996,-20.996,-2.441,0.000
1673805296.663,-13.184,-14.160,-20.508,-7.324,0.000
1673805296.667,3.418,-19.531,-17.578,-7.324,0.000
1673805296.671,6.836,-14.160,-20.996,-4.883,0.000
1673805296.675,-3.906,-19.043,-26.855,-36.621,0.000
1673805296.679,-20.508,-27.832,-28.320,-42.969,0.000
1673805296.683,-31.738,-22.949,-25.391,-26.367,0.000
1673805296.687,-50.781,-28.809,-24.414,-25.879,0.000
1673805296.690,-41.504,-20.020,-23.438,-24.902,0.000
1673805296.694,-17.578,-12.207,-24.414,-32.715,0.000
1673805296.698,-0.488,-22.949,-40.039,-40.039,0.000
1673805296.702,4.395,-18.066,-46.387,-33.691,0.000
1673805296.706,-14.648,-13.184,-35.156,-27.344,0.000
1673805296.710,-48.828,-19.043,-29.297,-29.785,0.000
1673805296.714,-47.363,-20.996,-24.902,-22.949,0.000
1673805296.718,-21.973,-17.578,-30.273,-15.625,0.000
1673805296.722,-20.020,-26.855,-36.621,-15.625,0.000
1673805296.726,-26.855,-30.762,-26.855,-11.719,0.000
1673805296.730,-16.602,-21.484,-21.484,-8.789,0.000
1673805296.733,-6.836,-24.902,-29.297,-6.836,0.000
1673805296.737,-0.977,-33.691,-33.691,-10.742,0.000
1673805296.741,4.395,-40.039,-33.203,-20.020,0.000
1673805296.745,-13.672,-34.668,-31.738,-14.160,0.000
1673805296.749,-38.574,-19.531,-23.438,-8.301,0.000
1673805296.753,-36.621,-13.672,-15.625,-14.648,0.000
1673805296.757,-20.020,-23.438,-24.414,-20.020,0.000
1673805296.761,-19.043,-36.621,-32.227,-22.949,0.000
1673805296.765,-28.320,-38.086,-30.762,-26.367,0.000
1673805296.769,-20.020,-31.738,-32.227,-27.344,0.000
1673805296.773,-28.809,-26.367,-29.297,-18.066,0.000
1673805296.776,-30.762,-23.438,-26.367,-15.625,0.000
1673805296.780,-10.254,-20.996,-24.902,-16.602,0.000
1673805296.784,-9.766,-20.996,-29.297,-18.555,0.000
1673805296.788,-22.461,-21.484,-34.180,-17.090,0.000
1673805296.792,-38.086,-27.832,-32.227,-19.531,0.000
1673805296.796,-45.410,-34.668,-28.320,-28.320,0.000
1673805296.800,-32.227,-26.855,-24.414,-21.973,0.000
1673805296.804,-20.508,-22.949,-22.461,-22.461,0.000
1673805296.808,-23.926,-27.832,-18.066,-30.762,0.000
1673805296.812,-31.738,-40.039,-23.926,-36.133,0.000
1673805296.815,-32.715,-47.363,-32.715,-30.762,0.000
1673805296.819,-12.695,-37.598,-31.738,-18.555,0.000
1673805296.823,-16.113,-30.273,-32.715,-29.785,0.000
1673805296.827,-25.879,-36.621,-39.551,-39.062,0.000
1673805296.831,-19.531,-34.180,-40.039,-19.531,0.000
1673805296.835,-22.949,-33.203,-41.504,-7.324,0.000
1673805296.839,-34.180,-38.086,-32.715,-14.648,0.000
1673805296.843,-41.992,-32.227,-14.160,-17.090,0.000
1673805296.847,-44.434,-40.527,-21.973,-18.066,0.000
1673805296.851,-38.574,-46.875,-28.320,-18.555,0.000
1673805296.855,-23.438,-36.133,-27.344,-12.207,0.000
1673805296.858,-29.785,-30.273,-30.273,-14.160,0.000
1673805296.862,-26.367,-23.438,-27.344,-21.484,0.000
1673805296.866,-30.762,-27.832,-30.762,-25.391,0.000
1673805296.870,-51.758,-39.551,-37.598,-28.809,0.000
1673805296.874,-44.434,-34.180,-30.762,-30.762,0.000
1673805296.878,-38.574,-27.344,-25.391,-26.855,0.000
1673805296.882,-46.387,-33.203,-26.855,-26.367,0.000
1673805296.886,-38.086,-34.668,-23.926,-21.484,0.000
1673805296.890,-33.691,-29.785,-22.461,-26.855,0.000
1673805296.894,-29.297,-32.715,-24.902,-33.691,0.000
1673805296.898,-20.020,-41.016,-21.973,-21.973,0.000
1673805296.901,-20.508,-42.480,-19.043,-20.020,0.000
1673805296.905,-43.945,-32.227,-20.996,-23.926,0.000
1673805296.909,-59.570,-24.902,-30.762,-29.297,0.000
1673805296.913,-35.156,-23.926,-33.203,-31.738,0.000
1673805296.917,-17.578,-25.879,-19.043,-22.949,0.000
1673805296.921,-12.695,-25.879,-18.066,-20.020,0.000
1673805296.925,-7.812,-23.438,-33.203,-12.207,0.000
1673805296.929,-9.277,-19.043,-38.574,-5.371,0.000
1673805296.933,-17.578,-22.949,-23.926,-5.371,0.000
1673805296.937,-52.246,-27.344,-18.066,-10.742,0.000
1673805296.940,-61.523,-20.508,-25.391,-17.090,0.000
1673805296.944,-36.621,-19.043,-29.785,-12.695,0.000
1673805296.948,-32.715,-28.809,-33.203,-13.184,0.000
1673805296.952,-36.133,-35.156,-32.227,-5.371,0.000
1673805296.956,-52.734,-33.691,-35.156,3.418,0.000
1673805296.960,-38.574,-43.945,-50.293,-12.207,0.000
1673805296.964,4.883,-42.480,-47.363,-24.414,0.000
1673805296.968,4.395,-20.996,-26.367,-19.043,0.000
1673805296.972,-21.484,-30.762,-18.555,-9.277,0.000
1673805296.976,-39.062,-37.109,-26.367,-13.672,0.000
1673805296.980,-32.227,-17.090,-34.180,-19.043,0.000
1673805296.983,-20.020,-17.090,-35.156,-14.160,0.000
1673805296.987,-16.113,-20.996,-29.785,-13.184,0.000
1673805296.991,-2.441,-20.996,-25.391,-14.160,0.000
1673805296.995,4.883,-24.414,-35.156,-19.043,0.000
1673805296.999,-25.879,-29.297,-38.574,-18.555,0.000
1673805297.003,-25.879,-32.715,-31.250,-8.789,0.000
1673805297.007,-5.859,-30.762,-30.762,-13.184,0.000
1673805297.011,-16.113,-29.297,-29.297,-27.344,0.000
1673805297.015,-24.414,-28.320,-31.738,-21.484,0.000
1673805297.019,-38.086,-27.344,-31.738,-9.277,0.000
1673805297.023,-35.645,-31.738,-33.203,-8.301,0.000
1673805297.026,-26.855,-29.297,-35.645,-2.441,0.000
1673805297.030,-43.457,-23.438,-32.715,-6.836,0.000
1673805297.034,-53.711,-27.344,-31.250,-10.254,0.000
1673805297.038,-31.250,-33.691,-24.902,-8.301,0.000
1673805297.042,-15.137,-33.203,-23.438,-18.066,0.000
1673805297.046,-8.789,-23.926,-27.832,-32.715,0.000
1673805297.050,-22.461,-22.461,-23.438,-24.414,0.000
1673805297.054,-26.367,-24.414,-33.203,-18.066,0.000
1673805297.058,-15.625,-25.879,-41.504,-22.949,0.000
1673805297.062,-32.227,-31.250,-33.203,-6.836,0.000
1673805297.065,-35.645,-27.832,-26.855,-10.254,0.000
