timestamp,TP9,AF7,AF8,TP10,Right AUX
1673805513.820,-28.320,-26.367,-17.578,-5.371,0.000
1673805513.824,-30.273,-25.391,-21.973,0.000,0.000
1673805513.828,-20.996,-21.484,-26.855,-2.930,0.000
1673805513.832,-22.461,-18.066,-30.273,-15.137,0.000
1673805513.836,-13.184,-21.973,-30.273,-24.902,0.000
1673805513.839,-6.348,-29.785,-31.738,-26.855,0.000
1673805513.843,-21.484,-27.832,-36.621,-25.879,0.000
1673805513.847,-30.273,-23.438,-30.762,-16.602,0.000
1673805513.851,-38.574,-22.461,-26.855,-7.812,0.000
1673805513.855,-45.410,-22.949,-29.785,-20.996,0.000
1673805513.859,-37.109,-25.391,-23.438,-15.137,0.000
1673805513.863,-22.949,-20.508,-24.902,-4.883,0.000
1673805513.867,-20.508,-22.949,-28.320,-11.719,0.000
1673805513.871,-20.020,-25.391,-28.320,-13.672,0.000
1673805513.875,-14.160,-16.602,-28.809,-26.855,0.000
1673805513.878,-20.508,-19.531,-29.785,-30.273,0.000
1673805513.882,-36.133,-24.414,-33.203,-23.926,0.000
1673805513.886,-30.762,-22.461,-33.691,-33.691,0.000
1673805513.890,-20.020,-22.461,-36.133,-59.082,0.000
1673805513.894,-16.602,-24.902,-34.668,-58.594,0.000
1673805513.898,-16.113,-21.484,-32.227,-51.270,0.000
1673805513.902,-11.230,-21.973,-34.180,-44.434,0.000
1673805513.906,0.000,-30.273,-31.738,-31.250,0.000
1673805513.910,9.766,-29.297,-30.762,-36.621,0.000
1673805513.914,9.277,-22.949,-31.250,-33.203,0.000
1673805513.918,0.977,-24.902,-34.180,-26.855,0.000
1673805513.921,-14.160,-29.297,-41.992,-31.738,0.000
1673805513.925,-20.020,-30.762,-41.504,-24.414,0.000
1673805513.929,-26.855,-26.855,-33.691,-16.602,0.000
1673805513.933,-32.227,-24.414,-34.180,-25.879,0.000
1673805513.937,-36.621,-34.180,-34.668,-22.949,0.000
1673805513.941,-38.574,-43.457,-35.156,-13.184,0.000
1673805513.945,-57.617,-35.645,-35.645,-5.371,0.000
1673805513.949,-58.594,-28.320,-32.715,-8.789,0.000
1673805513.953,-38.086,-35.156,-27.832,-17.090,0.000
1673805513.957,-43.457,-37.598,-25.391,-5.859,0.000
1673805513.961,-46.387,-32.715,-27.344,0.977,0.000
1673805513.964,-30.273,-29.785,-32.227,-8.789,0.000
1673805513.968,-9.277,-22.461,-35.645,-26.367,0.000
1673805513.972,-13.672,-21.973,-35.645,-23.926,0.000
1673805513.976,-40.039,-22.461,-35.156,-7.324,0.000
1673805513.980,-33.691,-20.508,-33.691,0.000,0.000
1673805513.984,-20.020,-24.414,-28.320,-1.465,0.000
1673805513.988,-24.902,-24.414,-29.297,-14.648,0.000
1673805513.992,-22.949,-24.902,-30.762,-33.691,0.000
1673805513.996,-20.020,-28.809,-31.250,-34.180,0.000
1673805514.000,-21.484,-30.762,-31.738,-29.785,0.000
1673805514.003,-23.926,-36.133,-30.762,-32.227,0.000
1673805514.007,-19.531,-38.086,-25.391,-23.926,0.000
1673805514.011,-18.555,-31.250,-19.531,-9.766,0.000
1673805514.015,-35.156,-22.949,-22.461,-1.953,0.000
1673805514.019,-31.250,-20.996,-23.926,-17.090,0.000
1673805514.023,-9.766,-28.320,-27.832,-25.879,0.000
1673805514.027,-12.695,-25.879,-33.691,-15.137,0.000
1673805514.031,-33.691,-24.902,-32.715,-10.742,0.000
1673805514.035,-31.738,-29.785,-28.320,-18.555,0.000
1673805514.039,-23.438,-27.832,-24.414,-14.648,0.000
1673805514.043,-15.625,-23.438,-29.297,-9.766,0.000
1673805514.046,-19.531,-23.438,-31.250,-19.043,0.000
1673805514.050,-46.387,-34.180,-26.367,-20.996,0.000
1673805514.054,-59.570,-40.039,-28.809,-17.090,0.000
1673805514.058,-40.527,-27.832,-30.762,-13.672,0.000
1673805514.062,-31.738,-22.949,-28.809,-18.066,0.000
1673805514.066,-45.898,-38.086,-32.227,-11.719,0.000
1673805514.070,-59.570,-45.410,-30.762,-0.488,0.000
1673805514.074,-51.270,-31.738,-27.344,6.836,0.000
1673805514.078,-43.457,-27.832,-31.738,-0.977,0.000
1673805514.082,-36.133,-30.762,-35.645,-21.973,0.000
1673805514.086,-21.484,-29.785,-36.621,-32.715,0.000
1673805514.089,-14.648,-23.438,-30.762,-29.297,0.000
1673805514.093,-14.160,-23.438,-28.809,-21.484,0.000
1673805514.097,-15.137,-23.926,-28.809,-20.996,0.000
1673805514.101,-4.883,-20.508,-22.949,-25.391,0.000
1673805514.105,-7.812,-21.484,-20.508,-22.949,0.000
1673805514.109,-15.137,-24.414,-22.949,-17.090,0.000
1673805514.113,-2.441,-19.531,-23.438,-23.438,0.000
1673805514.117,3.418,-15.625,-22.461,-32.227,0.000
1673805514.121,6.836,-17.578,-21.973,-30.762,0.000
1673805514.125,13.184,-21.973,-23.438,-21.973,0.000
1673805514.128,6.836,-23.926,-25.391,-29.297,0.000
1673805514.132,-6.348,-23.926,-26.367,-29.297,0.000
1673805514.136,-9.277,-18.066,-21.484,-16.602,0.000
1673805514.140,-29.785,-18.555,-21.973,-6.348,0.000
1673805514.144,-47.852,-27.344,-30.273,-10.742,0.000
1673805514.148,-43.457,-25.391,-27.832,-13.184,0.000
1673805514.152,-53.223,-28.809,-29.785,-16.602,0.000
1673805514.156,-56.152,-32.227,-35.645,-23.438,0.000
1673805514.160,-40.527,-25.391,-38.574,-21.973,0.000
1673805514.164,-28.320,-20.020,-41.016,-26.367,0.000
1673805514.168,-24.902,-18.066,-37.598,-17.578,0.000
1673805514.171,-17.578,-21.484,-34.180,-1.465,0.000
1673805514.175,-23.926,-30.273,-33.691,-6.348,0.000
1673805514.179,-35.156,-32.227,-31.250,-5.371,0.000
1673805514.183,-33.203,-26.367,-26.367,-4.883,0.000
1673805514.187,-26.855,-25.879,-27.832,-24.414,0.000
1673805514.191,-22.949,-30.273,-30.273,-22.949,0.000
1673805514.195,-18.066,-31.738,-33.691,-23.438,0.000
1673805514.199,-13.184,-30.762,-39.551,-30.762,0.000
1673805514.203,-9.766,-28.320,-38.574,-26.367,0.000
1673805514.207,1.953,-23.926,-35.645,-24.902,0.000
1673805514.211,-6.836,-27.832,-38.086,-27.344,0.000
1673805514.214,-21.484,-24.902,-36.133,-39.062,0.000
1673805514.218,-2.441,-16.113,-32.227,-34.180,0.000
1673805514.222,5.859,-20.996,-33.691,-24.902,0.000
1673805514.226,0.000,-25.879,-32.227,-18.555,0.000
1673805514.230,-17.578,-22.461,-26.855,-10.742,0.000
1673805514.234,-38.574,-20.508,-25.879,-17.090,0.000
1673805514.238,-35.645,-23.926,-25.391,-7.324,0.000
1673805514.242,-38.086,-29.785,-24.414,2.930,0.000
1673805514.246,-37.598,-29.785,-28.320,-5.371,0.000
1673805514.250,-24.902,-26.855,-26.855,-7.812,0.000
1673805514.253,-12.695,-25.391,-20.020,-7.324,0.000
1673805514.257,-13.672,-25.879,-18.066,-4.883,0.000
1673805514.261,-40.527,-27.832,-20.996,-11.230,0.000
1673805514.265,-49.805,-22.461,-19.043,-8.789,0.000
1673805514.269,-32.227,-25.879,-18.555,-3.418,0.000
1673805514.273,-22.949,-24.902,-23.926,-11.719,0.000
1673805514.277,-28.809,-19.043,-24.414,-9.766,0.000
1673805514.281,-30.762,-18.555,-20.020,-2.441,0.000
1673805514.285,-12.695,-15.625,-22.949,-11.230,0.000
1673805514.289,-12.207,-23.926,-27.344,-31.738,0.000
1673805514.293,-10.742,-22.949,-24.902,-32.227,0.000
1673805514.296,-7.324,-22.461,-23.438,-22.461,0.000
1673805514.300,-5.859,-28.809,-20.996,-27.832,0.000
1673805514.304,-11.230,-32.227,-25.391,-34.180,0.000
1673805514.308,-31.250,-28.809,-34.180,-28.809,0.000
1673805514.312,-41.504,-24.414,-34.180,-24.414,0.000
1673805514.316,-45.410,-29.785,-29.785,-18.555,0.000
1673805514.320,-35.645,-23.926,-31.250,-20.508,0.000
1673805514.324,-19.531,-20.020,-36.621,-18.066,0.000
1673805514.328,-22.461,-27.832,-31.738,-9.766,0.000
1673805514.332,-31.738,-27.344,-29.297,-20.508,0.000
1673805514.335,-15.625,-28.320,-33.691,-20.020,0.000
1673805514.339,-7.812,-32.227,-27.344,-9.766,0.000
1673805514.343,-12.207,-25.391,-20.508,-5.859,0.000
1673805514.347,-17.578,-21.973,-24.414,-11.230,0.000
1673805514.351,-22.461,-23.926,-24.902,-12.695,0.000
1673805514.355,-28.809,-19.043,-18.066,-9.277,0.000
1673805514.359,-34.180,-23.926,-17.090,-13.672,0.000
1673805514.363,-22.949,-32.227,-24.902,-27.344,0.000
1673805514.367,-13.672,-25.391,-26.855,-36.621,0.000
1673805514.371,-20.020,-22.949,-26.367,-23.438,0.000
1673805514.375,-36.133,-27.832,-22.461,-11.719,0.000
1673805514.378,-36.621,-26.855,-20.508,-23.926,0.000
1673805514.382,-28.809,-31.250,-25.879,-29.297,0.000
1673805514.386,-19.531,-28.320,-31.738,-29.785,0.000
1673805514.390,-2.441,-19.043,-28.320,-31.738,0.000
1673805514.394,-13.184,-26.367,-26.367,-35.645,0.000
1673805514.398,-30.762,-29.297,-22.949,-32.715,0.000
1673805514.402,-19.531,-24.902,-19.043,-37.598,0.000
1673805514.406,-7.324,-23.926,-19.531,-32.227,0.000
1673805514.410,-2.930,-18.066,-20.020,-20.508,0.000
1673805514.414,-11.230,-19.531,-22.949,-27.832,0.000
1673805514.418,-9.766,-27.344,-23.438,-29.785,0.000
1673805514.421,-8.789,-25.879,-26.855,-24.414,0.000
1673805514.425,-42.480,-29.785,-32.715,-16.602,0.000
1673805514.429,-60.059,-32.715,-26.367,-20.508,0.000
1673805514.433,-48.340,-26.367,-23.926,-17.578,0.000
1673805514.437,-38.086,-24.414,-29.785,-7.812,0.000
1673805514.441,-35.645,-29.297,-27.832,-22.461,0.000
1673805514.445,-29.785,-29.785,-30.273,-37.109,0.000
1673805514.449,-22.949,-29.297,-30.762,-42.969,0.000
1673805514.453,-25.879,-39.062,-30.273,-37.598,0.000
1673805514.457,-16.602,-32.715,-34.180,-32.715,0.000
1673805514.460,-3.418,-23.438,-33.691,-39.551,0.000
1673805514.464,-3.418,-22.949,-35.645,-39.551,0.000
1673805514.468,-0.977,-21.973,-32.715,-29.297,0.000
1673805514.472,6.836,-26.367,-30.762,-23.438,0.000
1673805514.476,-3.906,-25.391,-33.203,-19.531,0.000
1673805514.480,-22.461,-24.902,-31.250,-13.672,0.000
1673805514.484,-40.039,-27.344,-37.109,-9.766,0.000
1673805514.488,-42.969,-29.297,-40.527,-3.906,0.000
1673805514.492,-39.551,-23.926,-34.180,0.488,0.000
1673805514.496,-37.109,-24.414,-33.691,-2.930,0.000
1673805514.500,-12.695,-27.832,-34.180,-12.695,0.000
1673805514.503,-10.254,-25.391,-34.668,-18.555,0.000
1673805514.507,-17.090,-25.879,-32.715,-11.230,0.000
1673805514.511,-23.438,-26.855,-28.320,-2.441,0.000
1673805514.515,-34.180,-22.461,-30.273,-3.418,0.000
1673805514.519,-35.645,-21.484,-24.414,6.836,0.000
1673805514.523,-36.621,-22.949,-18.555,17.578,0.000
1673805514.527,-40.039,-24.902,-21.973,7.812,0.000
1673805514.531,-33.203,-23.438,-28.320,-25.879,0.000
1673805514.535,-23.438,-20.020,-27.344,-40.527,0.000
1673805514.539,-38.086,-21.484,-23.438,-22.949,0.000
1673805514.543,-46.387,-26.855,-25.879,-10.254,0.000
1673805514.546,-33.691,-30.762,-27.832,-12.695,0.000
1673805514.550,-20.508,-28.809,-29.297,-37.598,0.000
1673805514.554,-4.395,-20.508,-31.250,-57.129,0.000
1673805514.558,20.020,-19.043,-29.785,-51.758,0.000
1673805514.562,28.320,-23.438,-28.809,-40.527,0.000
1673805514.566,-1.953,-22.949,-23.926,-32.227,0.000
1673805514.570,-53.223,-25.879,-21.484,-10.254,0.000
1673805514.574,-71.289,-31.738,-24.414,-8.301,0.000
1673805514.578,-52.734,-30.762,-24.902,-5.859,0.000
1673805514.582,-34.180,-21.484,-22.949,9.766,0.000
1673805514.585,-22.949,-21.484,-21.484,10.254,0.000
1673805514.589,-28.320,-28.320,-23.926,2.930,0.000
1673805514.593,-31.738,-30.273,-26.855,-3.418,0.000
1673805514.597,-26.367,-21.484,-23.926,9.766,0.000
1673805514.601,-22.461,-19.043,-25.879,13.672,0.000
1673805514.605,-20.996,-24.902,-25.391,-0.977,0.000
1673805514.609,-17.578,-21.973,-24.902,-20.996,0.000
1673805514.613,-8.789,-24.414,-26.367,-41.992,0.000
1673805514.617,-5.371,-22.949,-27.832,-43.457,0.000
1673805514.621,-4.883,-20.020,-28.320,-36.621,0.000
1673805514.625,3.906,-20.996,-31.250,-34.180,0.000
1673805514.628,7.324,-20.996,-31.250,-35.156,0.000
1673805514.632,-5.859,-20.996,-28.320,-32.227,0.000
1673805514.636,-5.371,-19.531,-27.832,-24.414,0.000
1673805514.640,-1.465,-14.160,-24.902,-18.066,0.000
1673805514.644,-1.465,-16.113,-23.926,-3.418,0.000
1673805514.648,-0.488,-25.879,-31.738,-13.672,0.000
1673805514.652,-33.203,-27.344,-36.133,-21.484,0.000
1673805514.656,-61.035,-22.949,-33.691,-5.371,0.000
1673805514.660,-53.711,-19.043,-29.297,1.465,0.000
1673805514.664,-45.410,-21.973,-29.297,5.859,0.000
1673805514.668,-23.926,-25.391,-26.367,11.230,0.000
1673805514.671,-22.461,-30.273,-28.320,8.789,0.000
1673805514.675,-28.809,-36.621,-33.203,-17.090,0.000
1673805514.679,-23.926,-25.391,-32.227,-32.227,0.000
1673805514.683,-25.879,-24.902,-32.227,-16.113,0.000
1673805514.687,-25.391,-27.344,-32.715,-8.301,0.000
1673805514.691,-26.367,-25.391,-37.598,-18.555,0.000
1673805514.695,-22.461,-28.320,-37.109,-35.645,0.000
1673805514.699,-15.625,-22.949,-30.273,-31.250,0.000
1673805514.703,-14.648,-27.344,-30.273,-29.785,0.000
1673805514.707,-16.602,-28.320,-31.250,-20.020,0.000
1673805514.710,-13.184,-22.461,-29.785,-19.531,0.000
1673805514.714,-8.789,-21.973,-26.855,-32.227,0.000
1673805514.718,-1.465,-22.949,-28.320,-21.973,0.000
1673805514.722,11.230,-26.855,-27.832,-15.625,0.000
1673805514.726,10.254,-26.855,-26.855,-19.531,0.000
1673805514.730,-1.465,-16.602,-27.344,-19.531,0.000
1673805514.734,2.930,-17.578,-28.320,-16.602,0.000
1673805514.738,-13.184,-20.508,-26.855,-10.742,0.000
1673805514.742,-30.273,-21.484,-22.949,-1.465,0.000
1673805514.746,-39.062,-24.902,-22.949,-1.465,0.000
1673805514.750,-35.645,-20.996,-27.832,-11.230,0.000
1673805514.753,-20.508,-20.020,-32.227,-15.625,0.000
1673805514.757,-17.578,-22.461,-32.227,-8.301,0.000
1673805514.761,-21.973,-23.438,-28.809,-4.395,0.000
1673805514.765,-21.484,-25.879,-32.715,-14.160,0.000
1673805514.769,-25.391,-31.738,-31.250,-12.695,0.000
1673805514.773,-31.738,-22.949,-29.297,-16.602,0.000
1673805514.777,-24.414,-21.973,-38.086,-25.391,0.000
1673805514.781,-25.391,-28.809,-37.109,-23.926,0.000
1673805514.785,-30.273,-28.320,-31.250,-25.879,0.000
1673805514.789,-22.949,-27.832,-31.250,-22.461,0.000
1673805514.793,-7.812,-20.996,-28.809,-15.625,0.000
1673805514.796,-2.441,-23.438,-25.879,-22.949,0.000
1673805514.800,-9.766,-30.273,-28.320,-31.250,0.000
1673805514.804,-16.113,-29.297,-27.344,-30.273,0.000
1673805514.808,-26.367,-36.133,-27.832,-30.273,0.000
1673805514.812,-41.992,-42.969,-27.832,-31.250,0.000
1673805514.816,-33.691,-33.203,-26.855,-35.156,0.000
1673805514.820,-20.508,-26.367,-28.809,-27.344,0.000
1673805514.824,-19.043,-31.250,-30.762,-23.926,0.000
1673805514.828,-16.113,-32.715,-31.250,-33.691,0.000
1673805514.832,-15.137,-27.344,-29.785,-29.297,0.000
1673805514.835,-24.902,-28.320,-31.250,-23.926,0.000
1673805514.839,-32.715,-27.832,-31.250,-36.133,0.000
1673805514.843,-31.250,-25.879,-30.762,-42.969,0.000
1673805514.847,-31.250,-22.461,-31.250,-36.621,0.000
1673805514.851,-45.410,-27.344,-29.297,-33.691,0.000
1673805514.855,-32.227,-31.250,-30.762,-28.809,0.000
1673805514.859,-15.625,-24.902,-33.691,-30.762,0.000
1673805514.863,-23.926,-31.738,-30.273,-36.133,0.000
1673805514.867,-7.324,-32.227,-29.297,-38.086,0.000
1673805514.871,-11.230,-20.508,-30.273,-38.086,0.000
1673805514.875,-33.203,-26.367,-32.715,-21.484,0.000
1673805514.878,-41.504,-30.273,-40.039,-18.066,0.000
1673805514.882,-31.250,-20.996,-36.133,-18.066,0.000
1673805514.886,-25.391,-20.996,-33.691,-15.137,0.000
1673805514.890,-32.715,-22.949,-38.086,-5.859,0.000
1673805514.894,-26.855,-22.949,-34.668,4.395,0.000
1673805514.898,-16.113,-28.809,-30.762,1.953,0.000
1673805514.902,-21.484,-28.320,-29.297,-16.113,0.000
1673805514.906,-24.902,-23.438,-30.762,-23.438,0.000
1673805514.910,-9.277,-21.973,-28.809,-20.508,0.000
1673805514.914,-6.348,-31.250,-21.973,-28.320,0.000
1673805514.918,-12.207,-34.668,-23.926,-28.320,0.000
1673805514.921,-16.602,-25.879,-28.809,-23.926,0.000
1673805514.925,-27.344,-29.297,-32.715,-24.902,0.000
1673805514.929,-31.738,-28.809,-30.273,-31.250,0.000
1673805514.933,-23.926,-32.227,-29.785,-39.062,0.000
1673805514.937,-18.066,-38.086,-36.133,-37.109,0.000
1673805514.941,-15.625,-39.062,-38.086,-24.414,0.000
1673805514.945,-18.555,-33.691,-31.738,-18.555,0.000
1673805514.949,-36.621,-31.738,-31.250,-23.438,0.000
1673805514.953,-42.969,-33.203,-31.738,-29.785,0.000
1673805514.957,-41.016,-38.574,-27.344,-24.414,0.000
1673805514.960,-30.762,-38.086,-34.180,-20.020,0.000
1673805514.964,-28.809,-22.461,-35.645,-25.879,0.000
1673805514.968,-36.621,-26.855,-29.297,-38.086,0.000
1673805514.972,-33.691,-34.668,-26.855,-27.832,0.000
1673805514.976,-41.992,-32.715,-31.738,-20.996,0.000
1673805514.980,-52.734,-33.203,-33.203,-22.461,0.000
1673805514.984,-37.109,-32.715,-28.809,-14.648,0.000
1673805514.988,-25.391,-32.715,-29.785,-17.578,0.000
1673805514.992,-30.273,-30.273,-28.809,-7.812,0.000
1673805514.996,-28.320,-26.367,-23.438,-8.789,0.000
1673805515.000,-25.391,-28.320,-21.973,-12.207,0.000
1673805515.003,-24.902,-33.691,-26.855,-16.113,0.000
1673805515.007,-18.066,-30.762,-27.832,-28.809,0.000
1673805515.011,-20.508,-25.879,-28.809,-36.621,0.000
1673805515.015,-24.414,-20.996,-34.180,-33.691,0.000
1673805515.019,-13.672,-24.414,-27.344,-23.926,0.000
1673805515.023,-18.555,-32.715,-27.344,-25.391,0.000
1673805515.027,-19.043,-31.250,-33.203,-24.414,0.000
1673805515.031,-12.695,-30.273,-27.832,-18.066,0.000
1673805515.035,-9.766,-29.785,-21.484,-17.578,0.000
1673805515.039,-20.020,-23.926,-17.578,-17.090,0.000
1673805515.043,-20.996,-16.113,-17.090,-13.184,0.000
1673805515.046,-5.371,-20.508,-23.926,-20.508,0.000
1673805515.050,0.488,-21.973,-29.297,-24.414,0.000
1673805515.054,-11.719,-20.020,-27.344,-17.090,0.000
1673805515.058,-36.621,-23.926,-25.879,-15.625,0.000
1673805515.062,-35.645,-19.531,-20.996,-6.836,0.000
1673805515.066,-24.902,-14.648,-19.043,1.953,0.000
1673805515.070,-35.156,-21.973,-21.973,0.977,0.000
1673805515.074,-40.039,-26.855,-17.578,19.043,0.000
1673805515.078,-47.363,-27.344,-20.996,10.742,0.000
1673805515.082,-40.039,-19.043,-19.531,-5.859,0.000
1673805515.085,-23.438,-19.531,-7.324,-7.324,0.000
1673805515.089,-17.090,-22.949,-7.324,-18.066,0.000
1673805515.093,-16.602,-19.043,-11.230,-14.648,0.000
1673805515.097,-17.578,-26.855,-20.020,-4.883,0.000
1673805515.101,-7.324,-21.973,-24.414,-4.395,0.000
1673805515.105,0.000,-15.625,-22.461,-6.836,0.000
1673805515.109,-7.812,-14.160,-20.508,-0.977,0.000
1673805515.113,-13.184,-17.090,-15.137,0.977,0.000
1673805515.117,-23.926,-22.949,-17.090,-9.277,0.000
1673805515.121,-32.227,-21.973,-21.973,-18.555,0.000
1673805515.125,-24.414,-16.113,-23.438,-30.762,0.000
1673805515.128,-12.207,-13.672,-25.391,-37.109,0.000
1673805515.132,-5.859,-16.113,-19.043,-29.297,0.000
1673805515.136,-24.414,-16.113,-14.648,-27.832,0.000
1673805515.140,-31.250,-15.625,-17.090,-23.438,0.000
1673805515.144,-17.578,-16.113,-16.113,-5.859,0.000
1673805515.148,-6.836,-16.113,-17.090,-6.836,0.000
1673805515.152,-8.789,-12.695,-17.090,-9.277,0.000
1673805515.156,-18.066,-8.789,-19.043,-8.789,0.000
1673805515.160,-19.531,-10.742,-19.531,-9.766,0.000
1673805515.164,-9.277,-18.066,-14.648,-3.906,0.000
1673805515.168,-7.324,-21.484,-17.090,3.418,0.000
1673805515.171,-17.090,-21.484,-19.043,1.465,0.000
1673805515.175,-10.254,-18.066,-23.926,-14.160,0.000
1673805515.179,-2.930,-17.578,-21.484,-10.254,0.000
1673805515.183,2.930,-17.578,-19.043,-8.789,0.000
1673805515.187,15.137,-21.484,-22.949,-20.996,0.000
1673805515.191,-8.301,-24.414,-21.484,-15.625,0.000
1673805515.195,-37.109,-22.949,-20.996,-11.230,0.000
1673805515.199,-37.598,-21.973,-25.879,-14.160,0.000
1673805515.203,-28.809,-28.320,-25.391,-14.648,0.000
1673805515.207,-18.066,-39.062,-23.926,-18.555,0.000
1673805515.210,-14.648,-30.762,-30.762,-29.785,0.000
1673805515.214,-20.020,-25.879,-30.273,-34.180,0.000
1673805515.218,-28.809,-28.320,-27.344,-31.738,0.000
1673805515.222,-21.973,-27.344,-26.855,-34.668,0.000
1673805515.226,-22.461,-24.902,-20.508,-31.250,0.000
1673805515.230,-23.438,-15.137,-25.391,-27.832,0.000
1673805515.234,-15.625,-19.043,-25.391,-27.832,0.000
1673805515.238,-23.438,-33.691,-17.578,-21.973,0.000
1673805515.242,-47.363,-31.250,-27.344,-11.719,0.000
1673805515.246,-53.711,-26.855,-34.668,-20.020,0.000
1673805515.250,-36.133,-27.832,-34.668,-40.039,0.000
1673805515.253,-19.531,-23.926,-32.715,-51.758,0.000
1673805515.257,-13.672,-27.344,-27.832,-47.363,0.000
1673805515.261,-19.531,-34.668,-27.344,-28.809,0.000
1673805515.265,-27.832,-31.250,-25.879,-9.277,0.000
1673805515.269,-24.414,-26.855,-22.461,0.488,0.000
1673805515.273,-5.371,-20.996,-19.043,-5.371,0.000
1673805515.277,2.441,-24.414,-25.391,-19.531,0.000
1673805515.281,-13.184,-33.691,-27.832,-23.926,0.000
1673805515.285,-23.438,-31.250,-17.578,-17.578,0.000
1673805515.289,-18.066,-21.484,-16.602,-1.953,0.000
1673805515.292,-13.672,-21.973,-20.996,0.000,0.000
1673805515.296,0.488,-29.785,-29.297,-11.719,0.000
1673805515.300,-6.348,-32.715,-36.133,-25.391,0.000
1673805515.304,-29.785,-30.762,-36.133,-33.691,0.000
1673805515.308,-34.668,-34.668,-34.668,-25.391,0.000
1673805515.312,-22.949,-34.180,-34.668,-14.160,0.000
1673805515.316,-5.859,-27.832,-33.203,-12.695,0.000
1673805515.320,-5.371,-28.809,-36.621,-10.254,0.000
1673805515.324,-35.645,-27.832,-41.016,-11.719,0.000
1673805515.328,-68.848,-32.227,-36.133,-15.137,0.000
1673805515.332,-74.707,-34.668,-30.273,-9.277,0.000
1673805515.335,-50.293,-28.809,-20.996,-5.859,0.000
1673805515.339,-28.809,-23.438,-18.066,1.465,0.000
1673805515.343,-30.273,-25.391,-19.043,-5.371,0.000
1673805515.347,-28.320,-27.832,-17.090,-0.977,0.000
1673805515.351,-28.809,-28.320,-23.926,5.859,0.000
1673805515.355,-20.020,-30.762,-29.297,-8.789,0.000
1673805515.359,-7.324,-26.855,-28.809,-10.742,0.000
1673805515.363,-20.020,-30.762,-30.273,-11.230,0.000
1673805515.367,-22.949,-30.273,-32.227,-30.273,0.000
1673805515.371,-15.625,-20.508,-35.156,-48.828,0.000
1673805515.375,-18.555,-23.438,-41.504,-40.527,0.000
1673805515.378,-11.719,-21.484,-44.922,-37.598,0.000
1673805515.382,-3.906,-14.160,-39.062,-37.598,0.000
1673805515.386,-7.324,-12.207,-31.738,-23.926,0.000
1673805515.390,-8.789,-14.648,-32.715,-24.902,0.000
1673805515.394,-21.484,-12.207,-31.250,-22.461,0.000
1673805515.398,-32.715,-16.113,-28.320,-14.648,0.000
1673805515.402,-29.785,-20.996,-29.297,-15.137,0.000
1673805515.406,-43.945,-19.043,-27.344,-12.207,0.000
1673805515.410,-44.434,-22.949,-30.762,-25.391,0.000
1673805515.414,-27.832,-25.879,-31.738,-28.809,0.000
1673805515.417,-14.648,-21.484,-21.973,-8.789,0.000
1673805515.421,-24.902,-22.949,-18.555,9.277,0.000
1673805515.425,-41.992,-30.273,-22.461,20.508,0.000
1673805515.429,-33.691,-29.297,-29.297,10.254,0.000
1673805515.433,-14.160,-24.902,-30.273,-17.578,0.000
1673805515.437,-4.883,-19.043,-33.203,-23.438,0.000
1673805515.441,-2.930,-23.926,-33.691,-16.602,0.000
1673805515.445,-18.066,-30.762,-27.832,-14.648,0.000
1673805515.449,-24.902,-32.227,-29.297,7.812,0.000
1673805515.453,-3.418,-31.738,-28.320,15.137,0.000
1673805515.457,-2.441,-23.438,-29.297,3.418,0.000
1673805515.460,-10.254,-20.020,-32.715,-9.766,0.000
1673805515.464,-4.883,-17.578,-30.273,-13.672,0.000
1673805515.468,3.418,-14.648,-26.855,-5.859,0.000
1673805515.472,5.859,-18.066,-25.391,-1.953,0.000
1673805515.476,-22.949,-25.391,-21.484,-1.953,0.000
1673805515.480,-38.574,-20.020,-21.484,-9.766,0.000
1673805515.484,-30.762,-19.531,-27.344,-20.996,0.000
1673805515.488,-22.461,-23.438,-26.367,-19.043,0.000
1673805515.492,-33.203,-25.879,-24.414,-13.184,0.000
1673805515.496,-43.457,-26.855,-26.367,-19.043,0.000
1673805515.500,-34.180,-27.832,-25.391,-18.066,0.000
1673805515.503,-33.203,-31.250,-26.855,-16.602,0.000
1673805515.507,-23.438,-23.438,-26.367,-13.184,0.000
1673805515.511,-12.207,-20.996,-25.879,-12.695,0.000
1673805515.515,-17.090,-29.297,-32.227,-27.832,0.000
1673805515.519,-33.203,-34.180,-37.598,-29.785,0.000
1673805515.523,-43.457,-38.574,-35.156,-14.160,0.000
1673805515.527,-31.738,-35.645,-28.809,-7.324,0.000
1673805515.531,-27.832,-36.621,-26.367,-13.672,0.000
1673805515.535,-27.832,-42.969,-26.855,2.441,0.000
1673805515.539,-26.855,-35.645,-30.762,7.812,0.000
1673805515.542,-23.438,-26.855,-26.855,8.301,0.000
1673805515.546,-18.066,-21.973,-23.438,12.695,0.000
1673805515.550,-4.883,-20.508,-23.438,-0.977,0.000
1673805515.554,-0.488,-29.297,-18.066,-5.859,0.000
1673805515.558,-8.789,-29.297,-19.043,-4.395,0.000
1673805515.562,-11.230,-14.160,-27.832,-3.418,0.000
1673805515.566,-17.578,-12.207,-27.344,-4.395,0.000
1673805515.570,-27.344,-22.461,-29.785,-7.324,0.000
1673805515.574,-21.973,-25.879,-29.785,-12.695,0.000
1673805515.578,-23.438,-25.391,-28.320,-10.254,0.000
1673805515.582,-24.902,-22.461,-32.227,-12.695,0.000
1673805515.585,-18.066,-19.043,-27.344,-17.578,0.000
1673805515.589,-24.902,-20.996,-24.902,-9.277,0.000
1673805515.593,-27.832,-25.879,-25.879,-15.137,0.000
1673805515.597,-25.879,-22.461,-23.926,-17.578,0.000
1673805515.601,-31.250,-19.043,-27.344,-11.230,0.000
1673805515.605,-27.832,-22.949,-31.250,-17.090,0.000
1673805515.609,-32.715,-25.879,-31.738,-26.855,0.000
1673805515.613,-25.879,-23.438,-30.762,-24.414,0.000
1673805515.617,-16.602,-20.996,-31.250,-14.648,0.000
1673805515.621,-28.320,-15.137,-32.227,-10.254,0.000
1673805515.625,-36.621,-18.066,-28.320,-0.488,0.000
1673805515.628,-37.598,-25.879,-27.344,9.766,0.000
1673805515.632,-26.855,-19.531,-30.762,-4.883,0.000
1673805515.636,-8.789,-20.508,-31.738,-26.855,0.000
1673805515.640,-5.371,-36.621,-31.250,-42.969,0.000
1673805515.644,-12.695,-27.832,-35.645,-44.922,0.000
1673805515.648,-16.602,-19.043,-38.086,-36.621,0.000
1673805515.652,-36.621,-24.414,-36.621,-28.320,0.000
1673805515.656,-51.270,-24.414,-28.320,-27.832,0.000
1673805515.660,-34.668,-23.438,-26.367,-24.414,0.000
1673805515.664,-18.555,-24.414,-28.809,-16.602,0.000
1673805515.667,-25.391,-32.227,-24.414,-19.531,0.000
1673805515.671,-59.082,-35.645,-30.762,-20.020,0.000
1673805515.675,-68.359,-26.367,-32.227,-15.137,0.000
1673805515.679,-47.363,-21.484,-27.832,-7.812,0.000
1673805515.683,-34.668,-29.785,-30.273,-20.020,0.000
1673805515.687,-42.969,-35.645,-29.785,-32.715,0.000
1673805515.691,-53.223,-29.297,-28.320,-22.461,0.000
1673805515.695,-48.828,-29.785,-27.832,-18.555,0.000
1673805515.699,-45.898,-31.250,-27.832,-11.719,0.000
1673805515.703,-44.434,-26.855,-22.461,-0.488,0.000
1673805515.707,-35.156,-25.391,-24.414,7.812,0.000
1673805515.710,-32.715,-24.414,-27.344,-1.465,0.000
1673805515.714,-28.320,-16.113,-23.926,-24.902,0.000
1673805515.718,-12.207,-14.648,-27.832,-37.598,0.000
1673805515.722,-14.648,-25.391,-28.320,-25.879,0.000
1673805515.726,-18.555,-26.367,-28.809,-5.859,0.000
1673805515.730,-4.395,-26.367,-29.297,-7.812,0.000
1673805515.734,-0.488,-26.855,-24.902,-10.742,0.000
1673805515.738,-1.465,-19.043,-20.996,-9.277,0.000
1673805515.742,-7.812,-22.949,-22.461,-11.230,0.000
1673805515.746,-24.414,-26.855,-28.809,-24.902,0.000
1673805515.750,-22.461,-27.832,-31.250,-35.156,0.000
1673805515.753,-11.719,-25.879,-32.227,-33.203,0.000
1673805515.757,-13.184,-20.020,-33.203,-29.785,0.000
1673805515.761,-12.695,-22.949,-31.250,-26.855,0.000
1673805515.765,-22.461,-27.344,-23.438,-20.020,0.000
1673805515.769,-46.387,-33.691,-22.461,-5.371,0.000
1673805515.773,-40.039,-36.133,-28.320,-9.277,0.000
1673805515.777,-34.668,-24.902,-26.367,-17.090,0.000
1673805515.781,-48.828,-19.043,-24.414,-12.207,0.000
1673805515.785,-51.270,-26.367,-23.438,-17.090,0.000
1673805515.789,-46.875,-36.621,-23.926,-16.113,0.000
1673805515.792,-38.086,-28.320,-24.414,-6.348,0.000
1673805515.796,-31.738,-20.508,-20.996,-4.883,0.000
1673805515.800,-30.273,-23.438,-19.531,-1.465,0.000
1673805515.804,-23.926,-23.926,-19.043,-0.977,0.000
1673805515.808,-20.508,-24.414,-20.508,-11.230,0.000
1673805515.812,-22.461,-18.555,-23.926,-3.418,0.000
1673805515.816,-13.672,-18.555,-25.879,3.906,0.000
1673805515.820,0.000,-21.484,-21.973,-1.465,0.000
1673805515.824,-2.930,-21.973,-20.508,-17.090,0.000
1673805515.828,-11.719,-25.879,-22.949,-34.180,0.000
1673805515.832,-12.207,-25.391,-22.949,-28.809,0.000
1673805515.835,-5.859,-23.926,-23.438,-13.672,0.000
1673805515.839,-13.184,-25.879,-20.996,-4.883,0.000
1673805515.843,-21.484,-19.531,-20.996,-8.789,0.000
1673805515.847,-8.789,-15.625,-15.625,-8.789,0.000
1673805515.851,-6.348,-18.066,-14.160,-10.254,0.000
1673805515.855,-11.230,-17.578,-18.555,-3.418,0.000
1673805515.859,-14.160,-20.996,-18.555,-12.695,0.000
1673805515.863,-4.883,-20.996,-24.902,-31.250,0.000
1673805515.867,-11.230,-16.113,-32.715,-28.320,0.000
1673805515.871,-30.762,-21.973,-28.809,-27.344,0.000
1673805515.875,-32.227,-16.602,-19.531,-17.090,0.000
1673805515.878,-38.574,-8.789,-13.672,-8.301,0.000
1673805515.882,-35.156,-15.625,-17.090,-22.461,0.000
1673805515.886,-30.762,-20.020,-25.391,-31.250,0.000
1673805515.890,-32.227,-16.602,-25.391,-11.230,0.000
1673805515.894,-25.391,-16.602,-25.391,-10.742,0.000
1673805515.898,-22.949,-20.020,-31.250,-14.648,0.000
1673805515.902,-16.602,-17.090,-27.832,-5.859,0.000
1673805515.906,-12.207,-7.812,-20.996,-10.742,0.000
1673805515.910,-22.461,-3.418,-20.996,-14.648,0.000
1673805515.914,-28.320,-7.324,-22.461,-14.648,0.000
1673805515.917,-26.855,-10.254,-23.926,-6.836,0.000
1673805515.921,-33.691,-9.277,-19.531,-1.465,0.000
1673805515.925,-37.598,-15.137,-21.484,-10.742,0.000
1673805515.929,-20.020,-17.578,-22.949,-11.719,0.000
1673805515.933,-9.766,-13.672,-20.020,-11.230,0.000
1673805515.937,-10.254,-14.160,-20.508,-11.230,0.000
1673805515.941,-20.020,-19.043,-22.949,3.418,0.000
1673805515.945,-26.855,-19.531,-20.996,6.348,0.000
1673805515.949,-18.555,-17.090,-23.438,-8.301,0.000
1673805515.953,-18.555,-14.160,-27.344,-27.344,0.000
1673805515.957,-9.277,-16.113,-27.344,-41.992,0.000
1673805515.960,15.625,-16.113,-29.297,-30.762,0.000
1673805515.964,16.113,-17.578,-27.344,-20.020,0.000
1673805515.968,-20.020,-20.996,-23.438,-8.789,0.000
1673805515.972,-34.668,-18.555,-21.973,0.977,0.000
1673805515.976,-27.832,-16.113,-28.809,-8.789,0.000
1673805515.980,-11.719,-17.090,-27.344,-19.531,0.000
1673805515.984,-3.906,-16.113,-25.879,-20.020,0.000
1673805515.988,-12.695,-15.137,-29.785,-19.043,0.000
1673805515.992,-27.344,-16.113,-33.203,-20.996,0.000
1673805515.996,-27.344,-17.578,-34.180,-15.137,0.000
1673805516.000,-16.602,-25.391,-37.598,-22.949,0.000
1673805516.003,-13.672,-36.621,-35.645,-27.344,0.000
1673805516.007,-15.625,-33.691,-28.809,-16.602,0.000
1673805516.011,-24.414,-27.344,-31.738,-9.766,0.000
1673805516.015,-29.297,-20.996,-30.273,-14.160,0.000
1673805516.019,-22.461,-19.043,-25.879,-11.230,0.000
1673805516.023,-19.531,-22.949,-27.832,-2.930,0.000
1673805516.027,-24.902,-27.832,-34.668,-9.277,0.000
1673805516.031,-11.719,-28.320,-31.738,-22.461,0.000
1673805516.035,0.977,-20.996,-23.438,-15.625,0.000
1673805516.039,-0.977,-22.461,-23.438,-4.395,0.000
1673805516.042,-2.441,-23.438,-21.973,-4.883,0.000
1673805516.046,-3.418,-17.578,-20.508,-11.719,0.000
1673805516.050,-13.184,-20.996,-18.066,-19.531,0.000
1673805516.054,-21.484,-17.578,-16.602,-3.418,0.000
1673805516.058,-21.484,-16.602,-19.043,21.484,0.000
1673805516.062,-23.438,-25.391,-20.996,8.301,0.000
1673805516.066,-14.160,-20.508,-26.367,-19.531,0.000
1673805516.070,-1.953,-18.066,-28.809,-30.762,0.000
1673805516.074,-2.930,-20.996,-31.250,-27.832,0.000
1673805516.078,1.465,-18.555,-29.297,-22.949,0.000
1673805516.082,10.254,-18.066,-28.320,-20.508,0.000
1673805516.085,-8.789,-20.996,-27.344,-23.926,0.000
1673805516.089,-24.902,-21.973,-25.391,-26.855,0.000
1673805516.093,-33.691,-25.391,-25.879,-25.879,0.000
1673805516.097,-36.621,-27.344,-26.855,-15.625,0.000
1673805516.101,-23.926,-32.715,-28.809,-14.160,0.000
1673805516.105,-25.879,-32.715,-30.273,-20.996,0.000
1673805516.109,-32.227,-29.297,-29.785,-15.137,0.000
1673805516.113,-41.992,-29.297,-33.691,-13.672,0.000
1673805516.117,-43.457,-27.832,-34.668,-12.207,0.000
1673805516.121,-21.973,-26.855,-33.203,-20.508,0.000
1673805516.125,-15.625,-23.926,-31.738,-24.414,0.000
1673805516.128,-28.809,-21.973,-27.832,-19.531,0.000
1673805516.132,-40.527,-21.484,-27.344,-17.090,0.000
1673805516.136,-35.156,-21.484,-28.809,-13.672,0.000
1673805516.140,-16.602,-20.020,-29.297,-12.207,0.000
1673805516.144,-14.160,-23.926,-24.902,-6.836,0.000
1673805516.148,-22.949,-19.043,-26.855,-15.137,0.000
1673805516.152,-30.273,-20.020,-34.668,-31.250,0.000
1673805516.156,-27.344,-28.809,-29.785,-28.320,0.000
1673805516.160,-25.391,-26.367,-26.367,-20.020,0.000
1673805516.164,-29.785,-22.949,-34.180,-34.180,0.000
1673805516.167,-24.902,-26.855,-34.180,-39.062,0.000
1673805516.171,-10.254,-24.902,-27.344,-15.137,0.000
1673805516.175,-2.441,-16.113,-24.902,-1.465,0.000
1673805516.179,0.977,-13.672,-25.879,-11.719,0.000
1673805516.183,-3.418,-14.160,-23.438,-27.344,0.000
1673805516.187,-15.625,-18.555,-23.926,-21.973,0.000
1673805516.191,-17.090,-25.879,-31.250,-18.066,0.000
1673805516.195,-34.180,-24.902,-28.809,-27.344,0.000
1673805516.199,-47.363,-21.484,-23.438,-33.203,0.000
1673805516.203,-39.551,-24.902,-23.438,-25.391,0.000
1673805516.207,-29.297,-21.484,-21.484,-11.719,0.000
1673805516.210,-33.691,-14.160,-23.926,-12.207,0.000
1673805516.214,-39.062,-12.695,-26.367,-9.766,0.000
1673805516.218,-37.598,-17.090,-25.879,-7.812,0.000
1673805516.222,-38.574,-20.996,-25.879,-5.859,0.000
1673805516.226,-38.086,-22.949,-28.320,-2.441,0.000
1673805516.230,-30.273,-24.414,-25.879,-18.555,0.000
1673805516.234,-25.391,-28.320,-25.879,-19.043,0.000
1673805516.238,-28.809,-28.809,-25.879,-2.930,0.000
1673805516.242,-26.367,-30.273,-21.484,-2.441,0.000
1673805516.246,-19.531,-28.320,-23.438,-6.348,0.000
1673805516.250,-20.996,-22.461,-27.344,-19.043,0.000
1673805516.253,-14.160,-27.344,-33.691,-23.438,0.000
1673805516.257,-9.766,-28.320,-31.738,-14.648,0.000
1673805516.261,-12.207,-26.855,-26.367,-18.555,0.000
1673805516.265,-3.418,-28.320,-27.832,-23.926,0.000
1673805516.269,-8.301,-24.902,-24.902,-24.414,0.000
1673805516.273,-13.184,-24.902,-22.949,-21.484,0.000
1673805516.277,-10.742,-28.809,-22.461,-12.695,0.000
1673805516.281,-19.043,-27.832,-24.414,-14.160,0.000
1673805516.285,-20.508,-29.297,-31.250,-29.297,0.000
1673805516.289,-29.785,-26.855,-27.344,-25.391,0.000
1673805516.292,-35.156,-30.273,-21.973,-17.090,0.000
1673805516.296,-28.809,-42.480,-22.949,-23.438,0.000
1673805516.300,-27.832,-41.016,-26.367,-17.090,0.000
1673805516.304,-29.785,-31.250,-22.949,-10.254,0.000
1673805516.308,-32.227,-35.156,-25.879,-16.602,0.000
1673805516.312,-26.855,-31.738,-25.879,-23.926,0.000
1673805516.316,-23.438,-29.297,-22.949,-25.879,0.000
1673805516.320,-24.902,-35.156,-26.367,-18.555,0.000
1673805516.324,-33.203,-34.668,-21.973,-12.695,0.000
1673805516.328,-25.391,-32.227,-25.391,-20.020,0.000
1673805516.332,-15.137,-27.344,-28.809,-32.715,0.000
1673805516.335,-21.484,-27.832,-22.461,-20.996,0.000
1673805516.339,-24.414,-36.133,-22.461,-8.789,0.000
1673805516.343,-21.484,-37.109,-33.203,-16.113,0.000
1673805516.347,-21.973,-31.738,-34.180,-25.879,0.000
1673805516.351,-20.996,-29.297,-26.367,-19.043,0.000
1673805516.355,-10.254,-28.320,-23.926,-7.812,0.000
1673805516.359,-16.602,-30.762,-26.367,-1.465,0.000
1673805516.363,-39.551,-33.691,-27.832,-2.441,0.000
1673805516.367,-31.738,-29.297,-25.879,-11.719,0.000
1673805516.371,-25.391,-21.973,-25.879,-17.578,0.000
1673805516.375,-32.227,-24.414,-27.344,-27.344,0.000
1673805516.378,-15.137,-22.461,-24.902,-33.203,0.000
1673805516.382,-4.395,-14.160,-23.926,-28.320,0.000
1673805516.386,-7.324,-16.113,-24.414,-23.438,0.000
1673805516.390,-11.230,-16.602,-24.414,-10.254,0.000
1673805516.394,-21.973,-16.602,-24.902,-5.859,0.000
1673805516.398,-32.227,-19.531,-21.973,-10.254,0.000
1673805516.402,-42.480,-25.879,-22.461,-2.930,0.000
1673805516.406,-50.293,-24.902,-23.438,-7.324,0.000
1673805516.410,-38.086,-31.250,-25.879,-28.809,0.000
1673805516.414,-8.301,-38.086,-30.273,-34.668,0.000
1673805516.417,0.977,-27.344,-28.809,-32.715,0.000
1673805516.421,-17.090,-24.902,-24.414,-20.996,0.000
1673805516.425,-35.645,-27.832,-24.902,-4.883,0.000
1673805516.429,-44.922,-26.367,-28.320,-9.766,0.000
1673805516.433,-49.316,-26.855,-27.832,-20.508,0.000
1673805516.437,-27.344,-29.297,-26.367,-19.043,0.000
1673805516.441,-5.859,-26.367,-19.043,-1.465,0.000
1673805516.445,-20.020,-24.414,-20.020,11.230,0.000
1673805516.449,-22.461,-21.973,-25.391,1.465,0.000
1673805516.453,-13.184,-24.414,-24.902,-7.812,0.000
1673805516.457,-11.719,-28.809,-29.297,-1.953,0.000
1673805516.460,-3.418,-19.531,-24.902,2.930,0.000
1673805516.464,-6.348,-18.066,-19.531,-6.836,0.000
1673805516.468,-4.395,-17.090,-27.832,-31.738,0.000
1673805516.472,1.465,-16.113,-31.250,-29.785,0.000
1673805516.476,-16.113,-26.367,-28.320,-17.090,0.000
1673805516.480,-25.391,-35.156,-31.250,-20.508,0.000
1673805516.484,-25.391,-31.250,-26.855,-28.320,0.000
1673805516.488,-31.738,-26.855,-26.367,-35.156,0.000
1673805516.492,-29.785,-28.320,-30.762,-34.668,0.000
1673805516.496,-15.137,-21.484,-32.227,-37.109,0.000
1673805516.499,14.648,-20.020,-31.738,-45.898,0.000
1673805516.503,17.578,-21.484,-34.668,-44.922,0.000
1673805516.507,1.953,-23.438,-36.621,-29.785,0.000
1673805516.511,-38.574,-31.738,-29.785,-21.973,0.000
1673805516.515,-78.613,-31.738,-30.273,-20.020,0.000
1673805516.519,-63.477,-27.344,-36.133,-20.020,0.000
1673805516.523,-51.270,-28.809,-39.062,-27.832,0.000
1673805516.527,-40.527,-28.809,-35.645,-28.320,0.000
1673805516.531,-29.785,-28.809,-31.738,-19.531,0.000
1673805516.535,-34.180,-28.809,-31.250,-7.324,0.000
1673805516.539,-41.504,-25.879,-31.738,-1.953,0.000
1673805516.542,-31.738,-20.020,-30.762,-3.418,0.000
1673805516.546,-17.090,-20.508,-28.320,-1.465,0.000
1673805516.550,-11.719,-23.438,-25.391,-0.488,0.000
1673805516.554,-14.648,-25.391,-30.762,-2.930,0.000
1673805516.558,-15.137,-26.855,-36.621,-8.301,0.000
1673805516.562,-12.695,-26.855,-31.250,-6.348,0.000
1673805516.566,-16.602,-23.926,-33.691,-3.906,0.000
1673805516.570,-9.277,-20.020,-35.156,-7.324,0.000
1673805516.574,-1.465,-23.438,-28.809,-20.020,0.000
1673805516.578,-9.766,-26.855,-26.367,-23.926,0.000
1673805516.582,-11.230,-26.855,-26.367,-31.250,0.000
1673805516.585,-20.020,-31.738,-29.785,-41.016,0.000
1673805516.589,-33.203,-33.691,-26.367,-25.879,0.000
1673805516.593,-33.203,-26.855,-26.367,-13.184,0.000
1673805516.597,-23.438,-28.809,-34.180,-28.320,0.000
1673805516.601,-24.414,-26.367,-31.738,-37.109,0.000
1673805516.605,-28.809,-25.879,-30.273,-20.996,0.000
1673805516.609,-27.344,-33.203,-30.273,-20.996,0.000
1673805516.613,-44.922,-36.133,-24.902,-30.273,0.000
1673805516.617,-49.316,-24.902,-25.391,-28.320,0.000
1673805516.621,-47.363,-23.438,-29.297,-24.414,0.000
1673805516.624,-49.805,-42.480,-33.691,-20.020,0.000
1673805516.628,-36.133,-41.992,-26.367,-16.602,0.000
1673805516.632,-20.996,-28.320,-20.996,-12.695,0.000
1673805516.636,-20.508,-30.273,-26.367,-10.742,0.000
1673805516.640,-24.902,-35.156,-26.855,-5.371,0.000
1673805516.644,-37.598,-36.621,-24.902,-7.324,0.000
1673805516.648,-34.180,-35.645,-26.855,-20.508,0.000
1673805516.652,-34.180,-31.738,-28.809,-15.137,0.000
1673805516.656,-35.645,-35.645,-30.762,-11.230,0.000
1673805516.660,-31.738,-38.574,-28.320,-14.160,0.000
1673805516.664,-30.273,-30.762,-22.461,-26.367,0.000
1673805516.667,-19.043,-21.973,-22.949,-23.926,0.000
1673805516.671,-23.438,-27.344,-28.809,-17.090,0.000
1673805516.675,-25.391,-25.391,-28.809,-32.227,0.000
1673805516.679,-15.137,-22.461,-22.461,-39.062,0.000
1673805516.683,-4.883,-25.391,-21.973,-40.039,0.000
1673805516.687,-15.625,-18.555,-24.902,-28.809,0.000
1673805516.691,-32.715,-23.926,-22.461,-17.090,0.000
1673805516.695,-24.902,-37.109,-29.785,-32.227,0.000
1673805516.699,-12.207,-29.297,-35.645,-41.992,0.000
1673805516.703,-1.465,-20.508,-27.832,-36.621,0.000
1673805516.707,1.465,-20.508,-25.391,-35.645,0.000
1673805516.710,-0.977,-20.508,-35.645,-44.434,0.000
1673805516.714,-12.207,-20.508,-31.738,-33.691,0.000
1673805516.718,-17.578,-17.090,-20.996,-22.461,0.000
1673805516.722,-33.203,-19.531,-19.531,-18.555,0.000
1673805516.726,-31.738,-28.809,-17.090,-6.836,0.000
1673805516.730,-21.484,-19.043,-15.137,2.930,0.000
1673805516.734,-18.066,-17.090,-16.602,4.395,0.000
1673805516.738,-23.438,-20.508,-18.066,-9.766,0.000
1673805516.742,-31.250,-8.301,-19.531,-21.484,0.000
1673805516.746,-28.320,-11.230,-24.902,-26.367,0.000
1673805516.749,-25.391,-20.996,-28.320,-14.648,0.000
1673805516.753,-22.949,-26.367,-23.438,-3.418,0.000
1673805516.757,-23.438,-23.438,-20.020,-1.953,0.000
1673805516.761,-25.879,-15.137,-25.391,-11.230,0.000
1673805516.765,-10.742,-14.648,-25.391,-18.066,0.000
1673805516.769,-4.883,-20.996,-19.531,-11.719,0.000
1673805516.773,-21.484,-21.973,-19.531,-10.742,0.000
1673805516.777,-13.184,-7.812,-23.438,-17.090,0.000
1673805516.781,2.930,1.953,-23.926,-16.113,0.000
1673805516.785,5.859,0.977,-20.996,-0.977,0.000
1673805516.789,1.465,-3.906,-19.531,10.742,0.000
1673805516.792,-13.184,-5.859,-21.973,15.625,0.000
1673805516.796,-16.602,-10.742,-20.508,1.465,0.000
1673805516.800,-18.555,-16.113,-18.066,-7.324,0.000
1673805516.804,-26.855,-11.230,-13.184,18.066,0.000
1673805516.808,-21.973,-7.812,-14.160,21.484,0.000
1673805516.812,-5.859,-11.719,-15.137,0.977,0.000
1673805516.816,1.953,-12.695,-14.160,-15.137,0.000
1673805516.820,-9.766,-7.812,-16.602,-10.742,0.000
1673805516.824,-19.043,-10.742,-19.043,-0.488,0.000
1673805516.828,-24.414,-13.672,-19.043,-6.836,0.000
1673805516.832,-30.762,-17.578,-21.484,-10.254,0.000
1673805516.835,-39.062,-15.625,-22.461,-7.324,0.000
1673805516.839,-40.039,-10.742,-22.461,-8.789,0.000
1673805516.843,-29.785,-19.043,-27.832,-21.484,0.000
1673805516.847,-8.789,-24.414,-22.949,-17.090,0.000
1673805516.851,-4.395,-21.484,-20.020,-6.348,0.000
1673805516.855,-33.691,-27.344,-32.715,-13.672,0.000
1673805516.859,-37.109,-24.414,-33.691,-13.184,0.000
1673805516.863,-34.668,-16.113,-24.414,-13.672,0.000
1673805516.867,-45.898,-14.648,-23.438,-19.043,0.000
1673805516.871,-38.574,-17.578,-25.879,-27.832,0.000
1673805516.874,-27.344,-12.207,-25.879,-19.043,0.000
1673805516.878,-40.527,-11.230,-26.855,-5.859,0.000
1673805516.882,-39.551,-18.066,-31.250,4.395,0.000
1673805516.886,-19.531,-19.043,-29.785,17.090,0.000
1673805516.890,-15.137,-9.766,-20.996,6.348,0.000
1673805516.894,-14.160,-10.742,-22.949,-5.859,0.000
1673805516.898,-11.719,-25.391,-32.227,-10.742,0.000
1673805516.902,-23.926,-26.855,-25.879,-13.672,0.000
1673805516.906,-36.621,-20.996,-21.973,-9.277,0.000
1673805516.910,-23.438,-17.578,-25.391,-13.184,0.000
1673805516.914,-16.113,-27.832,-26.367,-14.648,0.000
1673805516.917,-20.020,-34.180,-24.902,-21.484,0.000
1673805516.921,-17.090,-21.973,-29.785,-23.438,0.000
1673805516.925,-10.742,-11.230,-35.645,-21.484,0.000
1673805516.929,-10.254,-17.090,-34.668,-29.785,0.000
1673805516.933,-19.531,-30.273,-32.715,-37.598,0.000
1673805516.937,-21.973,-29.785,-33.203,-25.879,0.000
1673805516.941,-27.832,-23.926,-30.273,-14.160,0.000
1673805516.945,-40.527,-27.344,-30.762,-26.855,0.000
1673805516.949,-50.781,-31.250,-30.762,-25.391,0.000
1673805516.953,-41.504,-28.809,-27.832,-11.719,0.000
1673805516.957,-28.320,-26.367,-22.461,-9.277,0.000
1673805516.960,-20.020,-25.391,-15.625,-7.812,0.000
1673805516.964,-17.090,-23.438,-23.438,-3.418,0.000
1673805516.968,-27.344,-22.461,-32.715,-1.465,0.000
1673805516.972,-28.320,-26.855,-25.879,2.441,0.000
1673805516.976,-18.555,-30.762,-17.578,-2.441,0.000
1673805516.980,-14.160,-24.414,-13.672,-4.883,0.000
1673805516.984,-5.371,-19.531,-7.324,4.883,0.000
1673805516.988,-10.254,-20.020,-23.438,-4.883,0.000
1673805516.992,-16.602,-20.508,-38.574,-21.484,0.000
1673805516.996,-15.137,-14.648,-23.926,-10.742,0.000
1673805516.999,-28.809,-12.207,-13.672,6.348,0.000
1673805517.003,-39.062,-16.113,-9.766,6.348,0.000
1673805517.007,-34.180,-23.926,-15.625,-11.230,0.000
1673805517.011,-22.461,-27.832,-20.996,-20.996,0.000
1673805517.015,-3.906,-24.902,-18.066,-23.438,0.000
1673805517.019,-9.277,-27.344,-23.926,-33.691,0.000
1673805517.023,-17.090,-22.949,-28.320,-42.969,0.000
1673805517.027,-1.465,-12.207,-22.949,-36.133,0.000
1673805517.031,-9.277,-11.719,-18.066,-32.227,0.000
1673805517.035,-25.879,-11.230,-13.672,-35.645,0.000
1673805517.039,-15.625,-8.789,-14.648,-32.227,0.000
1673805517.042,-9.766,-15.625,-21.973,-24.414,0.000
1673805517.046,-24.414,-22.461,-26.367,-24.902,0.000
1673805517.050,-19.043,-20.020,-22.949,-16.602,0.000
1673805517.054,-4.395,-24.414,-18.066,-9.766,0.000
1673805517.058,-6.348,-34.180,-16.113,-11.719,0.000
1673805517.062,-18.066,-23.926,-22.461,-10.742,0.000
1673805517.066,-29.785,-13.672,-24.414,-13.672,0.000
1673805517.070,-37.598,-19.043,-20.020,-1.465,0.000
1673805517.074,-34.668,-23.926,-14.648,10.254,0.000
1673805517.078,-26.855,-23.926,-18.555,4.395,0.000
1673805517.082,-28.320,-27.832,-26.855,-6.836,0.000
1673805517.085,-34.668,-34.668,-27.344,-7.324,0.000
1673805517.089,-29.785,-30.762,-29.785,-10.254,0.000
1673805517.093,-25.391,-21.973,-32.715,-15.137,0.000
1673805517.097,-26.855,-25.391,-29.297,-10.254,0.000
1673805517.101,-27.344,-29.297,-31.250,-27.344,0.000
1673805517.105,-24.414,-28.809,-38.574,-42.480,0.000
1673805517.109,-22.461,-23.926,-41.992,-34.668,0.000
1673805517.113,-18.066,-22.461,-30.762,-43.457,0.000
1673805517.117,-12.207,-22.461,-20.020,-41.016,0.000
1673805517.121,-12.207,-22.461,-25.391,-29.297,0.000
1673805517.124,-19.531,-25.879,-31.738,-37.598,0.000
1673805517.128,-22.461,-22.461,-26.367,-45.410,0.000
1673805517.132,-32.715,-30.762,-20.020,-30.762,0.000
1673805517.136,-36.621,-37.598,-24.414,-23.438,0.000
1673805517.140,-29.785,-23.926,-32.715,-29.785,0.000
1673805517.144,-19.043,-19.043,-30.762,-16.113,0.000
1673805517.148,-12.207,-19.531,-24.414,-11.719,0.000
1673805517.152,-24.414,-18.066,-27.344,-13.672,0.000
1673805517.156,-29.785,-20.508,-25.391,-7.812,0.000
1673805517.160,-24.902,-17.578,-20.996,3.418,0.000
1673805517.164,-29.297,-20.508,-24.414,5.859,0.000
1673805517.167,-20.020,-22.949,-24.902,-2.441,0.000
1673805517.171,-27.832,-22.461,-17.578,11.230,0.000
1673805517.175,-29.297,-24.414,-16.602,18.066,0.000
1673805517.179,-9.766,-20.508,-18.066,10.254,0.000
1673805517.183,-7.324,-20.508,-22.461,3.906,0.000
1673805517.187,-28.320,-24.902,-26.855,-4.883,0.000
1673805517.191,-22.949,-19.043,-20.020,-0.488,0.000
1673805517.195,-11.230,-23.438,-16.113,-6.836,0.000
1673805517.199,-13.184,-29.785,-23.438,-24.414,0.000
1673805517.203,-8.301,-22.461,-24.414,-23.438,0.000
1673805517.207,-16.113,-23.438,-24.902,-31.738,0.000
1673805517.210,-12.695,-26.855,-29.297,-37.109,0.000
1673805517.214,-10.742,-32.227,-30.273,-34.668,0.000
1673805517.218,-31.250,-34.668,-28.809,-35.645,0.000
1673805517.222,-41.016,-30.273,-28.320,-22.461,0.000
1673805517.226,-28.809,-32.715,-35.645,-15.137,0.000
1673805517.230,-23.926,-29.297,-35.645,-27.344,0.000
1673805517.234,-28.320,-18.066,-28.320,-33.691,0.000
1673805517.238,-30.273,-17.090,-27.344,-22.461,0.000
1673805517.242,-23.926,-20.996,-27.344,-10.254,0.000
1673805517.246,-12.695,-26.855,-25.879,-13.184,0.000
1673805517.249,-9.277,-22.949,-34.668,-20.996,0.000
1673805517.253,-25.879,-17.578,-38.574,-23.438,0.000
1673805517.257,-28.809,-25.391,-23.926,-20.508,0.000
1673805517.261,-29.297,-30.762,-23.438,-19.043,0.000
1673805517.265,-33.691,-29.297,-30.273,-15.625,0.000
1673805517.269,-20.020,-28.320,-26.367,-7.324,0.000
1673805517.273,-29.297,-27.344,-19.531,-10.742,0.000
1673805517.277,-39.551,-28.320,-20.508,-12.695,0.000
1673805517.281,-33.691,-25.879,-22.461,-4.395,0.000
1673805517.285,-33.203,-22.949,-23.926,-4.395,0.000
1673805517.289,-26.367,-23.438,-23.926,-11.230,0.000
1673805517.292,-21.973,-27.344,-21.973,-22.461,0.000
1673805517.296,-36.133,-33.203,-20.508,-24.902,0.000
1673805517.300,-33.691,-27.344,-17.578,-20.020,0.000
1673805517.304,-23.926,-21.484,-16.602,-17.090,0.000
1673805517.308,-30.273,-28.320,-35.156,-24.902,0.000
1673805517.312,-30.273,-28.809,-41.504,-21.484,0.000
1673805517.316,-36.133,-29.297,-21.484,-21.973,0.000
1673805517.320,-42.480,-40.039,-17.578,-42.969,0.000
1673805517.324,-35.156,-39.551,-21.973,-49.316,0.000
1673805517.328,-26.367,-21.973,-20.996,-46.387,0.000
1673805517.332,-32.715,-13.184,-24.414,-29.297,0.000
1673805517.335,-42.969,-15.137,-21.973,-23.438,0.000
1673805517.339,-34.180,-24.414,-20.020,-44.434,0.000
1673805517.343,-41.504,-34.180,-27.344,-37.598,0.000
1673805517.347,-47.852,-29.785,-37.598,-23.926,0.000
1673805517.351,-46.875,-32.227,-45.410,-20.508,0.000
1673805517.355,-38.086,-31.250,-36.621,-26.855,0.000
1673805517.359,-41.992,-27.344,-25.391,-31.250,0.000
1673805517.363,-37.109,-32.715,-25.879,-42.480,0.000
1673805517.367,-19.043,-35.156,-26.367,-47.852,0.000
1673805517.371,2.441,-30.762,-26.855,-44.922,0.000
1673805517.374,-16.602,-27.832,-24.902,-47.363,0.000
1673805517.378,-63.965,-29.785,-22.949,-39.062,0.000
1673805517.382,-46.875,-24.414,-27.344,-28.320,0.000
1673805517.386,-33.691,-22.949,-20.020,-18.066,0.000
1673805517.390,-37.598,-22.461,-20.020,-11.719,0.000
1673805517.394,-35.645,-26.367,-32.227,-20.508,0.000
1673805517.398,-29.297,-28.809,-30.273,-26.367,0.000
1673805517.402,-15.625,-24.902,-28.320,-17.090,0.000
1673805517.406,-18.066,-24.414,-27.344,-10.742,0.000
1673805517.410,-19.531,-25.391,-26.855,-11.719,0.000
1673805517.414,-29.785,-29.785,-33.203,-21.973,0.000
1673805517.417,-40.039,-32.227,-36.621,-37.109,0.000
1673805517.421,-39.062,-26.855,-47.852,-29.785,0.000
1673805517.425,-31.738,-22.949,-54.688,-19.043,0.000
1673805517.429,-15.625,-23.926,-40.039,-19.531,0.000
1673805517.433,-12.207,-23.438,-31.250,-13.184,0.000
1673805517.437,-11.719,-23.438,-32.715,-14.648,0.000
1673805517.441,-22.461,-22.949,-32.227,-18.555,0.000
1673805517.445,-33.203,-28.320,-32.227,-22.949,0.000
1673805517.449,-17.578,-26.367,-32.227,-35.156,0.000
1673805517.453,-26.367,-21.484,-27.832,-25.879,0.000
1673805517.456,-42.480,-29.785,-26.367,-11.719,0.000
1673805517.460,-35.156,-32.227,-26.367,-20.996,0.000
1673805517.464,-20.508,-26.367,-25.879,-19.043,0.000
1673805517.468,-4.883,-16.113,-25.391,-13.184,0.000
1673805517.472,-3.906,-15.625,-21.484,-9.277,0.000
1673805517.476,-21.484,-26.367,-21.973,-4.395,0.000
1673805517.480,-27.344,-24.902,-28.320,-11.230,0.000
1673805517.484,-20.508,-21.973,-30.762,-17.090,0.000
1673805517.488,-28.320,-20.996,-26.855,-13.672,0.000
1673805517.492,-29.785,-22.461,-21.973,-8.301,0.000
1673805517.496,-18.555,-30.273,-20.508,-9.277,0.000
1673805517.499,-23.438,-31.250,-23.438,-14.160,0.000
1673805517.503,-31.250,-28.320,-27.832,-9.277,0.000
1673805517.507,-29.297,-24.902,-24.902,9.277,0.000
1673805517.511,-28.320,-28.320,-21.484,14.160,0.000
1673805517.515,-17.090,-23.926,-20.020,-2.441,0.000
1673805517.519,-16.113,-15.625,-25.879,-5.859,0.000
1673805517.523,-26.855,-20.996,-28.320,-5.371,0.000
1673805517.527,-24.902,-21.973,-21.973,-19.043,0.000
1673805517.531,-22.461,-21.484,-23.926,-25.879,0.000
1673805517.535,-28.320,-23.438,-26.855,-21.973,0.000
1673805517.539,-35.156,-31.250,-27.832,-5.859,0.000
1673805517.542,-32.227,-27.832,-23.926,1.465,0.000
1673805517.546,-25.879,-21.484,-23.926,-9.277,0.000
1673805517.550,-12.207,-20.508,-22.461,-17.090,0.000
1673805517.554,-13.672,-18.066,-31.250,-20.508,0.000
1673805517.558,-18.555,-15.137,-32.227,-19.531,0.000
1673805517.562,-21.973,-15.625,-25.879,-24.902,0.000
1673805517.566,-26.855,-16.113,-20.508,-23.438,0.000
1673805517.570,-27.832,-20.020,-18.066,-19.531,0.000
1673805517.574,-36.133,-28.809,-33.691,-21.973,0.000
1673805517.578,-33.203,-28.320,-30.273,-14.648,0.000
1673805517.581,-21.973,-21.973,-23.438,-21.973,0.000
1673805517.585,-18.555,-17.578,-20.020,-26.367,0.000
1673805517.589,-35.156,-19.531,-17.578,-12.695,0.000
1673805517.593,-38.086,-20.996,-22.461,-4.395,0.000
1673805517.597,-32.715,-17.090,-21.973,-11.230,0.000
1673805517.601,-23.926,-18.555,-20.996,-19.531,0.000
1673805517.605,-10.742,-17.090,-20.508,-17.578,0.000
1673805517.609,-22.461,-20.020,-19.043,-15.137,0.000
1673805517.613,-29.297,-28.809,-18.066,-2.930,0.000
1673805517.617,-12.695,-19.043,-14.160,3.906,0.000
1673805517.621,-13.184,-11.230,-14.648,8.789,0.000
1673805517.624,-23.438,-15.625,-13.672,15.625,0.000
1673805517.628,-29.297,-26.855,-17.090,0.488,0.000
1673805517.632,-24.414,-30.273,-27.832,-14.160,0.000
1673805517.636,-22.949,-15.625,-25.879,-12.207,0.000
1673805517.640,-18.066,-14.160,-16.113,-12.207,0.000
1673805517.644,-11.230,-18.555,-20.020,-23.926,0.000
1673805517.648,-6.836,-20.508,-25.879,-28.320,0.000
1673805517.652,-11.230,-22.461,-31.250,-15.137,0.000
1673805517.656,-19.043,-17.578,-33.691,-13.184,0.000
1673805517.660,-10.742,-11.230,-29.785,-20.020,0.000
1673805517.664,-3.906,-12.695,-37.109,-32.227,0.000
1673805517.667,0.000,-10.742,-41.016,-35.645,0.000
1673805517.671,-6.348,-6.836,-29.785,-20.508,0.000
1673805517.675,-16.602,-13.672,-21.973,-4.883,0.000
1673805517.679,-11.230,-16.602,-20.996,1.953,0.000
1673805517.683,-13.184,-10.742,-20.996,3.906,0.000
1673805517.687,-7.812,-11.719,-19.043,-1.953,0.000
1673805517.691,-1.465,-15.137,-16.113,-3.906,0.000
1673805517.695,-4.395,-17.578,-16.113,-0.977,0.000
1673805517.699,5.371,-18.066,-17.578,-10.742,0.000
1673805517.703,-8.789,-19.043,-15.625,-6.836,0.000
1673805517.706,-59.082,-21.973,-12.207,9.277,0.000
1673805517.710,-65.918,-24.414,-19.043,-5.859,0.000
1673805517.714,-37.109,-19.531,-23.926,-23.438,0.000
1673805517.718,-24.414,-15.137,-20.508,-30.762,0.000
1673805517.722,-22.949,-20.508,-21.484,-27.344,0.000
1673805517.726,-19.043,-14.648,-19.043,-11.719,0.000
1673805517.730,-19.043,-5.859,-14.160,-12.695,0.000
1673805517.734,-12.207,-8.301,-16.602,-20.020,0.000
1673805517.738,-16.602,-15.137,-16.602,-17.090,0.000
1673805517.742,-19.531,-17.090,-12.695,-16.602,0.000
1673805517.746,-5.859,-18.066,-13.184,-22.949,0.000
1673805517.749,-6.836,-22.949,-21.484,-27.832,0.000
1673805517.753,-9.766,-17.090,-21.484,-17.090,0.000
1673805517.757,-6.836,-10.742,-14.160,-7.812,0.000
1673805517.761,-10.254,-18.555,-18.555,-3.418,0.000
1673805517.765,-22.461,-28.809,-24.414,-2.441,0.000
1673805517.769,-28.320,-17.090,-25.391,-3.906,0.000
1673805517.773,-20.996,-12.207,-23.926,-4.883,0.000
1673805517.777,-19.531,-20.996,-15.625,-2.930,0.000
1673805517.781,-28.320,-25.391,-17.578,-13.672,0.000
1673805517.785,-32.715,-19.043,-21.484,-13.184,0.000
1673805517.789,-29.297,-14.160,-17.578,0.488,0.000
1673805517.792,-27.832,-20.508,-16.113,4.395,0.000
1673805517.796,-33.203,-21.484,-23.438,-3.418,0.000
1673805517.800,-24.902,-22.461,-24.902,-18.555,0.000
1673805517.804,-18.066,-29.785,-17.090,-7.324,0.000
1673805517.808,-7.812,-27.832,-19.043,11.719,0.000
1673805517.812,-8.301,-20.996,-25.391,1.953,0.000
1673805517.816,-20.996,-19.043,-29.297,-15.137,0.000
1673805517.820,-17.090,-17.090,-31.738,-14.160,0.000
1673805517.824,-9.766,-26.367,-33.691,-19.043,0.000
1673805517.828,-14.648,-31.250,-39.551,-25.879,0.000
1673805517.831,-23.438,-24.414,-33.691,-25.879,0.000
1673805517.835,-18.555,-17.578,-21.484,-21.484,0.000
1673805517.839,-16.113,-15.137,-22.949,-20.508,0.000
1673805517.843,-14.160,-26.367,-26.367,-22.949,0.000
1673805517.847,-7.324,-29.297,-24.414,-19.043,0.000
1673805517.851,-6.348,-28.320,-28.809,-11.719,0.000
1673805517.855,0.488,-22.461,-32.715,-6.836,0.000
1673805517.859,-16.602,-19.531,-24.414,-5.859,0.000
1673805517.863,-40.039,-20.508,-23.438,-6.348,0.000
1673805517.867,-25.391,-16.602,-24.902,-2.441,0.000
1673805517.871,-11.719,-17.090,-21.973,9.277,0.000
1673805517.874,-15.137,-17.578,-32.227,15.625,0.000
1673805517.878,-23.926,-13.672,-35.156,9.766,0.000
1673805517.882,-26.855,-11.719,-21.973,12.207,0.000
1673805517.886,-24.902,-17.578,-21.973,7.812,0.000
1673805517.890,-20.996,-26.855,-28.809,-6.836,0.000
1673805517.894,-25.391,-22.949,-29.297,-11.719,0.000
1673805517.898,-22.949,-24.902,-29.297,-15.137,0.000
1673805517.902,-18.555,-35.645,-32.227,-14.160,0.000
1673805517.906,-23.926,-34.180,-39.062,-19.043,0.000
1673805517.910,-37.598,-28.809,-38.086,-28.320,0.000
1673805517.914,-40.527,-26.367,-33.203,-34.668,0.000
1673805517.917,-30.762,-27.344,-38.574,-28.809,0.000
1673805517.921,-21.484,-28.320,-41.504,-32.227,0.000
1673805517.925,-23.926,-29.297,-42.480,-36.621,0.000
1673805517.929,-13.672,-27.832,-45.410,-49.805,0.000
1673805517.933,-18.555,-26.367,-38.086,-62.988,0.000
1673805517.937,-27.344,-25.879,-24.902,-46.875,0.000
1673805517.941,-14.648,-25.391,-21.973,-36.621,0.000
1673805517.945,-14.160,-20.508,-28.320,-31.738,0.000
1673805517.949,-26.855,-23.926,-32.715,-28.320,0.000
1673805517.953,-39.062,-42.969,-29.297,-23.926,0.000
1673805517.956,-28.320,-38.574,-31.250,-17.090,0.000
1673805517.960,-30.273,-20.996,-31.738,-23.438,0.000
1673805517.964,-28.809,-22.461,-26.855,-19.531,0.000
1673805517.968,-35.645,-20.508,-27.832,-10.742,0.000
1673805517.972,-62.012,-17.578,-28.320,-0.977,0.000
1673805517.976,-65.430,-25.879,-26.855,1.465,0.000
1673805517.980,-50.781,-35.645,-35.645,-13.184,0.000
1673805517.984,-32.227,-24.902,-40.527,-22.461,0.000
1673805517.988,-30.273,-15.625,-30.762,-21.484,0.000
