timestamp,TP9,AF7,AF8,TP10,Right AUX
0.000,-27.832,-16.113,-27.832,-32.227,0.000
4.000,-23.926,-17.578,-26.367,-31.250,0.000
8.000,-23.438,-17.578,-36.621,-25.391,0.000
12.000,-20.996,-16.113,-34.668,-21.484,0.000
16.000,-34.668,-15.625,-29.785,-25.391,0.000
20.000,-41.016,-20.508,-35.156,-28.320,0.000
23.000,-35.156,-24.902,-35.156,-19.043,0.000
27.000,-39.062,-27.832,-32.227,-14.160,0.000
31.000,-42.969,-27.344,-31.738,-22.949,0.000
35.000,-43.457,-25.391,-27.344,-20.508,0.000
39.000,-34.180,-25.391,-25.391,-16.602,0.000
43.000,-27.832,-26.855,-27.344,-18.555,0.000
47.000,-28.320,-22.949,-29.297,-21.973,0.000
51.000,-17.578,-16.113,-25.391,-24.414,0.000
55.000,-11.719,-15.625,-23.926,-16.602,0.000
59.000,-18.555,-17.578,-27.344,-6.836,0.000
62.000,-26.367,-19.531,-22.949,-5.859,0.000
66.000,-34.668,-23.926,-22.949,-12.695,0.000
70.000,-38.086,-25.879,-27.832,-21.484,0.000
74.000,-37.598,-25.391,-24.414,-25.391,0.000
78.000,-33.203,-25.879,-22.461,-20.508,0.000
82.000,-31.738,-27.832,-23.438,-18.555,0.000
86.000,-28.809,-20.020,-22.949,-30.273,0.000
90.000,-30.762,-21.484,-19.531,-27.832,0.000
94.000,-48.340,-24.414,-23.926,-25.391,0.000
98.000,-57.617,-23.926,-28.320,-38.574,0.000
102.000,-50.781,-26.367,-26.855,-41.016,0.000
105.000,-34.180,-21.973,-25.391,-38.086,0.000
109.000,-32.715,-22.461,-26.855,-32.715,0.000
113.000,-32.227,-25.879,-29.297,-22.461,0.000
117.000,-41.016,-26.367,-30.273,-22.949,0.000
121.000,-35.156,-24.414,-33.691,-27.832,0.000
125.000,-28.809,-26.367,-29.785,-15.137,0.000
129.000,-31.738,-27.832,-26.855,-12.207,0.000
133.000,-30.273,-29.297,-28.320,-26.367,0.000
137.000,-33.203,-29.297,-22.949,-28.320,0.000
141.000,-37.598,-26.855,-22.949,-22.949,0.000
145.000,-30.762,-28.809,-28.809,-17.578,0.000
148.000,-18.066,-23.438,-26.367,-21.973,0.000
152.000,-11.719,-19.531,-26.855,-22.949,0.000
156.000,-21.973,-21.973,-31.250,-12.695,0.000
160.000,-36.621,-24.414,-30.762,-12.695,0.000
164.000,-25.879,-20.020,-26.367,-20.020,0.000
168.000,-18.066,-17.090,-28.320,-20.996,0.000
172.000,-23.926,-17.578,-31.738,-11.230,0.000
176.000,-24.902,-18.555,-31.250,-12.695,0.000
180.000,-14.160,-19.043,-29.785,-19.531,0.000
184.000,-17.090,-21.484,-26.367,-23.926,0.000
187.000,-39.551,-26.855,-28.320,-27.344,0.000
191.000,-47.852,-25.391,-28.809,-24.414,0.000
195.000,-40.039,-24.902,-25.391,-27.344,0.000
199.000,-35.156,-28.320,-28.809,-29.785,0.000
203.000,-22.461,-25.391,-27.344,-25.391,0.000
207.000,-21.484,-22.949,-25.879,-24.902,0.000
211.000,-35.156,-20.996,-29.297,-17.090,0.000
215.000,-39.551,-20.508,-28.809,-16.113,0.000
219.000,-40.039,-28.320,-31.738,-27.832,0.000
223.000,-40.039,-32.715,-33.203,-35.645,0.000
227.000,-37.109,-30.273,-30.273,-36.133,0.000
230.000,-33.691,-31.738,-27.344,-36.621,0.000
234.000,-31.250,-33.691,-23.926,-41.016,0.000
238.000,-23.438,-26.855,-25.391,-39.062,0.000
242.000,-20.508,-27.832,-23.926,-17.090,0.000
246.000,-24.902,-25.879,-16.113,-12.207,0.000
250.000,-23.926,-21.973,-19.043,-20.020,0.000
254.000,-20.020,-21.973,-22.949,-14.160,0.000
258.000,-14.160,-22.461,-28.809,-14.160,0.000
262.000,-17.578,-26.367,-29.785,-9.277,0.000
266.000,-19.531,-23.926,-23.438,-12.695,0.000
270.000,-12.207,-24.902,-26.367,-19.531,0.000
273.000,-3.906,-27.832,-24.414,-18.066,0.000
277.000,-12.207,-29.297,-21.484,-20.508,0.000
281.000,-33.691,-27.344,-26.855,-24.414,0.000
285.000,-39.062,-23.926,-26.855,-27.832,0.000
289.000,-26.367,-24.414,-25.391,-23.438,0.000
293.000,-15.137,-21.973,-20.020,-18.555,0.000
297.000,-21.973,-20.996,-14.648,-14.160,0.000
301.000,-22.461,-21.484,-21.484,-10.254,0.000
305.000,-16.602,-22.949,-26.855,-14.648,0.000
309.000,-26.855,-25.879,-27.832,-13.672,0.000
312.000,-22.461,-24.902,-28.320,-14.648,0.000
316.000,-20.996,-24.902,-27.344,-19.531,0.000
320.000,-33.691,-27.832,-26.367,-18.555,0.000
324.000,-22.461,-26.367,-28.320,-16.602,0.000
328.000,-23.926,-22.461,-26.367,-23.438,0.000
332.000,-36.133,-20.508,-30.273,-26.855,0.000
336.000,-39.062,-24.414,-32.227,-25.391,0.000
340.000,-37.598,-26.855,-25.879,-25.391,0.000
344.000,-37.109,-22.461,-26.855,-21.973,0.000
348.000,-29.297,-18.555,-28.809,-18.555,0.000
352.000,-20.020,-18.066,-28.320,-20.020,0.000
355.000,-28.809,-20.996,-27.832,-25.879,0.000
359.000,-36.621,-20.508,-27.344,-24.414,0.000
363.000,-31.738,-22.949,-28.320,-26.367,0.000
367.000,-28.809,-23.438,-27.832,-37.109,0.000
371.000,-24.902,-21.973,-30.273,-35.156,0.000
375.000,-24.902,-25.879,-28.809,-29.297,0.000
379.000,-36.133,-32.715,-29.297,-37.109,0.000
383.000,-33.203,-33.691,-30.762,-39.062,0.000
387.000,-31.250,-36.133,-25.391,-34.668,0.000
391.000,-30.762,-41.992,-23.926,-24.414,0.000
395.000,-16.602,-38.574,-24.902,-21.973,0.000
398.000,-15.137,-30.762,-21.484,-23.926,0.000
402.000,-28.809,-33.203,-25.391,-21.973,0.000
406.000,-37.598,-32.715,-28.320,-23.438,0.000
410.000,-43.945,-27.344,-23.438,-26.367,0.000
414.000,-37.598,-28.320,-28.809,-34.668,0.000
418.000,-32.227,-37.598,-34.668,-46.387,0.000
422.000,-39.551,-41.992,-33.203,-45.898,0.000
426.000,-51.270,-37.598,-31.250,-40.527,0.000
430.000,-58.594,-34.180,-32.227,-48.340,0.000
434.000,-50.781,-31.250,-32.227,-49.316,0.000
437.000,-45.410,-29.297,-27.832,-38.086,0.000
441.000,-45.898,-31.738,-30.762,-39.062,0.000
445.000,-41.504,-30.762,-33.203,-40.039,0.000
449.000,-30.762,-25.879,-34.668,-42.969,0.000
453.000,-22.461,-26.855,-32.715,-50.293,0.000
457.000,-37.598,-27.832,-28.809,-56.152,0.000
461.000,-55.176,-26.855,-27.344,-49.316,0.000
465.000,-58.594,-27.344,-25.391,-43.457,0.000
469.000,-46.387,-25.879,-28.320,-42.480,0.000
473.000,-34.668,-26.855,-26.367,-43.457,0.000
477.000,-36.621,-28.320,-21.973,-37.598,0.000
480.000,-33.691,-25.879,-20.508,-29.785,0.000
484.000,-31.250,-20.996,-21.973,-31.738,0.000
488.000,-35.156,-22.461,-24.414,-38.574,0.000
492.000,-32.715,-24.902,-23.438,-35.156,0.000
496.000,-24.902,-19.043,-21.484,-17.578,0.000
500.000,-22.949,-23.438,-24.414,-15.137,0.000
504.000,-23.438,-30.762,-22.461,-13.672,0.000
508.000,-16.113,-24.414,-19.043,-8.789,0.000
512.000,-17.090,-26.855,-20.508,-14.648,0.000
516.000,-30.273,-27.832,-27.344,-20.508,0.000
520.000,-30.762,-22.461,-24.414,-32.227,0.000
523.000,-32.715,-26.367,-24.414,-38.086,0.000
527.000,-28.320,-29.297,-26.855,-33.691,0.000
531.000,-26.855,-29.297,-23.438,-30.762,0.000
535.000,-38.086,-30.273,-27.344,-38.086,0.000
539.000,-40.039,-31.738,-25.879,-40.527,0.000
543.000,-35.156,-28.320,-24.414,-31.738,0.000
547.000,-30.762,-26.367,-30.273,-35.156,0.000
551.000,-41.504,-30.762,-28.320,-40.039,0.000
555.000,-38.574,-30.762,-21.973,-35.156,0.000
559.000,-30.762,-28.320,-23.926,-22.949,0.000
562.000,-40.527,-24.414,-26.367,-20.508,0.000
566.000,-42.969,-25.391,-22.949,-32.227,0.000
570.000,-36.133,-26.855,-20.996,-32.227,0.000
574.000,-35.156,-23.438,-22.949,-25.391,0.000
578.000,-22.461,-20.020,-28.320,-22.461,0.000
582.000,-15.625,-18.066,-28.809,-21.973,0.000
586.000,-26.367,-20.996,-27.344,-22.461,0.000
590.000,-30.273,-25.391,-28.809,-14.160,0.000
594.000,-35.645,-25.391,-28.320,-10.254,0.000
598.000,-27.832,-23.438,-30.273,-16.602,0.000
602.000,-26.855,-22.949,-28.809,-23.438,0.000
605.000,-35.156,-22.461,-26.855,-24.414,0.000
609.000,-29.785,-21.484,-35.156,-20.020,0.000
613.000,-33.691,-19.531,-34.180,-22.949,0.000
617.000,-21.484,-18.555,-31.738,-31.738,0.000
621.000,-19.043,-23.926,-32.715,-32.227,0.000
625.000,-41.504,-28.320,-32.715,-20.996,0.000
629.000,-51.758,-30.762,-27.832,-18.066,0.000
633.000,-63.477,-35.645,-26.367,-24.414,0.000
637.000,-61.523,-37.109,-33.203,-35.156,0.000
641.000,-55.664,-38.574,-33.691,-40.527,0.000
645.000,-43.945,-36.133,-33.203,-36.133,0.000
648.000,-30.762,-27.832,-32.227,-37.598,0.000
652.000,-39.551,-28.809,-29.785,-45.410,0.000
656.000,-38.574,-32.227,-29.297,-37.109,0.000
660.000,-45.898,-30.273,-26.855,-23.926,0.000
664.000,-43.457,-27.832,-22.461,-16.113,0.000
668.000,-35.156,-29.297,-21.973,-19.043,0.000
672.000,-28.320,-32.715,-23.926,-23.926,0.000
676.000,-25.391,-35.156,-25.879,-14.648,0.000
680.000,-27.832,-32.715,-27.344,-14.648,0.000
684.000,-22.461,-31.250,-26.855,-18.555,0.000
687.000,-19.531,-32.227,-24.414,-16.113,0.000
691.000,-21.484,-32.227,-25.391,-18.555,0.000
695.000,-29.297,-29.785,-25.879,-11.719,0.000
699.000,-24.902,-24.902,-22.949,-16.602,0.000
703.000,-16.602,-25.391,-27.344,-35.156,0.000
707.000,-15.625,-25.879,-25.879,-34.180,0.000
711.000,-9.766,-21.973,-24.414,-26.855,0.000
715.000,-22.461,-22.949,-24.902,-31.738,0.000
719.000,-50.781,-26.855,-21.484,-40.527,0.000
723.000,-59.570,-29.785,-21.484,-38.574,0.000
727.000,-62.012,-33.691,-26.855,-42.480,0.000
730.000,-51.270,-30.273,-25.391,-38.574,0.000
734.000,-34.180,-25.391,-20.508,-28.809,0.000
738.000,-35.645,-25.879,-24.414,-22.461,0.000
742.000,-39.551,-27.344,-28.320,-14.160,0.000
746.000,-33.203,-24.414,-23.926,-15.625,0.000
750.000,-29.785,-25.391,-20.508,-20.508,0.000
754.000,-39.062,-25.391,-24.414,-22.461,0.000
758.000,-48.828,-30.273,-26.367,-20.020,0.000
762.000,-46.875,-33.203,-24.414,-24.902,0.000
766.000,-36.133,-29.785,-20.996,-33.691,0.000
770.000,-31.738,-29.297,-20.996,-41.504,0.000
773.000,-24.902,-26.367,-17.578,-37.598,0.000
777.000,-29.297,-28.320,-19.043,-30.273,0.000
781.000,-37.109,-36.621,-24.902,-30.273,0.000
785.000,-27.344,-31.250,-27.344,-25.391,0.000
789.000,-15.625,-23.438,-24.414,-21.973,0.000
793.000,-18.555,-22.461,-20.996,-15.137,0.000
797.000,-25.879,-24.414,-25.879,-27.344,0.000
801.000,-16.113,-22.949,-22.461,-43.945,0.000
805.000,-9.277,-18.555,-20.508,-47.363,0.000
809.000,-31.250,-21.484,-23.438,-41.016,0.000
812.000,-38.086,-22.949,-21.484,-31.738,0.000
816.000,-32.227,-22.461,-26.367,-31.738,0.000
820.000,-28.809,-22.949,-25.879,-32.227,0.000
824.000,-24.902,-20.996,-21.484,-31.738,0.000
828.000,-20.996,-18.066,-19.531,-27.832,0.000
832.000,-21.973,-20.508,-19.531,-24.414,0.000
836.000,-44.922,-24.414,-25.391,-38.574,0.000
840.000,-56.152,-26.367,-28.320,-37.598,0.000
844.000,-47.363,-25.879,-22.949,-14.160,0.000
848.000,-36.621,-21.973,-21.484,-7.324,0.000
852.000,-27.832,-18.066,-22.461,-9.766,0.000
855.000,-24.414,-20.020,-21.484,-3.906,0.000
859.000,-20.020,-21.973,-20.508,1.953,0.000
863.000,-27.832,-24.414,-24.414,-5.371,0.000
867.000,-34.180,-27.832,-28.320,-13.672,0.000
871.000,-20.996,-27.344,-33.691,-13.184,0.000
875.000,-14.648,-20.996,-33.691,-4.395,0.000
879.000,-28.809,-22.949,-31.738,-10.254,0.000
883.000,-28.809,-26.367,-28.809,-23.438,0.000
887.000,-21.484,-25.391,-22.949,-27.344,0.000
891.000,-21.484,-23.926,-25.879,-23.438,0.000
894.000,-20.996,-23.438,-27.832,-18.066,0.000
898.000,-18.066,-22.461,-29.297,-33.691,0.000
902.000,-15.137,-20.996,-32.715,-39.551,0.000
906.000,-34.668,-22.949,-29.297,-29.785,0.000
910.000,-46.875,-26.855,-33.691,-32.715,0.000
914.000,-34.180,-23.926,-35.645,-42.969,0.000
918.000,-29.297,-25.391,-27.832,-35.156,0.000
922.000,-31.738,-26.367,-28.809,-20.996,0.000
926.000,-40.039,-26.367,-28.809,-28.320,0.000
930.000,-36.621,-29.785,-21.973,-38.086,0.000
934.000,-33.691,-27.832,-24.902,-40.527,0.000
937.000,-36.133,-29.785,-26.855,-33.691,0.000
941.000,-25.391,-27.344,-20.508,-25.391,0.000
945.000,-29.297,-30.762,-22.461,-33.691,0.000
949.000,-41.504,-34.668,-30.273,-34.180,0.000
953.000,-39.062,-26.855,-27.832,-29.297,0.000
957.000,-39.551,-22.949,-25.879,-28.809,0.000
961.000,-39.551,-20.508,-29.785,-23.926,0.000
965.000,-21.484,-19.531,-35.156,-23.438,0.000
969.000,-25.391,-19.043,-38.086,-32.715,0.000
973.000,-27.344,-17.090,-27.832,-33.203,0.000
977.000,-25.391,-21.973,-22.461,-21.484,0.000
980.000,-37.109,-29.297,-21.973,-16.602,0.000
984.000,-32.715,-28.320,-18.555,-23.438,0.000
988.000,-24.414,-25.879,-19.043,-25.879,0.000
992.000,-27.344,-27.344,-18.555,-15.625,0.000
996.000,-27.832,-28.320,-20.020,-12.695,0.000
1000.000,-26.855,-29.785,-21.973,-23.438,0.000
1004.000,-35.156,-36.133,-24.902,-35.645,0.000
1008.000,-38.574,-37.598,-23.438,-31.250,0.000
1012.000,-31.250,-32.715,-21.484,-28.320,0.000
1016.000,-36.621,-33.203,-24.414,-39.551,0.000
1019.000,-26.367,-25.879,-24.414,-37.109,0.000
1023.000,-15.137,-19.531,-20.020,-35.645,0.000
1027.000,-17.578,-21.973,-18.555,-35.645,0.000
1031.000,-17.090,-20.996,-24.902,-33.203,0.000
1035.000,-31.738,-20.996,-25.391,-38.574,0.000
1039.000,-54.199,-28.320,-23.438,-38.086,0.000
1043.000,-49.316,-26.367,-25.391,-32.715,0.000
1047.000,-35.645,-24.414,-24.414,-34.180,0.000
1051.000,-37.109,-32.227,-23.438,-37.598,0.000
1055.000,-38.086,-31.250,-21.973,-33.691,0.000
1059.000,-41.992,-31.250,-20.020,-27.344,0.000
1062.000,-41.992,-29.785,-21.973,-31.250,0.000
1066.000,-25.879,-26.855,-21.484,-31.250,0.000
1070.000,-15.137,-27.344,-19.531,-26.855,0.000
1074.000,-10.254,-28.320,-18.555,-30.762,0.000
1078.000,-19.531,-28.809,-24.414,-30.273,0.000
1082.000,-35.156,-31.738,-27.344,-32.227,0.000
1086.000,-29.785,-35.645,-22.461,-31.738,0.000
1090.000,-33.203,-31.250,-23.438,-18.066,0.000
1094.000,-39.551,-28.809,-22.949,-9.277,0.000
1098.000,-38.086,-31.250,-21.973,-17.090,0.000
1102.000,-34.668,-27.344,-26.855,-20.020,0.000
1105.000,-28.809,-26.367,-28.809,-22.461,0.000
1109.000,-36.133,-28.809,-29.297,-18.066,0.000
1113.000,-35.156,-28.320,-24.902,-7.324,0.000
1117.000,-29.297,-30.273,-21.973,-10.254,0.000
1121.000,-34.180,-35.156,-22.461,-16.113,0.000
1125.000,-33.203,-34.180,-22.461,-10.742,0.000
1129.000,-29.785,-33.203,-20.996,-13.184,0.000
1133.000,-23.438,-31.250,-20.996,-22.949,0.000
1137.000,-27.832,-30.762,-28.809,-29.297,0.000
1141.000,-41.504,-33.691,-31.738,-25.879,0.000
1144.000,-35.156,-25.879,-28.809,-15.137,0.000
1148.000,-20.508,-19.043,-27.832,-18.066,0.000
1152.000,-19.043,-18.066,-31.250,-24.414,0.000
1156.000,-24.902,-20.020,-33.203,-16.602,0.000
1160.000,-11.230,-20.020,-27.344,-9.766,0.000
1164.000,3.906,-20.996,-21.973,-10.742,0.000
1168.000,-22.949,-24.902,-22.949,-9.766,0.000
1172.000,-60.059,-30.762,-26.855,-20.020,0.000
1176.000,-55.664,-37.109,-29.297,-23.926,0.000
1180.000,-36.133,-35.645,-28.809,-21.973,0.000
1184.000,-36.621,-29.297,-28.320,-31.738,0.000
1187.000,-32.227,-28.809,-29.785,-26.367,0.000
1191.000,-25.879,-27.344,-29.785,-15.625,0.000
1195.000,-31.738,-26.367,-32.715,-14.648,0.000
1199.000,-29.785,-27.344,-34.180,-17.090,0.000
1203.000,-19.043,-27.344,-32.227,-20.020,0.000
1207.000,-9.766,-26.855,-33.691,-13.672,0.000
1211.000,-16.113,-30.273,-31.250,-19.043,0.000
1215.000,-23.926,-30.762,-23.926,-26.855,0.000
1219.000,-22.461,-22.949,-26.855,-28.320,0.000
1223.000,-23.926,-22.949,-25.879,-23.438,0.000
1227.000,-24.414,-24.902,-23.438,-21.973,0.000
1230.000,-29.785,-24.414,-26.855,-28.809,0.000
1234.000,-30.762,-26.855,-25.879,-27.832,0.000
1238.000,-26.855,-29.297,-24.414,-22.949,0.000
1242.000,-23.926,-27.832,-28.809,-20.508,0.000
1246.000,-20.508,-27.344,-23.438,-24.902,0.000
1250.000,-9.277,-23.926,-12.207,-24.902,0.000
1254.000,-15.137,-27.832,-17.578,-20.020,0.000
1258.000,-20.020,-31.738,-19.531,-16.602,0.000
1262.000,-15.625,-26.367,-19.043,-13.672,0.000
1266.000,-25.879,-21.484,-22.461,-22.949,0.000
1269.000,-29.785,-24.902,-23.438,-30.273,0.000
1273.000,-28.809,-32.227,-26.367,-25.391,0.000
1277.000,-37.109,-28.809,-26.367,-21.484,0.000
1281.000,-40.039,-23.438,-31.250,-26.367,0.000
1285.000,-36.133,-31.738,-36.133,-33.691,0.000
1289.000,-31.738,-31.738,-33.203,-41.016,0.000
1293.000,-29.297,-33.691,-33.203,-40.527,0.000
1297.000,-42.969,-38.086,-35.645,-36.133,0.000
1301.000,-45.410,-30.273,-36.133,-43.457,0.000
1305.000,-33.203,-29.297,-32.227,-42.480,0.000
1309.000,-25.879,-28.320,-27.832,-33.203,0.000
1312.000,-29.297,-22.461,-29.785,-30.273,0.000
1316.000,-39.062,-28.320,-30.273,-37.109,0.000
1320.000,-41.016,-29.297,-26.855,-34.180,0.000
1324.000,-28.320,-25.879,-26.855,-22.461,0.000
1328.000,-32.227,-25.879,-26.855,-24.902,0.000
1332.000,-37.598,-27.832,-27.832,-26.367,0.000
1336.000,-30.762,-26.855,-27.832,-26.855,0.000
1340.000,-26.855,-26.367,-22.949,-16.113,0.000
1344.000,-28.320,-28.809,-29.297,-8.301,0.000
1348.000,-27.832,-27.344,-31.250,-20.508,0.000
1352.000,-19.043,-25.879,-24.902,-15.625,0.000
1355.000,-24.414,-29.785,-21.484,-15.137,0.000
1359.000,-33.203,-30.273,-20.996,-17.090,0.000
1363.000,-36.133,-29.297,-24.414,-16.113,0.000
1367.000,-39.062,-31.250,-25.879,-27.344,0.000
1371.000,-38.086,-27.344,-24.902,-24.414,0.000
1375.000,-31.250,-24.414,-23.926,-15.137,0.000
1379.000,-27.832,-23.926,-24.902,-21.484,0.000
1383.000,-20.020,-22.949,-26.367,-32.227,0.000
1387.000,-20.508,-19.043,-23.926,-29.785,0.000
1391.000,-23.438,-20.020,-23.438,-34.668,0.000
1394.000,-27.344,-20.020,-22.949,-38.086,0.000
1398.000,-39.062,-17.090,-19.043,-26.855,0.000
1402.000,-36.133,-20.996,-22.949,-30.762,0.000
1406.000,-30.273,-19.531,-23.926,-35.156,0.000
1410.000,-19.043,-13.672,-18.066,-20.508,0.000
1414.000,-19.531,-16.602,-20.508,-16.602,0.000
1418.000,-13.672,-16.113,-24.414,-22.461,0.000
1422.000,-13.672,-13.184,-26.367,-18.066,0.000
1426.000,-27.832,-19.043,-29.785,-21.484,0.000
1430.000,-35.645,-24.902,-30.273,-32.227,0.000
1434.000,-28.809,-26.367,-29.785,-41.504,0.000
1437.000,-27.832,-26.855,-30.273,-42.969,0.000
1441.000,-35.645,-26.855,-30.273,-34.668,0.000
1445.000,-40.039,-27.832,-29.785,-32.227,0.000
1449.000,-42.480,-30.762,-29.785,-39.062,0.000
1453.000,-30.762,-26.367,-27.832,-40.527,0.000
1457.000,-27.344,-23.438,-28.320,-35.156,0.000
1461.000,-32.715,-30.762,-33.691,-37.109,0.000
1465.000,-22.461,-29.297,-36.133,-37.109,0.000
1469.000,-17.578,-23.438,-33.691,-41.016,0.000
1473.000,-21.973,-26.367,-30.273,-42.480,0.000
1477.000,-35.645,-32.715,-32.227,-38.574,0.000
1480.000,-39.551,-35.645,-31.738,-44.922,0.000
1484.000,-36.621,-37.598,-33.691,-51.758,0.000
1488.000,-27.344,-33.691,-33.691,-41.504,0.000
1492.000,-22.461,-31.738,-33.203,-31.738,0.000
1496.000,-30.273,-30.762,-34.180,-34.668,0.000
1500.000,-39.551,-31.738,-33.203,-38.574,0.000
1504.000,-52.734,-39.551,-34.668,-36.621,0.000
1508.000,-51.270,-36.621,-32.227,-29.297,0.000
1512.000,-40.039,-33.691,-26.855,-24.414,0.000
1516.000,-36.621,-33.691,-26.367,-25.879,0.000
1519.000,-33.691,-30.273,-27.832,-24.414,0.000
1523.000,-31.250,-29.297,-30.273,-25.879,0.000
1527.000,-25.391,-28.320,-27.344,-28.320,0.000
1531.000,-26.855,-27.344,-27.344,-26.367,0.000
1535.000,-28.320,-26.367,-26.855,-25.879,0.000
1539.000,-31.250,-25.391,-23.926,-20.020,0.000
1543.000,-35.156,-25.879,-17.578,-19.531,0.000
1547.000,-29.297,-23.438,-18.066,-23.438,0.000
1551.000,-16.602,-24.414,-21.973,-24.902,0.000
1555.000,-12.207,-19.531,-20.508,-25.879,0.000
1559.000,-9.277,-20.996,-26.855,-26.367,0.000
1562.000,-8.301,-21.484,-26.855,-20.996,0.000
1566.000,-20.996,-20.508,-21.484,-17.090,0.000
1570.000,-20.020,-19.043,-21.484,-22.461,0.000
1574.000,-9.766,-13.672,-17.090,-20.508,0.000
1578.000,-7.324,-17.578,-19.043,-22.461,0.000
1582.000,-12.695,-20.020,-27.832,-26.367,0.000
1586.000,-13.672,-17.090,-24.902,-22.949,0.000
1590.000,-14.648,-17.090,-21.484,-25.391,0.000
1594.000,-20.508,-24.902,-25.879,-33.203,0.000
1598.000,-27.832,-30.762,-23.926,-34.180,0.000
1602.000,-29.297,-30.762,-19.531,-37.598,0.000
1605.000,-26.367,-27.344,-22.949,-25.391,0.000
1609.000,-23.926,-29.785,-26.367,-20.508,0.000
1613.000,-34.668,-37.109,-31.250,-38.574,0.000
1617.000,-37.109,-35.645,-32.227,-39.551,0.000
1621.000,-31.250,-35.156,-30.273,-35.645,0.000
1625.000,-38.086,-33.203,-30.762,-27.832,0.000
1629.000,-44.434,-28.320,-28.809,-24.902,0.000
1633.000,-52.246,-25.879,-22.949,-38.086,0.000
1637.000,-41.016,-23.438,-21.973,-40.039,0.000
1641.000,-28.809,-26.367,-24.902,-26.855,0.000
1644.000,-36.621,-26.855,-29.785,-22.949,0.000
1648.000,-49.805,-28.320,-31.738,-38.086,0.000
1652.000,-40.039,-27.344,-32.227,-41.016,0.000
1656.000,-34.180,-29.785,-32.227,-36.621,0.000
1660.000,-43.457,-33.203,-28.809,-39.062,0.000
1664.000,-40.527,-29.297,-28.320,-27.832,0.000
1668.000,-35.645,-25.879,-23.926,-23.926,0.000
1672.000,-38.574,-26.367,-19.043,-20.508,0.000
1676.000,-41.504,-30.273,-19.531,-11.230,0.000
1680.000,-35.156,-29.785,-24.902,-9.277,0.000
1684.000,-34.180,-28.809,-26.367,-13.184,0.000
1687.000,-36.133,-32.227,-22.461,-18.555,0.000
1691.000,-31.738,-33.691,-24.414,-17.090,0.000
1695.000,-35.645,-31.250,-23.926,-20.996,0.000
1699.000,-39.062,-27.832,-23.926,-24.414,0.000
1703.000,-25.879,-21.973,-28.320,-20.996,0.000
1707.000,-9.277,-20.020,-29.297,-14.160,0.000
1711.000,-3.906,-20.996,-26.367,-15.625,0.000
1715.000,-7.324,-18.066,-28.320,-16.602,0.000
1719.000,-22.461,-20.996,-29.297,-13.672,0.000
1723.000,-29.297,-21.484,-25.391,-20.508,0.000
1726.000,-25.879,-19.531,-23.926,-15.625,0.000
1730.000,-26.855,-23.926,-23.438,-16.113,0.000
1734.000,-38.086,-27.832,-25.879,-35.156,0.000
1738.000,-39.062,-32.715,-26.367,-39.551,0.000
1742.000,-26.367,-28.809,-26.855,-29.785,0.000
1746.000,-23.438,-24.414,-27.832,-33.691,0.000
1750.000,-14.160,-26.367,-24.414,-46.387,0.000
1754.000,-8.789,-23.926,-22.461,-43.945,0.000
1758.000,-16.113,-21.973,-21.484,-34.180,0.000
1762.000,-20.996,-21.484,-19.531,-32.227,0.000
1766.000,-30.273,-22.949,-24.902,-32.715,0.000
1769.000,-28.320,-25.879,-23.438,-32.227,0.000
1773.000,-20.996,-21.973,-18.066,-21.484,0.000
1777.000,-25.879,-22.949,-21.973,-7.324,0.000
1781.000,-30.273,-22.949,-24.902,-13.672,0.000
1785.000,-26.855,-23.438,-21.484,-30.762,0.000
1789.000,-24.902,-28.320,-24.414,-31.738,0.000
1793.000,-26.855,-28.320,-27.344,-21.973,0.000
1797.000,-29.785,-27.832,-31.250,-18.555,0.000
1801.000,-41.992,-28.809,-29.785,-24.414,0.000
1805.000,-47.363,-27.344,-30.762,-22.461,0.000
1809.000,-44.434,-28.320,-32.715,-18.555,0.000
1812.000,-43.457,-29.785,-30.273,-27.832,0.000
1816.000,-40.039,-30.762,-34.668,-34.668,0.000
1820.000,-32.715,-30.273,-32.227,-31.250,0.000
1824.000,-32.715,-30.273,-30.762,-37.109,0.000
1828.000,-41.992,-25.391,-34.180,-40.527,0.000
1832.000,-45.410,-27.344,-32.715,-35.645,0.000
1836.000,-36.133,-33.203,-29.297,-31.250,0.000
1840.000,-37.109,-30.762,-29.785,-35.156,0.000
1844.000,-33.203,-29.785,-32.227,-31.250,0.000
1848.000,-28.320,-28.320,-29.297,-24.414,0.000
1851.000,-32.227,-22.949,-22.949,-25.879,0.000
1855.000,-18.555,-22.461,-20.996,-24.414,0.000
1859.000,-14.160,-25.879,-22.949,-12.695,0.000
1863.000,-17.090,-25.879,-20.020,-5.371,0.000
1867.000,-9.277,-21.973,-18.555,-15.625,0.000
1871.000,-11.719,-20.996,-21.484,-15.625,0.000
1875.000,-21.973,-26.855,-21.484,-17.090,0.000
1879.000,-41.016,-25.879,-22.949,-24.902,0.000
1883.000,-42.480,-22.461,-25.391,-26.367,0.000
1887.000,-35.156,-22.461,-28.809,-28.320,0.000
1891.000,-30.762,-26.855,-29.297,-27.832,0.000
1894.000,-23.926,-27.832,-29.297,-28.809,0.000
1898.000,-24.414,-24.414,-29.785,-28.809,0.000
1902.000,-32.227,-27.344,-27.832,-30.273,0.000
1906.000,-44.434,-27.344,-27.344,-25.879,0.000
1910.000,-52.246,-23.438,-25.879,-18.555,0.000
1914.000,-56.641,-25.391,-25.879,-30.762,0.000
1918.000,-57.129,-27.344,-30.762,-39.062,0.000
1922.000,-48.828,-22.949,-34.668,-24.902,0.000
1926.000,-41.504,-20.508,-34.668,-14.648,0.000
1930.000,-31.250,-16.602,-34.180,-19.531,0.000
1934.000,-24.902,-18.066,-32.227,-32.715,0.000
1937.000,-26.367,-19.531,-32.715,-30.273,0.000
1941.000,-38.086,-19.043,-33.203,-12.695,0.000
1945.000,-37.109,-21.484,-28.809,-17.090,0.000
1949.000,-34.668,-21.973,-26.367,-25.879,0.000
1953.000,-31.738,-22.949,-28.320,-20.996,0.000
1957.000,-21.484,-21.484,-26.367,-10.742,0.000
1961.000,-17.578,-18.066,-27.832,-10.742,0.000
1965.000,-6.348,-11.719,-29.297,-13.184,0.000
1969.000,0.977,-9.277,-25.391,-8.301,0.000
1973.000,-22.949,-17.578,-23.438,-7.812,0.000
1976.000,-42.480,-25.879,-24.902,-13.672,0.000
1980.000,-40.039,-28.809,-24.414,-20.508,0.000
1984.000,-33.203,-23.438,-24.902,-24.902,0.000
1988.000,-31.250,-19.531,-23.438,-21.484,0.000
1992.000,-34.668,-20.020,-17.578,-15.137,0.000
1996.000,-34.668,-16.602,-21.484,-24.902,0.000
2000.000,-37.598,-18.555,-21.973,-29.785,0.000
2004.000,-47.363,-27.344,-19.043,-31.738,0.000
2008.000,-49.805,-24.414,-21.973,-37.109,0.000
2012.000,-51.270,-24.414,-24.902,-37.109,0.000
2016.000,-46.387,-31.250,-24.902,-46.875,0.000
2019.000,-31.738,-28.320,-20.508,-47.852,0.000
2023.000,-31.738,-28.809,-22.949,-43.945,0.000
2027.000,-47.363,-30.273,-26.855,-35.645,0.000
2031.000,-58.105,-29.297,-21.484,-23.926,0.000
2035.000,-56.641,-33.203,-21.484,-30.273,0.000
2039.000,-55.664,-31.738,-23.926,-25.391,0.000
2043.000,-50.781,-30.762,-23.926,-11.230,0.000
2047.000,-46.387,-26.855,-21.973,-16.113,0.000
2051.000,-46.875,-25.391,-22.949,-26.855,0.000
2055.000,-35.156,-27.832,-29.297,-30.273,0.000
2059.000,-34.180,-27.832,-34.180,-24.902,0.000
2062.000,-32.227,-26.367,-33.203,-20.996,0.000
2066.000,-31.250,-25.879,-30.273,-31.250,0.000
2070.000,-46.875,-29.785,-28.809,-41.504,0.000
2074.000,-41.504,-31.250,-24.902,-37.598,0.000
2078.000,-26.855,-27.832,-20.020,-27.832,0.000
2082.000,-38.574,-28.809,-16.113,-33.203,0.000
2086.000,-56.641,-34.180,-17.578,-44.434,0.000
2090.000,-44.434,-30.762,-23.926,-27.832,0.000
2094.000,-35.156,-28.809,-20.996,-20.996,0.000
2098.000,-38.574,-31.250,-25.879,-34.668,0.000
2101.000,-37.598,-24.902,-25.879,-33.691,0.000
2105.000,-30.762,-21.484,-23.926,-21.484,0.000
2109.000,-28.809,-24.414,-24.902,-22.461,0.000
2113.000,-30.762,-27.344,-18.066,-28.809,0.000
2117.000,-20.020,-24.902,-14.648,-26.855,0.000
2121.000,-20.996,-18.066,-13.672,-31.250,0.000
2125.000,-36.621,-23.926,-7.324,-35.156,0.000
2129.000,-33.691,-26.367,-13.184,-24.902,0.000
2133.000,-24.902,-24.414,-22.461,-23.926,0.000
2137.000,-25.879,-30.273,-23.926,-25.879,0.000
2141.000,-33.203,-34.668,-27.344,-23.926,0.000
2144.000,-36.621,-30.273,-27.344,-15.137,0.000
2148.000,-27.344,-25.879,-22.949,-14.648,0.000
2152.000,-16.602,-25.879,-24.902,-31.250,0.000
2156.000,-8.301,-20.996,-28.320,-20.020,0.000
2160.000,-16.602,-22.461,-24.414,-5.859,0.000
2164.000,-34.180,-27.344,-24.902,-12.695,0.000
2168.000,-27.832,-26.367,-30.273,-17.578,0.000
2172.000,-19.043,-30.762,-30.273,-23.438,0.000
2176.000,-25.879,-28.809,-27.832,-23.438,0.000
2180.000,-24.902,-22.949,-25.879,-14.648,0.000
2184.000,-21.484,-25.391,-25.391,-20.508,0.000
2187.000,-30.273,-29.785,-24.414,-32.715,0.000
2191.000,-38.574,-33.691,-20.996,-26.855,0.000
2195.000,-35.156,-29.785,-20.996,-14.648,0.000
2199.000,-41.992,-26.367,-21.484,-16.602,0.000
2203.000,-41.992,-30.762,-23.926,-20.996,0.000
2207.000,-32.227,-28.809,-26.367,-19.531,0.000
2211.000,-21.484,-30.273,-17.090,-22.949,0.000
2215.000,-17.578,-26.367,-14.648,-25.391,0.000
2219.000,-27.344,-23.926,-21.973,-21.973,0.000
2223.000,-27.344,-28.809,-21.973,-18.066,0.000
2226.000,-31.250,-23.438,-19.531,-8.301,0.000
2230.000,-36.621,-20.996,-20.996,-9.766,0.000
2234.000,-32.715,-25.879,-25.391,-24.414,0.000
2238.000,-31.738,-26.855,-22.949,-20.508,0.000
2242.000,-35.156,-27.832,-21.484,-18.066,0.000
2246.000,-38.086,-28.809,-21.973,-20.996,0.000
2250.000,-37.598,-26.367,-21.484,-26.855,0.000
2254.000,-36.133,-25.391,-21.484,-29.297,0.000
2258.000,-31.738,-21.484,-20.996,-24.414,0.000
2262.000,-27.832,-21.484,-24.414,-23.438,0.000
2266.000,-31.250,-25.391,-26.855,-23.926,0.000
2269.000,-38.086,-31.738,-26.367,-29.785,0.000
2273.000,-31.738,-31.738,-23.438,-29.785,0.000
2277.000,-19.531,-26.367,-21.484,-25.391,0.000
2281.000,-19.531,-25.391,-20.508,-35.156,0.000
2285.000,-17.090,-22.461,-20.996,-35.156,0.000
2289.000,-25.879,-21.484,-24.414,-34.180,0.000
2293.000,-38.574,-24.414,-23.438,-33.691,0.000
2297.000,-48.828,-28.320,-26.367,-38.574,0.000
2301.000,-54.688,-27.832,-32.715,-41.992,0.000
2305.000,-45.898,-25.391,-33.203,-40.527,0.000
2309.000,-41.016,-22.461,-32.715,-34.668,0.000
2312.000,-31.250,-25.391,-29.785,-18.555,0.000
2316.000,-26.367,-29.297,-29.785,-18.555,0.000
2320.000,-15.137,-23.438,-28.320,-30.273,0.000
2324.000,-11.719,-21.973,-29.297,-27.344,0.000
2328.000,-26.855,-24.902,-30.273,-30.273,0.000
2332.000,-30.762,-24.414,-33.203,-41.504,0.000
2336.000,-34.180,-24.414,-29.297,-41.992,0.000
2340.000,-38.086,-25.879,-26.367,-32.715,0.000
2344.000,-41.016,-28.320,-28.809,-27.832,0.000
2348.000,-41.504,-26.367,-28.809,-34.180,0.000
2351.000,-40.039,-26.367,-25.879,-37.109,0.000
2355.000,-31.250,-24.414,-24.414,-32.715,0.000
2359.000,-40.039,-26.367,-23.438,-37.109,0.000
2363.000,-54.199,-32.227,-25.879,-46.387,0.000
2367.000,-45.898,-28.809,-31.738,-38.086,0.000
2371.000,-42.969,-26.855,-28.320,-27.832,0.000
2375.000,-36.621,-30.273,-20.508,-26.855,0.000
2379.000,-33.691,-34.180,-28.320,-26.855,0.000
2383.000,-28.809,-25.879,-29.297,-28.809,0.000
2387.000,-16.602,-19.531,-23.438,-29.297,0.000
2391.000,-27.344,-21.973,-29.785,-24.902,0.000
2394.000,-33.203,-20.508,-35.156,-20.508,0.000
2398.000,-20.020,-16.113,-31.738,-17.578,0.000
2402.000,-13.184,-10.742,-26.367,-23.926,0.000
2406.000,-19.531,-17.578,-28.809,-29.297,0.000
2410.000,-31.250,-27.344,-31.250,-26.367,0.000
2414.000,-27.832,-27.344,-31.250,-27.344,0.000
2418.000,-16.113,-17.090,-25.879,-24.902,0.000
2422.000,-20.508,-16.113,-25.391,-18.555,0.000
2426.000,-30.762,-22.949,-32.715,-20.996,0.000
2430.000,-30.762,-26.855,-32.227,-29.297,0.000
2434.000,-29.785,-31.738,-29.297,-27.344,0.000
2437.000,-15.137,-27.344,-27.344,-18.555,0.000
2441.000,-9.766,-24.902,-30.273,-22.461,0.000
2445.000,-14.648,-22.949,-27.832,-18.066,0.000
2449.000,-24.902,-20.020,-24.414,-13.184,0.000
2453.000,-39.062,-23.926,-21.973,-14.648,0.000
2457.000,-36.133,-25.879,-22.461,-14.648,0.000
2461.000,-28.320,-26.367,-23.926,-17.578,0.000
2465.000,-16.113,-28.320,-20.020,-13.184,0.000
2469.000,-14.160,-34.180,-23.926,-10.254,0.000
2473.000,-21.973,-33.691,-29.297,-8.789,0.000
2476.000,-23.926,-29.297,-21.484,-8.789,0.000
2480.000,-18.555,-24.414,-16.602,-10.254,0.000
2484.000,-26.855,-24.902,-16.113,-11.719,0.000
2488.000,-28.809,-32.715,-23.438,-16.113,0.000
2492.000,-17.578,-32.715,-23.926,-11.719,0.000
2496.000,-18.555,-30.762,-16.113,-12.207,0.000
2500.000,-21.484,-32.715,-13.672,-27.344,0.000
2504.000,-24.902,-38.086,-30.762,-40.527,0.000
2508.000,-26.855,-36.621,-36.621,-30.762,0.000
2512.000,-21.973,-28.809,-24.414,-18.066,0.000
2516.000,-24.414,-30.273,-25.391,-27.832,0.000
2519.000,-30.273,-31.250,-21.484,-30.273,0.000
2523.000,-29.785,-28.809,-20.508,-29.785,0.000
2527.000,-24.902,-22.461,-24.414,-31.250,0.000
2531.000,-19.043,-20.508,-24.414,-35.156,0.000
2535.000,-13.672,-18.555,-19.043,-34.668,0.000
2539.000,-11.230,-16.602,-15.137,-24.414,0.000
2543.000,-12.695,-20.020,-17.578,-21.973,0.000
2547.000,-17.578,-20.020,-15.137,-24.414,0.000
2551.000,-10.742,-20.020,-19.531,-23.438,0.000
2555.000,-13.184,-26.367,-23.438,-19.043,0.000
2558.000,-36.621,-26.367,-21.484,-26.367,0.000
2562.000,-35.156,-21.484,-22.461,-36.133,0.000
2566.000,-35.645,-18.555,-23.926,-34.180,0.000
2570.000,-36.621,-19.531,-18.555,-28.809,0.000
2574.000,-31.250,-19.043,-22.461,-30.273,0.000
2578.000,-40.039,-23.438,-29.785,-28.320,0.000
2582.000,-43.945,-27.344,-22.949,-27.832,0.000
2586.000,-40.527,-28.809,-21.973,-32.715,0.000
2590.000,-31.250,-25.391,-33.203,-27.832,0.000
2594.000,-23.926,-28.320,-29.297,-30.273,0.000
2598.000,-29.785,-24.414,-20.996,-38.086,0.000
2601.000,-34.180,-17.578,-23.926,-42.969,0.000
2605.000,-31.250,-21.973,-29.297,-45.898,0.000
2609.000,-29.785,-21.973,-26.367,-33.691,0.000
2613.000,-29.785,-22.461,-25.879,-29.785,0.000
2617.000,-20.020,-23.438,-26.367,-35.645,0.000
2621.000,-20.508,-26.855,-25.391,-32.227,0.000
2625.000,-27.832,-26.367,-20.020,-21.484,0.000
2629.000,-38.574,-25.879,-18.066,-19.531,0.000
2633.000,-43.945,-29.297,-23.926,-21.973,0.000
2637.000,-35.645,-30.273,-19.043,-16.113,0.000
2641.000,-26.367,-29.297,-14.160,-13.672,0.000
2644.000,-35.645,-28.809,-16.113,-15.625,0.000
2648.000,-39.062,-34.180,-18.066,-22.949,0.000
2652.000,-26.855,-27.832,-17.578,-32.715,0.000
2656.000,-26.855,-23.438,-21.484,-36.621,0.000
2660.000,-34.668,-24.414,-19.043,-28.809,0.000
2664.000,-30.762,-24.414,-18.066,-22.949,0.000
2668.000,-34.668,-28.809,-24.414,-21.973,0.000
2672.000,-42.480,-30.762,-24.902,-25.879,0.000
2676.000,-35.645,-31.250,-28.320,-28.809,0.000
2680.000,-40.527,-26.855,-30.273,-37.598,0.000
2683.000,-51.758,-23.438,-25.879,-43.457,0.000
2687.000,-45.898,-29.297,-27.832,-42.480,0.000
2691.000,-42.480,-30.273,-29.297,-38.574,0.000
2695.000,-51.270,-27.344,-22.461,-35.156,0.000
2699.000,-46.387,-25.391,-26.855,-34.668,0.000
2703.000,-37.109,-22.461,-22.949,-32.715,0.000
2707.000,-33.691,-24.414,-17.578,-32.715,0.000
2711.000,-34.180,-22.949,-25.879,-31.250,0.000
2715.000,-31.250,-15.625,-25.391,-33.203,0.000
2719.000,-18.555,-18.555,-21.973,-41.016,0.000
2723.000,-19.043,-23.438,-20.508,-42.480,0.000
2726.000,-37.598,-20.508,-24.414,-36.133,0.000
2730.000,-32.227,-18.066,-26.367,-36.133,0.000
2734.000,-23.438,-18.555,-27.344,-43.457,0.000
2738.000,-34.180,-24.414,-35.156,-43.945,0.000
2742.000,-25.391,-21.973,-34.180,-33.203,0.000
2746.000,-16.113,-20.508,-23.926,-34.180,0.000
2750.000,-28.320,-22.949,-23.438,-38.574,0.000
2754.000,-27.344,-17.578,-25.879,-27.832,0.000
2758.000,-23.438,-16.602,-25.879,-26.855,0.000
2762.000,-28.809,-18.555,-27.832,-34.180,0.000
2766.000,-26.855,-22.949,-29.785,-36.621,0.000
2769.000,-28.320,-20.020,-26.367,-36.133,0.000
2773.000,-44.434,-20.020,-21.973,-35.645,0.000
2777.000,-42.969,-25.391,-22.949,-30.762,0.000
2781.000,-37.598,-26.855,-19.531,-28.320,0.000
2785.000,-46.387,-29.785,-20.020,-27.344,0.000
2789.000,-42.969,-26.855,-22.461,-27.832,0.000
2793.000,-38.574,-23.926,-20.020,-20.508,0.000
2797.000,-35.156,-30.273,-23.926,-18.555,0.000
2801.000,-20.996,-30.273,-21.973,-26.855,0.000
2805.000,-18.555,-29.785,-19.531,-24.902,0.000
2808.000,-26.855,-30.762,-23.926,-11.719,0.000
2812.000,-24.902,-28.809,-24.902,-12.695,0.000
2816.000,-26.855,-27.344,-26.367,-18.555,0.000
2820.000,-32.227,-28.320,-24.902,-15.137,0.000
2824.000,-33.203,-27.832,-28.320,-7.324,0.000
2828.000,-33.203,-26.855,-23.926,-6.836,0.000
2832.000,-27.832,-29.297,-16.113,-12.695,0.000
2836.000,-27.344,-30.273,-18.066,-20.020,0.000
2840.000,-29.785,-30.273,-20.508,-15.625,0.000
2844.000,-25.879,-28.809,-23.438,-10.254,0.000
2848.000,-21.973,-27.344,-23.438,-15.625,0.000
2851.000,-17.578,-30.762,-21.973,-23.438,0.000
2855.000,-21.484,-32.227,-24.902,-21.484,0.000
2859.000,-27.832,-30.273,-30.762,-21.484,0.000
2863.000,-26.855,-31.738,-27.832,-24.414,0.000
2867.000,-37.598,-30.273,-29.785,-31.250,0.000
2871.000,-42.969,-27.832,-28.809,-21.973,0.000
2875.000,-27.344,-22.949,-25.391,-12.207,0.000
2879.000,-22.949,-27.832,-30.273,-24.414,0.000
2883.000,-31.250,-33.691,-31.250,-37.109,0.000
2887.000,-34.180,-32.715,-32.715,-40.527,0.000
2891.000,-41.504,-27.344,-36.621,-34.668,0.000
2894.000,-42.969,-22.461,-40.039,-24.902,0.000
2898.000,-30.762,-20.508,-32.715,-22.461,0.000
2902.000,-29.785,-20.996,-30.762,-25.391,0.000
2906.000,-33.203,-17.578,-35.156,-22.461,0.000
2910.000,-24.902,-15.625,-26.367,-16.602,0.000
2914.000,-19.531,-20.508,-21.973,-15.137,0.000
2918.000,-8.301,-26.367,-26.367,-23.926,0.000
2922.000,-2.441,-25.391,-25.879,-28.809,0.000
2926.000,-26.855,-16.113,-28.809,-17.578,0.000
2930.000,-36.621,-21.973,-29.785,-18.555,0.000
2933.000,-38.086,-28.320,-27.344,-30.762,0.000
2937.000,-46.387,-25.879,-31.250,-28.320,0.000
2941.000,-48.828,-26.855,-35.156,-18.066,0.000
2945.000,-43.945,-28.320,-33.203,-14.160,0.000
2949.000,-39.062,-26.367,-34.668,-22.949,0.000
2953.000,-33.691,-24.414,-33.691,-24.902,0.000
2957.000,-36.133,-21.484,-32.227,-19.043,0.000
2961.000,-35.645,-24.902,-34.668,-22.949,0.000
2965.000,-26.855,-23.438,-35.645,-16.113,0.000
2969.000,-17.090,-17.578,-29.785,-16.602,0.000
2973.000,-23.926,-17.578,-29.297,-18.066,0.000
2976.000,-35.156,-21.484,-29.297,-9.277,0.000
2980.000,-24.902,-19.531,-26.855,-19.043,0.000
2984.000,-26.367,-16.113,-29.785,-32.227,0.000
2988.000,-31.738,-15.137,-24.414,-25.879,0.000
2992.000,-26.855,-13.672,-23.926,-13.672,0.000
2996.000,-27.832,-15.625,-25.391,-11.719,0.000
3000.000,-23.438,-20.996,-25.879,-20.996,0.000
3004.000,-19.043,-28.809,-27.344,-27.344,0.000
3008.000,-20.020,-33.691,-27.344,-19.043,0.000
3012.000,-26.367,-31.738,-26.367,-14.160,0.000
3016.000,-27.832,-25.391,-23.438,-17.578,0.000
3019.000,-23.926,-20.508,-28.320,-12.207,0.000
3023.000,-24.902,-25.879,-32.715,-9.277,0.000
3027.000,-23.438,-29.297,-32.227,-9.766,0.000
3031.000,-21.484,-23.926,-31.738,-13.672,0.000
3035.000,-21.484,-19.043,-26.855,-11.719,0.000
3039.000,-20.020,-22.461,-27.832,-14.648,0.000
3043.000,-20.020,-22.461,-27.832,-20.996,0.000
3047.000,-24.902,-20.508,-23.926,-19.531,0.000
3051.000,-24.414,-23.438,-25.879,-18.066,0.000
3055.000,-25.391,-27.344,-30.273,-16.113,0.000
3058.000,-33.691,-26.855,-31.250,-15.137,0.000
3062.000,-28.809,-17.578,-28.809,-19.043,0.000
3066.000,-19.043,-14.648,-26.855,-26.367,0.000
3070.000,-24.414,-17.578,-24.414,-28.320,0.000
3074.000,-28.320,-18.066,-24.414,-22.461,0.000
3078.000,-27.832,-18.066,-27.832,-17.090,0.000
3082.000,-21.973,-20.020,-26.855,-15.137,0.000
3086.000,-19.531,-22.461,-26.855,-20.508,0.000
3090.000,-21.973,-22.949,-26.367,-23.926,0.000
3094.000,-25.391,-25.879,-25.391,-23.926,0.000
3098.000,-42.969,-32.227,-24.414,-22.461,0.000
3101.000,-49.316,-29.785,-20.508,-20.020,0.000
3105.000,-48.340,-30.762,-22.461,-23.926,0.000
3109.000,-40.039,-37.109,-22.461,-19.043,0.000
3113.000,-40.527,-34.180,-23.926,-15.625,0.000
3117.000,-41.504,-25.391,-24.414,-22.461,0.000
3121.000,-27.832,-20.996,-20.508,-15.625,0.000
3125.000,-28.320,-23.926,-20.996,-4.883,0.000
3129.000,-27.832,-23.438,-19.531,-11.230,0.000
3133.000,-18.066,-21.973,-15.137,-18.066,0.000
3137.000,-23.438,-29.297,-17.578,-17.090,0.000
3141.000,-32.715,-34.668,-24.902,-20.020,0.000
3144.000,-35.645,-29.785,-20.996,-20.020,0.000
3148.000,-40.527,-29.297,-14.648,-23.926,0.000
3152.000,-36.133,-27.832,-20.020,-31.738,0.000
3156.000,-28.809,-23.926,-20.508,-33.203,0.000
3160.000,-30.273,-23.926,-17.578,-28.320,0.000
3164.000,-28.320,-24.414,-19.531,-22.949,0.000
3168.000,-26.855,-27.344,-19.531,-23.926,0.000
3172.000,-29.785,-31.250,-24.414,-29.297,0.000
3176.000,-37.109,-29.785,-23.438,-35.156,0.000
3180.000,-43.457,-26.367,-25.391,-38.086,0.000
3183.000,-39.062,-23.926,-30.273,-46.875,0.000
3187.000,-27.344,-23.926,-31.738,-47.852,0.000
3191.000,-20.020,-20.020,-29.785,-38.086,0.000
3195.000,-30.273,-22.949,-29.297,-41.992,0.000
3199.000,-48.828,-28.320,-32.227,-50.293,0.000
3203.000,-44.922,-27.832,-31.250,-46.875,0.000
3207.000,-33.203,-28.809,-29.297,-37.109,0.000
3211.000,-29.785,-20.508,-23.926,-32.715,0.000
3215.000,-19.531,-22.949,-27.832,-33.203,0.000
3219.000,-11.719,-27.344,-37.109,-33.691,0.000
3223.000,-12.207,-26.367,-33.203,-23.438,0.000
3226.000,-20.020,-21.484,-27.832,-13.672,0.000
3230.000,-25.391,-20.508,-23.926,-8.301,0.000
3234.000,-30.273,-27.344,-25.391,-21.973,0.000
3238.000,-39.551,-26.855,-29.785,-31.738,0.000
3242.000,-48.828,-24.414,-24.414,-20.996,0.000
3246.000,-43.457,-25.391,-20.020,-16.113,0.000
3250.000,-37.109,-23.438,-22.461,-20.996,0.000
3254.000,-42.480,-21.973,-21.973,-24.414,0.000
3258.000,-38.574,-31.250,-22.949,-25.391,0.000
3262.000,-35.156,-27.344,-25.879,-9.277,0.000
3266.000,-35.645,-19.043,-20.508,-16.602,0.000
3269.000,-29.785,-16.602,-22.461,-29.297,0.000
3273.000,-21.973,-18.066,-31.738,-21.484,0.000
3277.000,-25.879,-18.066,-31.250,-16.113,0.000
3281.000,-38.574,-20.020,-26.855,-21.484,0.000
3285.000,-29.297,-23.438,-27.832,-20.020,0.000
3289.000,-23.926,-26.855,-22.949,-17.090,0.000
3293.000,-32.715,-25.879,-24.414,-20.508,0.000
3297.000,-28.320,-22.461,-25.879,-21.484,0.000
3301.000,-20.508,-24.414,-26.367,-28.809,0.000
3305.000,-29.297,-31.738,-28.320,-20.508,0.000
3308.000,-33.691,-27.832,-22.461,-9.766,0.000
3312.000,-36.621,-22.949,-26.367,-19.043,0.000
3316.000,-42.969,-26.367,-32.715,-28.809,0.000
3320.000,-32.715,-29.297,-35.156,-34.180,0.000
3324.000,-38.086,-27.832,-34.180,-33.203,0.000
3328.000,-48.828,-25.879,-29.297,-25.391,0.000
3332.000,-44.922,-22.949,-27.344,-27.832,0.000
3336.000,-41.992,-21.973,-27.832,-36.621,0.000
3340.000,-36.133,-23.926,-24.902,-30.273,0.000
3344.000,-24.414,-20.996,-25.879,-28.320,0.000
3348.000,-23.438,-21.484,-28.320,-35.645,0.000
3351.000,-38.086,-26.855,-24.902,-47.852,0.000
3355.000,-44.922,-28.809,-25.391,-43.945,0.000
3359.000,-44.434,-31.250,-26.855,-31.250,0.000
3363.000,-36.621,-20.996,-22.949,-28.320,0.000
3367.000,-30.762,-15.137,-20.508,-25.879,0.000
3371.000,-29.297,-20.996,-21.484,-28.809,0.000
3375.000,-24.902,-17.578,-20.020,-21.973,0.000
3379.000,-24.414,-17.578,-19.043,-17.090,0.000
3383.000,-18.066,-19.531,-22.461,-19.043,0.000
3387.000,-11.230,-28.320,-25.879,-24.414,0.000
3391.000,-34.668,-27.832,-22.949,-22.949,0.000
3394.000,-38.086,-18.555,-27.344,-21.973,0.000
3398.000,-16.113,-17.090,-31.738,-28.320,0.000
3402.000,-15.137,-17.090,-28.809,-24.414,0.000
3406.000,-23.438,-19.531,-25.391,-28.809,0.000
3410.000,-31.738,-22.949,-22.949,-23.438,0.000
3414.000,-37.598,-26.367,-25.391,-27.832,0.000
3418.000,-35.645,-27.832,-25.879,-40.039,0.000
3422.000,-19.043,-26.855,-25.391,-33.691,0.000
3426.000,-11.230,-19.531,-24.414,-27.344,0.000
3430.000,-23.438,-18.555,-27.344,-34.668,0.000
3433.000,-36.133,-22.949,-31.250,-35.645,0.000
3437.000,-35.645,-20.996,-27.832,-24.414,0.000
3441.000,-33.691,-23.438,-30.273,-21.973,0.000
3445.000,-34.668,-23.926,-32.227,-29.297,0.000
3449.000,-38.574,-21.484,-35.156,-37.109,0.000
3453.000,-42.480,-21.484,-33.203,-30.762,0.000
3457.000,-42.969,-21.973,-22.949,-24.414,0.000
3461.000,-37.598,-23.438,-18.066,-23.438,0.000
3465.000,-26.367,-21.973,-20.508,-27.344,0.000
3469.000,-22.461,-22.949,-21.973,-22.461,0.000
3473.000,-37.109,-27.344,-17.578,-12.207,0.000
3476.000,-34.180,-24.902,-18.066,-13.184,0.000
3480.000,-27.832,-22.461,-23.438,-13.184,0.000
3484.000,-30.273,-23.926,-23.926,-19.043,0.000
3488.000,-33.203,-24.902,-18.555,-13.672,0.000
3492.000,-35.156,-27.344,-17.578,-7.324,0.000
3496.000,-31.250,-24.414,-19.531,-7.324,0.000
3500.000,-29.785,-22.461,-19.043,-6.836,0.000
3504.000,-36.133,-26.367,-21.973,-7.812,0.000
3508.000,-34.668,-30.273,-21.973,-13.184,0.000
3512.000,-25.879,-28.320,-18.555,-12.695,0.000
3515.000,-19.531,-21.973,-20.020,-17.090,0.000
3519.000,-14.160,-19.043,-21.484,-16.602,0.000
3523.000,-15.137,-18.555,-23.926,-9.277,0.000
3527.000,-17.090,-19.531,-21.484,-11.230,0.000
3531.000,-29.297,-20.508,-25.391,-20.020,0.000
3535.000,-39.062,-22.949,-32.715,-27.344,0.000
3539.000,-34.180,-25.879,-33.203,-24.414,0.000
3543.000,-31.738,-27.832,-32.227,-21.484,0.000
3547.000,-34.180,-19.043,-29.297,-20.508,0.000
3551.000,-36.621,-16.113,-24.414,-19.531,0.000
3555.000,-30.762,-22.461,-23.438,-16.113,0.000
3558.000,-31.250,-16.602,-26.367,-3.906,0.000
3562.000,-35.156,-13.184,-26.855,-3.418,0.000
3566.000,-31.250,-20.996,-20.996,-13.672,0.000
3570.000,-40.039,-23.926,-21.484,-19.043,0.000
3574.000,-43.457,-24.414,-25.391,-23.438,0.000
3578.000,-37.598,-25.879,-25.391,-29.297,0.000
3582.000,-37.598,-26.855,-24.414,-34.668,0.000
3586.000,-28.809,-22.949,-25.391,-32.227,0.000
3590.000,-22.949,-30.273,-28.320,-24.414,0.000
3594.000,-31.738,-29.785,-26.855,-23.926,0.000
3598.000,-45.898,-17.090,-20.996,-29.297,0.000
3601.000,-39.551,-20.508,-18.555,-29.785,0.000
3605.000,-28.809,-25.391,-22.461,-23.438,0.000
3609.000,-22.461,-20.996,-23.438,-17.578,0.000
3613.000,-21.973,-19.043,-17.090,-22.461,0.000
3617.000,-28.320,-25.391,-17.090,-34.180,0.000
3621.000,-34.668,-29.297,-22.461,-41.992,0.000
3625.000,-41.016,-32.715,-25.879,-40.039,0.000
3629.000,-48.828,-34.668,-23.926,-43.457,0.000
3633.000,-47.363,-29.297,-21.484,-41.504,0.000
3637.000,-38.086,-30.273,-24.902,-35.645,0.000
3640.000,-38.574,-36.621,-29.297,-41.992,0.000
3644.000,-52.734,-25.879,-20.996,-36.621,0.000
3648.000,-49.805,-24.414,-20.020,-39.062,0.000
3652.000,-31.738,-28.809,-27.832,-31.250,0.000
3656.000,-27.344,-25.879,-27.832,-20.020,0.000
3660.000,-36.621,-20.020,-18.555,-20.508,0.000
3664.000,-53.711,-21.973,-19.043,-27.832,0.000
3668.000,-55.664,-25.391,-24.414,-25.391,0.000
3672.000,-50.781,-18.555,-20.996,-13.672,0.000
3676.000,-44.434,-17.578,-17.090,-14.648,0.000
3680.000,-39.551,-27.832,-23.438,-18.066,0.000
3683.000,-43.945,-30.273,-25.391,-26.855,0.000
3687.000,-42.969,-24.414,-25.391,-25.879,0.000
3691.000,-38.574,-26.367,-28.809,-24.414,0.000
3695.000,-27.832,-24.902,-27.344,-30.273,0.000
3699.000,-22.949,-27.344,-24.414,-35.645,0.000
3703.000,-23.926,-36.621,-22.949,-32.227,0.000
3707.000,-18.066,-33.203,-23.926,-21.484,0.000
3711.000,-23.926,-24.902,-28.809,-13.672,0.000
3715.000,-22.949,-21.973,-30.273,-22.461,0.000
3719.000,-23.926,-22.949,-25.391,-27.344,0.000
3723.000,-21.973,-21.973,-24.902,-22.949,0.000
3726.000,-18.066,-24.902,-30.273,-13.672,0.000
3730.000,-27.344,-27.344,-31.738,-20.020,0.000
3734.000,-32.227,-20.996,-26.855,-31.250,0.000
3738.000,-44.922,-21.484,-22.461,-25.391,0.000
3742.000,-56.641,-31.738,-29.297,-21.973,0.000
3746.000,-55.176,-31.738,-32.715,-24.414,0.000
3750.000,-51.270,-27.344,-30.273,-25.391,0.000
3754.000,-46.387,-28.809,-30.762,-24.902,0.000
3758.000,-39.551,-22.949,-32.227,-23.926,0.000
3762.000,-32.715,-18.066,-32.227,-15.625,0.000
3765.000,-18.555,-21.973,-28.320,-15.137,0.000
3769.000,-24.414,-23.438,-27.832,-23.438,0.000
3773.000,-34.668,-20.508,-22.949,-18.555,0.000
3777.000,-35.156,-20.996,-15.137,-13.184,0.000
3781.000,-41.016,-24.414,-16.113,-19.043,0.000
3785.000,-41.016,-30.273,-19.043,-22.949,0.000
3789.000,-30.273,-26.367,-22.461,-25.879,0.000
3793.000,-25.391,-22.949,-25.391,-23.926,0.000
3797.000,-28.809,-26.855,-23.926,-20.020,0.000
3801.000,-29.785,-23.438,-19.531,-16.602,0.000
3805.000,-25.879,-23.438,-22.949,-24.414,0.000
3808.000,-24.902,-24.414,-22.949,-23.926,0.000
3812.000,-20.996,-21.973,-22.461,-14.648,0.000
3816.000,-5.371,-25.391,-22.949,-16.602,0.000
3820.000,-9.766,-34.668,-28.809,-18.555,0.000
3824.000,-16.602,-32.715,-29.297,-14.648,0.000
3828.000,-13.184,-20.508,-24.902,-13.184,0.000
3832.000,-18.555,-18.066,-27.832,-10.742,0.000
3836.000,-27.832,-20.508,-30.762,-19.531,0.000
3840.000,-31.250,-19.043,-26.367,-19.043,0.000
3844.000,-27.832,-22.461,-26.367,-13.184,0.000
3848.000,-32.715,-24.414,-32.227,-21.484,0.000
3851.000,-31.738,-20.996,-36.133,-30.273,0.000
3855.000,-21.484,-19.531,-35.645,-20.508,0.000
3859.000,-27.832,-22.949,-33.203,-20.508,0.000
3863.000,-47.363,-27.344,-33.203,-28.809,0.000
3867.000,-51.270,-27.344,-31.250,-30.273,0.000
3871.000,-52.246,-26.855,-33.691,-26.367,0.000
3875.000,-49.316,-27.344,-33.691,-25.879,0.000
3879.000,-47.852,-23.926,-33.203,-29.785,0.000
3883.000,-48.828,-27.832,-34.668,-33.691,0.000
3887.000,-47.852,-29.785,-34.180,-32.715,0.000
3890.000,-43.457,-19.531,-31.738,-22.949,0.000
3894.000,-38.574,-21.484,-28.320,-17.578,0.000
3898.000,-36.133,-25.879,-28.809,-12.695,0.000
3902.000,-24.902,-23.926,-27.832,-13.672,0.000
3906.000,-14.648,-30.762,-27.344,-10.254,0.000
3910.000,-11.719,-24.414,-25.879,-0.488,0.000
3914.000,-14.160,-17.090,-22.949,-8.789,0.000
3918.000,-29.785,-15.625,-23.926,-11.719,0.000
3922.000,-28.809,-12.695,-25.879,-4.883,0.000
3926.000,-24.414,-13.672,-24.414,-5.859,0.000
3930.000,-25.391,-8.789,-22.461,-5.859,0.000
3933.000,-15.137,-9.766,-22.949,-3.906,0.000
3937.000,-14.160,-15.625,-28.320,-14.160,0.000
3941.000,-20.508,-16.113,-30.762,-30.762,0.000
3945.000,-33.691,-19.043,-27.832,-29.785,0.000
3949.000,-41.504,-25.391,-25.879,-32.715,0.000
3953.000,-33.203,-26.855,-31.738,-36.621,0.000
3957.000,-35.645,-29.297,-31.250,-42.969,0.000
3961.000,-41.016,-33.203,-24.902,-45.898,0.000
3965.000,-44.434,-27.344,-25.391,-40.527,0.000
3969.000,-45.410,-20.508,-24.414,-38.086,0.000
3973.000,-43.945,-19.531,-20.508,-38.574,0.000
3976.000,-40.527,-21.973,-25.391,-33.691,0.000
3980.000,-31.738,-25.391,-24.414,-26.367,0.000
3984.000,-32.227,-28.809,-20.996,-25.391,0.000
3988.000,-41.016,-35.645,-29.297,-37.598,0.000
3992.000,-43.457,-36.133,-30.762,-37.598,0.000
3996.000,-39.062,-32.715,-29.785,-24.902,0.000
4000.000,-39.062,-27.832,-26.855,-37.109,0.000
4004.000,-28.320,-21.973,-22.949,-44.434,0.000
4008.000,-19.043,-22.949,-20.996,-21.484,0.000
4012.000,-26.367,-27.344,-18.555,-22.949,0.000
4015.000,-23.438,-29.785,-16.602,-33.691,0.000
4019.000,-25.879,-33.691,-16.113,-30.273,0.000
4023.000,-36.621,-27.832,-16.602,-21.484,0.000
4027.000,-41.504,-23.438,-19.531,-22.461,0.000
4031.000,-32.227,-24.902,-20.020,-36.621,0.000
4035.000,-20.996,-21.973,-21.484,-40.527,0.000
4039.000,-27.344,-23.438,-27.832,-47.363,0.000
4043.000,-46.387,-27.344,-30.762,-46.387,0.000
4047.000,-50.781,-31.250,-27.832,-41.504,0.000
4051.000,-43.945,-36.133,-26.855,-50.293,0.000
4055.000,-45.410,-30.273,-24.414,-45.898,0.000
4058.000,-40.039,-25.391,-25.879,-29.297,0.000
4062.000,-41.504,-30.273,-26.855,-28.320,0.000
4066.000,-41.504,-31.738,-27.344,-38.086,0.000
4070.000,-29.297,-25.391,-25.879,-36.621,0.000
4074.000,-30.273,-24.414,-21.484,-29.297,0.000
4078.000,-31.738,-28.809,-26.855,-25.391,0.000
4082.000,-33.691,-26.367,-28.320,-22.949,0.000
4086.000,-38.086,-24.902,-24.414,-22.949,0.000
4090.000,-28.320,-21.484,-23.926,-18.555,0.000
4094.000,-22.949,-21.973,-22.461,-12.695,0.000
4098.000,-27.832,-25.879,-22.461,-12.695,0.000
4101.000,-31.250,-21.973,-23.438,-14.648,0.000
4105.000,-33.203,-22.949,-27.832,-16.602,0.000
4109.000,-26.855,-30.273,-33.691,-21.484,0.000
4113.000,-13.672,-31.738,-32.227,-18.555,0.000
4117.000,-18.066,-27.344,-31.738,-21.973,0.000
4121.000,-30.273,-24.414,-31.250,-27.832,0.000
4125.000,-34.668,-29.297,-31.250,-22.949,0.000
4129.000,-32.715,-29.297,-29.297,-23.438,0.000
4133.000,-32.715,-21.973,-24.902,-26.367,0.000
4137.000,-34.180,-21.973,-21.973,-27.344,0.000
4140.000,-37.109,-21.973,-28.809,-30.762,0.000
4144.000,-41.992,-24.414,-29.785,-37.109,0.000
4148.000,-43.945,-23.438,-25.391,-38.086,0.000
4152.000,-41.504,-22.461,-23.438,-34.668,0.000
4156.000,-37.598,-24.414,-25.391,-32.227,0.000
4160.000,-36.621,-20.996,-29.297,-24.414,0.000
4164.000,-29.785,-22.949,-30.273,-24.414,0.000
4168.000,-23.438,-23.926,-24.902,-42.480,0.000
4172.000,-29.785,-29.785,-24.414,-41.504,0.000
4176.000,-42.480,-39.062,-25.879,-23.926,0.000
4180.000,-43.457,-32.227,-26.367,-17.090,0.000
4183.000,-37.598,-29.297,-23.438,-14.648,0.000
4187.000,-29.297,-34.180,-22.949,-15.137,0.000
4191.000,-20.508,-26.855,-20.996,-20.020,0.000
4195.000,-19.531,-22.949,-17.578,-17.578,0.000
4199.000,-29.297,-24.414,-20.508,-20.508,0.000
4203.000,-34.668,-27.832,-25.879,-21.973,0.000
4207.000,-33.203,-30.762,-25.879,-21.973,0.000
4211.000,-37.109,-29.297,-20.020,-29.785,0.000
4215.000,-34.180,-29.297,-24.902,-32.715,0.000
4219.000,-31.738,-28.809,-27.344,-30.762,0.000
4223.000,-41.504,-27.832,-21.484,-26.367,0.000
4226.000,-51.270,-32.715,-22.461,-22.949,0.000
4230.000,-48.340,-31.250,-24.414,-24.902,0.000
4234.000,-40.527,-28.320,-29.297,-29.297,0.000
4238.000,-44.922,-24.414,-29.297,-35.645,0.000
4242.000,-48.340,-20.508,-24.902,-25.879,0.000
4246.000,-36.621,-17.578,-22.461,-17.578,0.000
4250.000,-20.996,-14.160,-20.996,-20.020,0.000
4254.000,-17.090,-16.113,-22.461,-16.113,0.000
4258.000,-9.766,-22.461,-21.973,-16.113,0.000
4262.000,-12.207,-24.414,-20.508,-10.254,0.000
4265.000,-22.461,-19.531,-21.484,-15.137,0.000
4269.000,-33.203,-20.996,-25.879,-25.391,0.000
4273.000,-39.062,-23.926,-26.855,-22.461,0.000
4277.000,-46.387,-23.438,-25.879,-20.996,0.000
4281.000,-45.410,-24.902,-25.391,-31.250,0.000
4285.000,-30.762,-26.855,-20.508,-29.785,0.000
4289.000,-27.344,-26.855,-19.043,-21.973,0.000
4293.000,-34.668,-25.879,-20.996,-16.113,0.000
4297.000,-28.809,-30.273,-23.438,-17.090,0.000
4301.000,-32.715,-32.227,-24.414,-31.738,0.000
4305.000,-41.016,-24.902,-23.438,-28.809,0.000
4308.000,-38.574,-20.996,-19.043,-22.461,0.000
4312.000,-40.039,-16.602,-17.578,-28.809,0.000
4316.000,-32.227,-18.555,-24.414,-32.227,0.000
4320.000,-30.273,-21.484,-26.855,-29.785,0.000
4324.000,-37.109,-20.996,-26.855,-20.508,0.000
4328.000,-38.086,-17.578,-24.902,-20.508,0.000
4332.000,-37.109,-23.438,-22.461,-31.738,0.000
4336.000,-24.902,-25.879,-22.949,-33.691,0.000
4340.000,-20.020,-19.043,-24.902,-20.508,0.000
4344.000,-27.832,-27.344,-27.344,-15.625,0.000
4347.000,-25.879,-25.391,-27.832,-26.367,0.000
4351.000,-15.625,-20.996,-28.320,-27.344,0.000
4355.000,-13.184,-24.902,-26.855,-19.531,0.000
4359.000,-14.648,-27.344,-27.344,-15.625,0.000
4363.000,-20.508,-26.855,-27.344,-18.555,0.000
4367.000,-27.344,-22.461,-26.855,-21.973,0.000
4371.000,-41.016,-19.531,-26.367,-19.043,0.000
4375.000,-36.621,-20.996,-28.320,-15.137,0.000
4379.000,-20.508,-16.113,-27.832,-21.484,0.000
4383.000,-12.695,-12.695,-26.855,-29.297,0.000
4387.000,-15.625,-15.625,-29.297,-19.531,0.000
4390.000,-33.203,-20.020,-30.762,-26.367,0.000
4394.000,-42.480,-25.879,-30.762,-27.832,0.000
4398.000,-38.574,-23.438,-30.273,-25.391,0.000
4402.000,-33.691,-19.043,-32.715,-26.855,0.000
4406.000,-22.461,-15.137,-29.297,-14.648,0.000
4410.000,-11.719,-16.113,-20.020,-10.742,0.000
4414.000,-16.113,-19.531,-20.996,-23.926,0.000
4418.000,-21.484,-14.160,-23.926,-19.531,0.000
4422.000,-20.508,-9.766,-18.555,-9.766,0.000
4426.000,-17.578,-8.789,-20.508,-16.113,0.000
4430.000,-13.184,-15.137,-22.461,-19.531,0.000
4433.000,-18.555,-18.066,-20.508,-13.672,0.000
4437.000,-19.531,-17.090,-21.973,-6.348,0.000
4441.000,-23.438,-19.043,-21.484,-5.859,0.000
4445.000,-32.715,-19.531,-23.926,-4.883,0.000
4449.000,-31.738,-19.043,-23.926,-7.324,0.000
4453.000,-26.855,-21.973,-23.438,-19.043,0.000
4457.000,-33.203,-24.414,-26.855,-20.020,0.000
4461.000,-43.945,-25.391,-23.926,-14.648,0.000
4465.000,-43.457,-27.832,-19.531,-19.531,0.000
4469.000,-36.621,-29.785,-14.648,-27.832,0.000
4472.000,-35.156,-32.715,-16.602,-19.043,0.000
4476.000,-35.156,-34.180,-23.438,-16.113,0.000
4480.000,-31.738,-34.180,-19.043,-20.020,0.000
4484.000,-30.273,-29.297,-21.484,-22.461,0.000
4488.000,-28.809,-20.996,-30.762,-23.438,0.000
4492.000,-21.973,-14.160,-25.391,-20.020,0.000
4496.000,-17.578,-15.137,-17.578,-15.137,0.000
4500.000,-26.367,-22.949,-18.066,-20.508,0.000
4504.000,-20.996,-23.926,-21.973,-24.902,0.000
4508.000,-13.672,-20.996,-22.461,-13.672,0.000
4512.000,-21.484,-22.949,-24.902,-7.324,0.000
4515.000,-21.484,-29.297,-25.879,-12.207,0.000
4519.000,-12.207,-23.438,-24.414,-16.113,0.000
4523.000,-12.207,-23.438,-23.438,-11.230,0.000
4527.000,-12.695,-27.832,-26.855,-15.625,0.000
4531.000,-12.695,-24.414,-26.367,-18.555,0.000
4535.000,-18.555,-26.855,-23.926,-12.207,0.000
4539.000,-23.438,-23.438,-29.785,-11.719,0.000
4543.000,-32.227,-14.160,-28.320,-10.742,0.000
4547.000,-35.156,-19.043,-21.484,-20.996,0.000
4551.000,-25.879,-24.414,-25.391,-25.391,0.000
4555.000,-32.227,-26.367,-31.250,-26.367,0.000
4558.000,-41.992,-24.902,-30.273,-26.855,0.000
4562.000,-47.852,-25.879,-26.367,-20.020,0.000
4566.000,-47.852,-26.855,-27.832,-27.832,0.000
4570.000,-43.457,-22.461,-28.320,-28.320,0.000
4574.000,-48.828,-23.438,-27.344,-21.973,0.000
4578.000,-52.734,-37.109,-29.297,-35.645,0.000
4582.000,-49.805,-33.203,-33.691,-38.086,0.000
4586.000,-43.945,-27.344,-30.273,-37.109,0.000
4590.000,-45.410,-33.203,-29.785,-35.156,0.000
4594.000,-47.852,-33.691,-32.715,-33.691,0.000
4597.000,-42.480,-27.344,-31.250,-43.945,0.000
4601.000,-35.645,-22.949,-29.297,-36.621,0.000
4605.000,-37.598,-23.438,-20.996,-26.367,0.000
4609.000,-39.062,-18.066,-22.461,-26.855,0.000
4613.000,-32.715,-18.555,-26.855,-28.320,0.000
4617.000,-20.996,-16.602,-21.484,-32.227,0.000
4621.000,-10.254,-15.625,-19.043,-25.879,0.000
4625.000,2.441,-22.461,-20.996,-15.625,0.000
4629.000,11.230,-27.832,-30.762,-14.160,0.000
4633.000,-4.883,-25.391,-32.227,-23.926,0.000
4637.000,-23.438,-22.461,-25.879,-27.832,0.000
4640.000,-20.996,-26.367,-29.785,-23.438,0.000
4644.000,-32.715,-27.344,-29.785,-21.484,0.000
4648.000,-37.598,-25.879,-30.762,-31.250,0.000
4652.000,-29.785,-24.902,-34.668,-37.109,0.000
4656.000,-23.438,-27.832,-33.203,-36.621,0.000
4660.000,-30.273,-27.832,-32.715,-37.109,0.000
4664.000,-41.016,-26.855,-34.180,-43.457,0.000
4668.000,-41.504,-32.715,-33.691,-41.992,0.000
4672.000,-44.922,-36.621,-32.227,-28.809,0.000
4676.000,-51.758,-40.527,-31.250,-28.320,0.000
4680.000,-47.852,-34.180,-32.227,-24.414,0.000
4683.000,-41.504,-22.949,-31.250,-32.227,0.000
4687.000,-44.434,-23.926,-31.738,-36.133,0.000
4691.000,-42.480,-30.762,-30.762,-21.973,0.000
4695.000,-43.945,-32.715,-26.367,-19.043,0.000
4699.000,-41.992,-34.180,-24.902,-22.461,0.000
4703.000,-35.156,-36.133,-26.367,-23.438,0.000
4707.000,-40.039,-27.832,-28.809,-20.508,0.000
4711.000,-39.551,-24.902,-30.273,-10.254,0.000
4715.000,-24.902,-22.949,-28.809,-8.301,0.000
4719.000,-21.484,-25.391,-31.250,-18.066,0.000
4722.000,-20.020,-28.320,-30.273,-22.461,0.000
4726.000,-22.461,-20.996,-29.297,-18.555,0.000
4730.000,-29.785,-22.949,-27.832,-10.254,0.000
4734.000,-32.715,-28.809,-25.391,-20.996,0.000
4738.000,-31.738,-26.367,-23.438,-30.762,0.000
4742.000,-25.391,-20.996,-26.367,-15.137,0.000
4746.000,-21.484,-22.461,-29.785,-19.531,0.000
4750.000,-21.973,-24.902,-28.320,-41.992,0.000
4754.000,-29.297,-22.949,-29.297,-41.504,0.000
4758.000,-29.785,-21.484,-27.344,-32.227,0.000
4762.000,-36.621,-24.414,-28.320,-33.691,0.000
4765.000,-43.457,-22.949,-31.250,-40.039,0.000
4769.000,-43.457,-20.020,-30.273,-35.156,0.000
4773.000,-40.039,-26.855,-28.809,-29.297,0.000
4777.000,-35.645,-31.250,-28.809,-25.879,0.000
4781.000,-35.645,-26.367,-25.879,-36.621,0.000
4785.000,-40.039,-22.461,-26.855,-34.180,0.000
4789.000,-39.551,-25.879,-26.367,-18.066,0.000
4793.000,-33.691,-26.855,-23.926,-16.113,0.000
4797.000,-37.598,-26.855,-26.855,-17.578,0.000
4801.000,-36.133,-29.297,-26.855,-13.672,0.000
4805.000,-24.902,-28.809,-24.902,-12.695,0.000
4808.000,-31.250,-29.297,-27.344,-19.531,0.000
4812.000,-32.715,-32.227,-25.879,-23.926,0.000
4816.000,-25.391,-29.785,-27.344,-14.160,0.000
4820.000,-20.508,-30.762,-30.762,-11.719,0.000
4824.000,-28.809,-37.598,-28.320,-18.066,0.000
4828.000,-28.809,-35.156,-28.320,-20.996,0.000
4832.000,-28.320,-30.273,-27.344,-20.020,0.000
4836.000,-35.156,-27.344,-24.414,-16.602,0.000
4840.000,-34.668,-30.762,-23.438,-21.973,0.000
4844.000,-42.480,-35.156,-26.855,-32.715,0.000
4847.000,-42.480,-35.156,-31.738,-31.250,0.000
4851.000,-32.227,-31.738,-34.668,-25.391,0.000
4855.000,-34.668,-32.715,-32.227,-31.250,0.000
4859.000,-35.645,-28.320,-33.203,-31.250,0.000
4863.000,-27.344,-20.508,-31.738,-35.645,0.000
4867.000,-20.508,-20.508,-27.832,-35.645,0.000
4871.000,-23.438,-18.555,-29.297,-26.367,0.000
4875.000,-41.504,-23.438,-31.738,-25.391,0.000
4879.000,-42.480,-24.902,-27.832,-22.461,0.000
4883.000,-22.949,-18.555,-21.484,-14.648,0.000
4887.000,-30.762,-24.414,-21.973,-17.578,0.000
4890.000,-42.480,-28.809,-23.438,-16.602,0.000
4894.000,-35.156,-24.902,-25.879,-13.184,0.000
4898.000,-27.344,-22.461,-28.809,-22.461,0.000
4902.000,-18.555,-22.461,-27.832,-29.785,0.000
4906.000,-12.207,-21.973,-34.668,-27.344,0.000
4910.000,-16.602,-19.531,-25.391,-21.484,0.000
4914.000,-22.461,-21.484,-18.555,-16.602,0.000
4918.000,-17.090,-24.902,-23.438,-20.996,0.000
4922.000,-22.949,-25.391,-19.531,-17.578,0.000
4926.000,-40.039,-26.367,-17.090,-4.395,0.000
4930.000,-35.156,-18.555,-18.066,-4.883,0.000
4933.000,-31.738,-18.066,-18.066,-13.672,0.000
4937.000,-33.203,-24.414,-20.508,-19.531,0.000
4941.000,-30.762,-25.391,-27.832,-19.043,0.000
4945.000,-33.203,-23.926,-33.203,-29.785,0.000
4949.000,-29.297,-14.160,-27.344,-34.668,0.000
4953.000,-27.832,-15.137,-22.949,-33.203,0.000
4957.000,-30.762,-18.555,-25.879,-35.645,0.000
4961.000,-27.344,-18.555,-26.855,-33.691,0.000
4965.000,-29.785,-17.578,-26.855,-37.598,0.000
4969.000,-35.156,-16.113,-26.367,-37.109,0.000
4972.000,-39.551,-22.949,-28.320,-39.062,0.000
4976.000,-37.109,-25.391,-28.320,-42.480,0.000
4980.000,-40.039,-20.996,-24.414,-36.621,0.000
4984.000,-42.969,-16.113,-18.555,-27.832,0.000
4988.000,-39.551,-19.043,-22.461,-22.949,0.000
4992.000,-33.691,-20.020,-21.484,-18.555,0.000
4996.000,-25.391,-15.625,-20.020,-22.949,0.000
5000.000,-23.438,-18.555,-27.832,-34.180,0.000
5004.000,-33.203,-20.020,-27.832,-31.738,0.000
5008.000,-43.945,-26.855,-29.785,-25.391,0.000
5012.000,-38.574,-31.250,-28.320,-30.762,0.000
5015.000,-34.180,-25.879,-28.809,-40.527,0.000
5019.000,-46.875,-21.484,-34.180,-40.527,0.000
5023.000,-50.293,-21.973,-32.227,-30.762,0.000
5027.000,-61.035,-20.020,-31.738,-23.926,0.000
5031.000,-63.965,-21.973,-30.762,-36.621,0.000
5035.000,-49.316,-17.578,-29.297,-32.227,0.000
5039.000,-39.551,-14.160,-28.809,-22.461,0.000
5043.000,-40.527,-15.137,-27.344,-27.832,0.000
5047.000,-43.457,-20.996,-26.855,-32.715,0.000
5051.000,-39.062,-28.320,-32.227,-44.434,0.000
5055.000,-38.086,-21.484,-31.250,-41.016,0.000
5058.000,-37.109,-18.066,-28.320,-13.672,0.000
5062.000,-33.203,-19.531,-28.809,-17.578,0.000
5066.000,-41.992,-22.949,-31.250,-29.785,0.000
5070.000,-42.480,-22.949,-29.785,-32.715,0.000
5074.000,-31.738,-20.020,-28.809,-28.320,0.000
5078.000,-39.062,-22.461,-28.809,-15.625,0.000
5082.000,-47.363,-25.879,-32.227,-13.184,0.000
5086.000,-40.527,-25.391,-34.180,-17.090,0.000
5090.000,-24.414,-24.414,-31.738,-15.137,0.000
5094.000,-17.090,-22.949,-25.879,0.000,0.000
5097.000,-23.926,-24.414,-24.414,6.348,0.000
5101.000,-26.367,-26.855,-30.273,4.395,0.000
5105.000,-31.738,-23.926,-28.809,6.836,0.000
5109.000,-41.504,-28.809,-29.785,-4.883,0.000
5113.000,-29.297,-26.855,-28.320,-4.395,0.000
5117.000,-9.277,-13.672,-23.438,3.906,0.000
5121.000,-14.160,-12.695,-23.926,4.883,0.000
5125.000,-24.414,-19.531,-23.926,5.859,0.000
5129.000,-15.137,-17.090,-29.785,2.441,0.000
5133.000,-16.602,-13.672,-33.203,-5.859,0.000
5137.000,-34.668,-16.113,-33.203,-7.324,0.000
5140.000,-43.457,-20.020,-32.227,-5.859,0.000
5144.000,-34.668,-22.461,-35.156,-10.742,0.000
5148.000,-20.996,-17.090,-37.598,-7.812,0.000
5152.000,-25.391,-15.625,-36.621,-6.836,0.000
5156.000,-29.297,-19.043,-35.156,-11.719,0.000
5160.000,-23.438,-17.578,-34.180,-16.113,0.000
5164.000,-15.137,-17.578,-30.273,-21.973,0.000
5168.000,-22.949,-21.484,-27.344,-23.926,0.000
5172.000,-31.250,-19.043,-27.344,-10.742,0.000
5176.000,-35.156,-19.531,-28.809,1.953,0.000
5179.000,-38.574,-23.926,-25.879,-3.906,0.000
5183.000,-34.668,-25.879,-25.879,-11.719,0.000
5187.000,-35.156,-21.973,-29.297,-6.348,0.000
5191.000,-42.969,-23.926,-29.785,-3.906,0.000
5195.000,-44.922,-30.762,-27.344,-4.883,0.000
5199.000,-38.086,-30.762,-21.484,-17.578,0.000
5203.000,-37.109,-30.762,-23.926,-24.414,0.000
5207.000,-40.039,-30.762,-26.367,-14.160,0.000
5211.000,-36.133,-25.391,-23.926,-16.113,0.000
5215.000,-41.504,-22.949,-21.973,-16.602,0.000
5219.000,-45.410,-22.949,-25.879,-15.625,0.000
5222.000,-36.621,-31.738,-23.926,-18.555,0.000
5226.000,-30.273,-33.691,-20.020,-12.695,0.000
5230.000,-26.855,-27.832,-25.879,-11.719,0.000
5234.000,-23.926,-21.973,-28.809,-18.066,0.000
5238.000,-25.391,-16.113,-21.973,-11.230,0.000
5242.000,-29.297,-16.113,-19.043,-9.277,0.000
5246.000,-36.133,-17.578,-18.555,-16.602,0.000
5250.000,-44.922,-21.484,-16.113,-22.461,0.000
5254.000,-49.316,-24.414,-26.855,-18.066,0.000
5258.000,-45.410,-20.996,-30.762,-2.930,0.000
5262.000,-34.668,-22.461,-25.879,-1.953,0.000
5265.000,-33.203,-26.855,-21.484,-10.254,0.000
5269.000,-33.203,-21.973,-20.020,-9.277,0.000
5273.000,-22.949,-20.996,-25.879,-1.465,0.000
5277.000,-23.926,-22.461,-25.391,-7.324,0.000
5281.000,-13.184,-20.508,-24.414,-16.113,0.000
5285.000,-18.066,-19.531,-24.902,-13.672,0.000
5289.000,-45.898,-25.391,-27.344,-13.672,0.000
5293.000,-49.316,-27.344,-28.320,-17.578,0.000
5297.000,-39.062,-28.320,-25.391,-28.320,0.000
5301.000,-32.715,-29.297,-25.391,-24.414,0.000
5304.000,-28.809,-22.461,-26.367,-16.602,0.000
5308.000,-41.016,-20.996,-31.738,-23.926,0.000
5312.000,-52.734,-20.020,-33.203,-23.438,0.000
5316.000,-47.852,-23.926,-26.367,-17.578,0.000
5320.000,-49.805,-27.832,-28.809,-22.949,0.000
5324.000,-46.387,-21.484,-26.855,-21.973,0.000
5328.000,-33.203,-19.531,-19.531,-17.578,0.000
5332.000,-35.156,-16.602,-20.508,-20.508,0.000
5336.000,-46.387,-16.602,-22.949,-33.691,0.000
5340.000,-43.457,-18.066,-26.855,-29.785,0.000
5344.000,-42.480,-20.020,-29.785,-20.508,0.000
5347.000,-51.758,-19.043,-32.715,-33.203,0.000
5351.000,-45.410,-21.484,-36.621,-36.133,0.000
5355.000,-35.645,-24.414,-35.156,-22.461,0.000
5359.000,-41.992,-23.926,-33.691,-14.648,0.000
5363.000,-37.109,-22.949,-35.645,-16.602,0.000
5367.000,-34.668,-24.414,-34.668,-15.625,0.000
5371.000,-31.738,-25.391,-30.273,-8.789,0.000
5375.000,-28.809,-26.367,-31.250,-2.930,0.000
5379.000,-40.527,-27.344,-32.715,-4.883,0.000
5383.000,-39.062,-23.926,-27.344,-17.090,0.000
5387.000,-38.574,-26.855,-21.973,-15.625,0.000
5390.000,-30.273,-27.344,-24.414,-2.930,0.000
5394.000,-27.344,-19.531,-20.508,-0.488,0.000
5398.000,-38.574,-19.531,-23.926,-3.418,0.000
5402.000,-26.367,-22.461,-27.344,-5.859,0.000
5406.000,-16.602,-25.391,-26.855,-4.395,0.000
5410.000,-19.531,-25.391,-30.762,-4.883,0.000
5414.000,-16.602,-24.902,-29.785,-11.719,0.000
5418.000,-34.668,-28.320,-27.344,-16.113,0.000
5422.000,-45.898,-29.297,-28.320,-14.648,0.000
5426.000,-38.574,-30.273,-29.297,-5.859,0.000
5429.000,-32.715,-30.273,-24.414,-11.230,0.000
5433.000,-38.086,-28.809,-28.320,-25.879,0.000
5437.000,-37.598,-28.809,-31.250,-20.996,0.000
5441.000,-34.180,-29.785,-24.414,-18.066,0.000
5445.000,-39.551,-29.785,-24.902,-14.648,0.000
5449.000,-29.785,-30.762,-25.391,-11.719,0.000
5453.000,-28.320,-30.273,-22.949,-8.789,0.000
5457.000,-28.809,-28.320,-19.531,-7.324,0.000
5461.000,-30.273,-29.785,-19.531,-7.324,0.000
5465.000,-37.109,-31.250,-23.438,-10.742,0.000
5469.000,-34.668,-33.203,-27.344,-7.812,0.000
5472.000,-26.855,-28.809,-29.785,-3.906,0.000
5476.000,-24.414,-28.809,-29.785,-6.348,0.000
5480.000,-34.180,-31.738,-33.203,-6.348,0.000
5484.000,-29.297,-27.832,-35.645,-10.254,0.000
5488.000,-18.066,-32.227,-31.250,-4.883,0.000
5492.000,-29.785,-36.621,-30.273,1.465,0.000
5496.000,-40.527,-26.855,-35.156,-3.418,0.000
5500.000,-42.480,-22.949,-28.809,-5.859,0.000
5504.000,-30.762,-20.508,-23.438,-10.742,0.000
5508.000,-19.531,-20.020,-24.414,-0.977,0.000
5512.000,-26.367,-20.996,-28.809,7.812,0.000
5515.000,-27.344,-18.066,-30.273,-9.766,0.000
5519.000,-19.531,-15.625,-33.203,-21.973,0.000
5523.000,-31.250,-16.602,-33.691,-23.438,0.000
5527.000,-43.945,-24.414,-34.180,-18.555,0.000
5531.000,-36.133,-27.832,-36.621,-22.461,0.000
5535.000,-26.855,-22.461,-35.645,-30.762,0.000
5539.000,-22.949,-21.484,-34.180,-29.785,0.000
5543.000,-23.926,-23.926,-31.738,-30.273,0.000
5547.000,-35.645,-21.484,-27.344,-28.809,0.000
5551.000,-33.203,-18.555,-26.855,-20.020,0.000
5554.000,-20.996,-20.508,-32.715,-18.555,0.000
5558.000,-27.344,-22.949,-38.086,-19.531,0.000
5562.000,-22.461,-21.484,-38.574,-14.648,0.000
5566.000,-23.926,-22.461,-29.297,-11.230,0.000
5570.000,-23.926,-20.020,-29.297,-13.184,0.000
5574.000,-30.273,-18.066,-32.715,-21.484,0.000
5578.000,-52.246,-18.066,-29.297,-26.367,0.000
5582.000,-54.199,-18.066,-27.832,-26.367,0.000
5586.000,-47.852,-24.902,-30.273,-32.715,0.000
5590.000,-38.574,-26.855,-31.738,-41.016,0.000
5594.000,-32.715,-21.484,-25.391,-44.434,0.000
5597.000,-38.086,-19.043,-24.414,-41.992,0.000
5601.000,-42.969,-19.043,-27.344,-37.109,0.000
5605.000,-38.086,-15.625,-24.902,-38.574,0.000
5609.000,-31.250,-19.043,-22.461,-34.180,0.000
5613.000,-37.109,-22.461,-19.043,-30.273,0.000
5617.000,-46.387,-20.508,-13.184,-29.785,0.000
5621.000,-46.387,-21.973,-17.578,-29.785,0.000
5625.000,-39.551,-21.484,-21.973,-22.461,0.000
5629.000,-31.250,-18.555,-23.438,-20.508,0.000
5633.000,-30.273,-20.996,-28.320,-23.438,0.000
5637.000,-32.715,-24.902,-21.973,-19.531,0.000
5640.000,-40.527,-28.809,-19.043,-11.230,0.000
5644.000,-42.480,-32.227,-27.832,-16.602,0.000
5648.000,-25.391,-31.250,-31.250,-24.414,0.000
5652.000,-14.160,-25.879,-29.297,-20.508,0.000
5656.000,-29.785,-21.973,-26.855,-15.137,0.000
5660.000,-45.898,-21.484,-24.902,-4.395,0.000
5664.000,-44.922,-21.973,-27.832,-5.859,0.000
5668.000,-41.992,-33.691,-29.785,-12.695,0.000
5672.000,-40.039,-28.320,-28.809,-4.395,0.000
5676.000,-43.457,-16.602,-31.250,-11.230,0.000
5679.000,-41.992,-27.832,-26.855,-24.414,0.000
5683.000,-29.785,-28.809,-17.090,-22.461,0.000
5687.000,-29.785,-26.367,-16.113,-24.414,0.000
5691.000,-35.645,-22.949,-20.996,-19.531,0.000
5695.000,-34.180,-24.902,-23.438,-30.273,0.000
5699.000,-39.551,-35.156,-26.367,-46.875,0.000
5703.000,-47.852,-38.574,-29.785,-31.250,0.000
5707.000,-40.039,-32.227,-22.949,-9.766,0.000
5711.000,-34.668,-27.832,-24.414,-22.949,0.000
5715.000,-49.805,-28.809,-34.668,-34.180,0.000
5719.000,-52.734,-25.879,-28.320,-27.344,0.000
5722.000,-35.156,-21.484,-24.414,-27.344,0.000
5726.000,-28.809,-19.531,-23.926,-23.926,0.000
5730.000,-33.203,-26.367,-25.391,-21.973,0.000
5734.000,-36.133,-31.738,-28.809,-28.809,0.000
5738.000,-34.668,-33.203,-34.668,-29.297,0.000
5742.000,-26.367,-29.297,-36.133,-22.461,0.000
5746.000,-20.020,-25.879,-29.297,-27.344,0.000
5750.000,-25.879,-28.809,-29.297,-24.902,0.000
5754.000,-35.645,-32.227,-33.691,-18.555,0.000
5758.000,-28.320,-37.598,-31.738,-18.066,0.000
5762.000,-27.344,-30.762,-28.809,-24.902,0.000
5765.000,-27.344,-25.391,-28.320,-34.180,0.000
5769.000,-31.250,-29.785,-28.809,-34.668,0.000
5773.000,-51.758,-29.297,-30.273,-32.715,0.000
5777.000,-57.129,-23.926,-27.344,-34.668,0.000
5781.000,-56.152,-24.414,-29.297,-37.109,0.000
5785.000,-58.594,-24.902,-28.320,-28.320,0.000
5789.000,-50.781,-24.414,-26.367,-23.926,0.000
5793.000,-47.852,-30.762,-28.809,-31.738,0.000
5797.000,-45.898,-31.738,-34.180,-28.320,0.000
5801.000,-38.086,-30.762,-36.621,-34.668,0.000
5804.000,-38.574,-30.762,-31.250,-38.086,0.000
5808.000,-39.551,-28.320,-29.297,-28.320,0.000
5812.000,-37.598,-33.691,-30.273,-22.949,0.000
5816.000,-33.203,-31.738,-34.668,-18.555,0.000
5820.000,-25.879,-23.926,-35.645,-15.137,0.000
5824.000,-20.020,-32.227,-34.668,-14.648,0.000
5828.000,-17.090,-38.086,-34.180,-17.578,0.000
5832.000,-6.348,-20.996,-35.156,-16.602,0.000
5836.000,3.418,-14.160,-37.109,-16.113,0.000
5840.000,-10.254,-21.973,-31.738,-7.812,0.000
5844.000,-31.738,-25.879,-30.273,-13.672,0.000
5847.000,-32.227,-23.438,-36.133,-37.109,0.000
5851.000,-29.297,-31.738,-39.551,-43.457,0.000
5855.000,-33.691,-29.297,-33.203,-31.250,0.000
5859.000,-31.738,-22.949,-28.320,-27.344,0.000
5863.000,-23.926,-20.996,-27.344,-27.344,0.000
5867.000,-19.531,-19.531,-27.832,-30.762,0.000
5871.000,-17.578,-20.020,-28.809,-27.832,0.000
5875.000,-24.902,-17.578,-26.855,-18.066,0.000
5879.000,-41.016,-18.555,-27.832,-18.555,0.000
5883.000,-47.363,-22.949,-24.902,-21.484,0.000
5887.000,-46.875,-27.344,-18.066,-13.672,0.000
5890.000,-45.898,-28.809,-23.438,-19.531,0.000
5894.000,-33.691,-27.832,-21.973,-30.273,0.000
5898.000,-24.902,-20.996,-15.137,-26.367,0.000
5902.000,-23.926,-17.090,-15.137,-18.555,0.000
5906.000,-22.461,-18.555,-20.020,-17.090,0.000
5910.000,-27.832,-22.949,-26.855,-16.602,0.000
5914.000,-24.414,-21.484,-25.391,-11.230,0.000
5918.000,-20.020,-22.461,-21.973,-12.695,0.000
5922.000,-29.297,-27.344,-20.996,-11.230,0.000
5926.000,-39.551,-28.809,-22.949,-8.789,0.000
5929.000,-33.203,-24.902,-21.973,-16.602,0.000
5933.000,-28.809,-16.113,-20.996,-25.391,0.000
5937.000,-22.949,-20.508,-19.531,-26.367,0.000
5941.000,-16.602,-22.949,-15.625,-24.414,0.000
5945.000,-19.043,-22.461,-21.484,-18.066,0.000
5949.000,-26.367,-25.391,-26.367,-24.902,0.000
5953.000,-41.016,-26.367,-23.926,-38.574,0.000
5957.000,-48.340,-29.785,-22.949,-34.180,0.000
5961.000,-38.574,-22.461,-25.879,-12.207,0.000
5965.000,-30.762,-20.996,-32.227,-17.090,0.000
5969.000,-32.227,-26.367,-26.855,-27.832,0.000
5972.000,-37.109,-25.879,-22.461,-30.762,0.000
5976.000,-32.227,-20.020,-27.344,-27.344,0.000
5980.000,-27.344,-23.438,-29.297,-32.715,0.000
5984.000,-36.621,-24.902,-20.996,-34.180,0.000
5988.000,-35.645,-22.461,-20.996,-32.227,0.000
5992.000,-28.809,-23.438,-20.996,-24.414,0.000
5996.000,-22.949,-24.414,-16.602,-18.066,0.000
6000.000,-15.137,-29.785,-21.484,-28.809,0.000
6004.000,-27.344,-35.156,-23.926,-26.367,0.000
6008.000,-40.039,-35.645,-20.996,-11.719,0.000
6012.000,-21.484,-29.785,-16.602,-4.395,0.000
6015.000,-0.488,-15.625,-16.602,1.953,0.000
6019.000,10.254,-10.254,-16.113,9.277,0.000
6023.000,0.000,-19.043,-19.531,7.812,0.000
6027.000,-25.391,-25.391,-25.391,-4.395,0.000
6031.000,-16.113,-24.902,-22.949,-9.277,0.000
6035.000,-8.789,-19.531,-22.461,-16.113,0.000
6039.000,-26.367,-16.113,-25.879,-15.137,0.000
6043.000,-39.551,-15.625,-27.832,-17.090,0.000
6047.000,-31.250,-22.461,-28.320,-26.367,0.000
6051.000,-38.086,-27.832,-25.879,-25.391,0.000
6054.000,-41.992,-27.344,-26.855,-26.367,0.000
6058.000,-25.879,-28.809,-31.738,-26.855,0.000
6062.000,-25.879,-30.273,-33.691,-31.250,0.000
6066.000,-27.832,-31.738,-35.156,-35.156,0.000
6070.000,-37.109,-36.133,-33.203,-35.156,0.000
6074.000,-37.109,-32.715,-25.391,-32.715,0.000
6078.000,-23.926,-26.855,-26.367,-27.832,0.000
6082.000,-20.996,-24.414,-27.344,-23.438,0.000
6086.000,-13.184,-19.531,-28.320,-25.879,0.000
6090.000,4.883,-23.438,-28.320,-20.996,0.000
6094.000,-8.301,-28.320,-28.809,-10.254,0.000
6097.000,-22.461,-30.762,-28.809,-12.207,0.000
6101.000,-14.648,-30.273,-27.344,-17.090,0.000
6105.000,-35.645,-28.320,-28.809,-14.160,0.000
6109.000,-30.273,-29.785,-34.668,-5.859,0.000
6113.000,-14.648,-23.438,-35.645,-0.977,0.000
6117.000,-16.602,-19.043,-38.574,-9.277,0.000
6121.000,-18.555,-20.508,-41.016,-16.113,0.000
6125.000,-9.277,-18.066,-37.109,-19.043,0.000
6129.000,-19.043,-19.043,-33.691,-24.414,0.000
6133.000,-58.594,-25.879,-34.668,-28.320,0.000
6136.000,-57.129,-29.785,-36.133,-26.367,0.000
6140.000,-41.992,-27.344,-34.668,-15.137,0.000
6144.000,-49.805,-33.691,-34.180,-25.391,0.000
6148.000,-47.363,-32.227,-37.109,-42.480,0.000
6152.000,-41.992,-30.762,-34.668,-39.062,0.000
6156.000,-21.484,-27.832,-28.809,-31.250,0.000
6160.000,-9.277,-22.949,-27.832,-24.902,0.000
6164.000,-20.020,-24.902,-25.879,-24.902,0.000
6168.000,-72.266,-28.809,-20.996,-14.160,0.000
6172.000,-81.055,-27.344,-22.949,-13.184,0.000
6176.000,-58.594,-38.086,-24.902,-22.949,0.000
6179.000,-49.316,-43.945,-22.461,-27.344,0.000
6183.000,-30.273,-31.250,-21.484,-16.113,0.000
6187.000,-15.625,-31.738,-17.090,-1.465,0.000
6191.000,-7.812,-37.109,-20.996,-3.906,0.000
6195.000,-11.719,-36.133,-27.344,-4.883,0.000
6199.000,-26.855,-27.832,-26.367,-14.160,0.000
6203.000,-31.738,-23.438,-24.902,-19.043,0.000
6207.000,-26.367,-24.414,-23.438,-14.648,0.000
6211.000,-13.672,-23.438,-29.297,-22.461,0.000
6215.000,-12.207,-30.273,-26.855,-20.508,0.000
6219.000,-36.621,-33.691,-21.973,-25.879,0.000
6222.000,-47.852,-28.320,-21.973,-26.855,0.000
6226.000,-27.344,-20.996,-19.043,-14.648,0.000
6230.000,-20.996,-17.090,-19.043,-12.695,0.000
6234.000,-45.898,-19.043,-24.902,-17.090,0.000
6238.000,-51.758,-23.926,-23.438,-18.555,0.000
6242.000,-50.781,-31.738,-28.320,-22.461,0.000
6246.000,-63.477,-29.785,-33.203,-30.273,0.000
6250.000,-52.246,-25.391,-31.738,-37.109,0.000
6254.000,-25.879,-22.461,-30.273,-41.504,0.000
6258.000,-40.527,-19.043,-27.832,-29.785,0.000
6261.000,-50.293,-22.461,-26.855,-26.367,0.000
6265.000,-35.156,-19.043,-32.227,-37.598,0.000
6269.000,-27.344,-19.531,-35.645,-37.598,0.000
6273.000,-26.367,-21.484,-35.156,-25.879,0.000
6277.000,-41.016,-22.461,-36.133,-25.879,0.000
6281.000,-56.152,-20.996,-35.645,-41.504,0.000
6285.000,-39.551,-20.508,-32.227,-40.039,0.000
6289.000,-24.902,-21.973,-28.809,-34.668,0.000
6293.000,-37.598,-25.391,-27.344,-28.320,0.000
6297.000,-38.086,-21.973,-23.438,-22.461,0.000
6301.000,-35.645,-19.043,-29.297,-37.109,0.000
6304.000,-40.039,-20.996,-36.621,-38.086,0.000
6308.000,-55.664,-21.484,-32.227,-28.809,0.000
6312.000,-59.082,-15.137,-27.344,-32.227,0.000
6316.000,-58.105,-16.113,-27.344,-37.109,0.000
6320.000,-51.270,-24.414,-25.879,-38.574,0.000
6324.000,-43.945,-24.902,-28.320,-37.109,0.000
6328.000,-45.898,-22.461,-32.715,-40.527,0.000
6332.000,-46.875,-20.508,-33.203,-43.945,0.000
6336.000,-39.062,-20.508,-33.203,-34.668,0.000
6340.000,-49.316,-26.367,-29.785,-30.273,0.000
6344.000,-47.852,-26.855,-28.809,-27.344,0.000
6347.000,-36.621,-20.020,-28.320,-21.973,0.000
6351.000,-39.062,-23.438,-29.785,-17.578,0.000
6355.000,-30.762,-23.438,-34.668,-13.184,0.000
6359.000,-36.621,-23.438,-33.691,-15.137,0.000
6363.000,-39.062,-28.809,-26.855,-24.414,0.000
6367.000,-23.926,-23.438,-29.785,-18.555,0.000
6371.000,-23.926,-18.555,-30.762,-9.766,0.000
6375.000,-21.484,-27.832,-28.320,-7.812,0.000
6379.000,-10.254,-20.508,-27.832,-2.930,0.000
6383.000,-7.324,-14.648,-24.414,-5.371,0.000
6386.000,-23.926,-20.020,-23.926,-7.324,0.000
6390.000,-41.992,-20.020,-20.996,1.953,0.000
6394.000,-39.062,-15.137,-19.531,-5.859,0.000
6398.000,-30.762,-18.066,-20.996,-19.531,0.000
6402.000,-33.203,-26.367,-22.461,-17.578,0.000
6406.000,-35.645,-25.391,-26.855,-9.766,0.000
6410.000,-20.996,-19.043,-21.484,-7.324,0.000
6414.000,-19.531,-20.020,-23.926,-16.113,0.000
6418.000,-37.109,-27.344,-30.273,-26.855,0.000
6422.000,-50.781,-31.250,-25.391,-26.855,0.000
6426.000,-43.457,-33.691,-29.785,-25.879,0.000
6429.000,-44.922,-30.762,-38.086,-27.344,0.000
6433.000,-68.848,-28.809,-31.738,-31.738,0.000
6437.000,-56.641,-18.066,-22.949,-39.551,0.000
6441.000,-42.969,-16.113,-24.902,-43.945,0.000
6445.000,-39.551,-18.066,-27.344,-46.875,0.000
6449.000,-19.531,-15.625,-25.879,-47.852,0.000
6453.000,-5.859,-19.043,-31.738,-45.898,0.000
6457.000,-4.395,-15.625,-29.785,-30.762,0.000
6461.000,-9.766,-11.230,-27.832,-20.020,0.000
6465.000,-27.344,-17.090,-31.738,-21.973,0.000
6469.000,-31.738,-18.555,-34.180,-20.996,0.000
6472.000,-34.180,-25.879,-34.668,-20.020,0.000
6476.000,-35.645,-20.508,-32.227,-18.555,0.000
6480.000,-23.438,-14.160,-31.738,-17.090,0.000
6484.000,-23.926,-20.020,-31.250,-16.602,0.000
6488.000,-31.738,-24.902,-31.738,-19.043,0.000
6492.000,-34.180,-31.738,-35.156,-26.855,0.000
6496.000,-33.203,-27.832,-36.621,-26.855,0.000
6500.000,-52.734,-28.320,-33.691,-30.762,0.000
6504.000,-55.664,-33.203,-32.227,-32.227,0.000
6508.000,-41.504,-28.320,-31.738,-27.832,0.000
6511.000,-39.062,-23.926,-27.832,-23.438,0.000
6515.000,-43.457,-23.926,-25.879,-26.855,0.000
6519.000,-48.828,-28.320,-24.414,-25.391,0.000
6523.000,-46.875,-27.832,-23.926,-19.531,0.000
6527.000,-41.992,-23.926,-23.926,-21.484,0.000
6531.000,-33.691,-24.414,-22.461,-16.602,0.000
6535.000,-15.137,-21.973,-27.832,-15.625,0.000
6539.000,-5.371,-25.391,-37.109,-16.113,0.000
6543.000,-19.043,-29.785,-40.527,-8.789,0.000
6547.000,-16.602,-27.344,-31.250,-1.465,0.000
6551.000,-6.836,-20.996,-29.785,-11.719,0.000
6554.000,-15.625,-19.043,-33.203,-17.090,0.000
6558.000,-32.227,-21.484,-29.785,-11.230,0.000
6562.000,-42.480,-18.066,-25.879,-11.230,0.000
6566.000,-25.879,-20.508,-25.391,-15.137,0.000
6570.000,-10.254,-16.113,-30.273,-17.090,0.000
6574.000,-20.508,-15.137,-29.785,-19.531,0.000
6578.000,-36.621,-22.461,-24.414,-23.438,0.000
6582.000,-32.227,-24.414,-31.250,-29.297,0.000
6586.000,-31.738,-30.762,-31.738,-35.156,0.000
6590.000,-32.227,-32.715,-31.250,-31.738,0.000
6594.000,-25.879,-28.809,-37.598,-28.809,0.000
6597.000,-33.203,-28.320,-37.598,-32.227,0.000
6601.000,-27.832,-31.250,-39.062,-29.785,0.000
6605.000,-29.297,-26.367,-41.992,-29.785,0.000
6609.000,-40.527,-25.391,-43.457,-31.250,0.000
6613.000,-42.969,-27.344,-40.527,-23.926,0.000
6617.000,-39.062,-29.785,-32.227,-23.438,0.000
6621.000,-29.785,-39.062,-29.785,-26.367,0.000
6625.000,-22.949,-38.574,-33.203,-21.973,0.000
6629.000,-20.508,-35.156,-33.691,-19.531,0.000
6633.000,-28.320,-32.227,-33.203,-16.113,0.000
6636.000,-24.414,-27.344,-30.273,-9.766,0.000
6640.000,-25.391,-30.273,-26.367,-21.484,0.000
6644.000,-28.320,-31.250,-17.578,-19.043,0.000
6648.000,-11.719,-26.855,-10.254,-10.742,0.000
6652.000,-8.789,-24.414,-10.254,-14.160,0.000
6656.000,-23.438,-26.367,-11.230,-17.090,0.000
6660.000,-22.461,-34.668,-10.742,-17.578,0.000
6664.000,-17.578,-33.691,-14.160,-28.320,0.000
6668.000,-6.348,-19.531,-20.508,-39.551,0.000
6672.000,-4.395,-20.508,-21.484,-43.457,0.000
6676.000,-5.371,-26.367,-17.578,-44.922,0.000
6679.000,-9.277,-28.320,-19.043,-48.340,0.000
6683.000,-13.672,-28.809,-22.949,-52.246,0.000
6687.000,-28.320,-25.391,-21.973,-45.898,0.000
6691.000,-37.109,-23.438,-22.949,-33.691,0.000
6695.000,-20.508,-27.832,-22.949,-29.297,0.000
6699.000,-9.277,-27.832,-25.391,-23.926,0.000
6703.000,-9.277,-19.043,-27.832,-15.137,0.000
6707.000,-23.438,-16.602,-23.926,-11.230,0.000
6711.000,-32.715,-27.832,-25.391,-6.836,0.000
6715.000,-33.691,-29.297,-29.297,-9.766,0.000
6719.000,-38.574,-20.020,-26.367,-16.602,0.000
6722.000,-34.668,-18.066,-25.879,-13.184,0.000
6726.000,-32.715,-20.508,-26.855,-9.277,0.000
6730.000,-29.297,-21.484,-25.879,-12.207,0.000
6734.000,-35.156,-25.879,-33.691,-25.879,0.000
6738.000,-37.109,-25.879,-40.039,-31.738,0.000
6742.000,-30.762,-19.043,-32.715,-28.320,0.000
6746.000,-32.715,-23.438,-25.879,-35.645,0.000
6750.000,-25.391,-18.555,-23.926,-38.574,0.000
6754.000,-17.578,-10.742,-25.879,-32.715,0.000
6758.000,-49.805,-17.578,-24.414,-31.250,0.000
6761.000,-63.477,-18.555,-26.367,-36.621,0.000
6765.000,-42.969,-16.602,-30.762,-40.527,0.000
6769.000,-25.391,-21.484,-33.203,-46.387,0.000
6773.000,-20.508,-20.996,-32.715,-35.645,0.000
6777.000,-35.156,-20.020,-32.227,-26.855,0.000
6781.000,-33.203,-20.508,-32.715,-28.320,0.000
6785.000,-33.691,-20.508,-32.227,-27.832,0.000
6789.000,-41.992,-25.879,-34.180,-29.297,0.000
6793.000,-43.945,-27.344,-38.086,-30.273,0.000
6797.000,-36.621,-22.461,-35.156,-29.297,0.000
6801.000,-30.762,-20.508,-32.227,-31.738,0.000
6804.000,-27.344,-22.949,-34.668,-23.926,0.000
6808.000,-10.254,-15.625,-31.738,-12.207,0.000
6812.000,3.418,-13.184,-21.484,-9.766,0.000
6816.000,1.953,-15.625,-19.043,-15.137,0.000
6820.000,-10.254,-11.719,-21.484,-14.160,0.000
6824.000,-17.578,-17.090,-20.508,-4.883,0.000
6828.000,-3.418,-23.438,-23.438,-1.953,0.000
6832.000,-2.441,-22.461,-27.832,-6.836,0.000
6836.000,-8.301,-21.973,-32.227,-20.508,0.000
6840.000,-16.602,-19.531,-33.203,-17.578,0.000
6844.000,-36.133,-16.113,-29.297,-15.625,0.000
6847.000,-35.645,-20.508,-27.832,-23.926,0.000
6851.000,-29.785,-24.414,-24.902,-26.367,0.000
6855.000,-37.598,-22.949,-23.926,-21.973,0.000
6859.000,-34.668,-25.879,-24.414,-18.555,0.000
6863.000,-21.973,-28.809,-26.855,-27.832,0.000
6867.000,-9.766,-25.391,-25.391,-38.086,0.000
6871.000,-22.461,-25.879,-21.973,-33.691,0.000
6875.000,-46.387,-26.855,-24.414,-19.531,0.000
6879.000,-27.344,-16.602,-22.949,-13.184,0.000
6883.000,-13.184,-17.090,-19.531,-24.414,0.000
6886.000,-25.391,-25.391,-20.996,-27.832,0.000
6890.000,-47.852,-27.832,-27.832,-27.832,0.000
6894.000,-38.086,-19.043,-24.902,-16.602,0.000
6898.000,-18.555,-11.719,-20.996,-9.277,0.000
6902.000,-17.578,-17.578,-24.902,-13.184,0.000
6906.000,-30.273,-20.996,-23.926,-6.836,0.000
6910.000,-21.484,-20.508,-29.297,-11.719,0.000
6914.000,-11.719,-25.879,-28.320,-9.277,0.000
6918.000,-24.902,-22.461,-25.391,2.930,0.000
6922.000,-40.527,-12.207,-26.855,7.812,0.000
6926.000,-37.598,-20.020,-22.461,-0.977,0.000
6929.000,-23.438,-30.273,-24.414,-13.672,0.000
6933.000,-16.113,-28.320,-29.297,-35.156,0.000
6937.000,-12.695,-22.461,-27.832,-35.645,0.000
6941.000,-42.480,-24.414,-24.414,-34.668,0.000
6945.000,-67.871,-30.273,-27.832,-53.711,0.000
6949.000,-55.176,-22.949,-28.809,-63.965,0.000
6953.000,-35.156,-16.602,-24.414,-59.082,0.000
6957.000,-31.250,-17.090,-22.949,-62.012,0.000
6961.000,-50.293,-24.414,-22.949,-63.477,0.000
6965.000,-53.711,-27.344,-25.879,-60.059,0.000
6968.000,-49.805,-22.461,-31.250,-60.059,0.000
6972.000,-57.129,-28.320,-31.738,-54.199,0.000
6976.000,-67.383,-31.738,-29.297,-53.223,0.000
6980.000,-49.316,-23.438,-31.250,-53.223,0.000
6984.000,-23.438,-26.367,-31.250,-44.434,0.000
6988.000,-22.461,-30.273,-28.320,-35.645,0.000
6992.000,-47.852,-27.344,-25.391,-16.602,0.000
6996.000,-60.547,-29.785,-27.344,-10.742,0.000
7000.000,-48.340,-24.414,-34.180,-15.625,0.000
7004.000,-32.227,-19.531,-36.133,-9.766,0.000
7008.000,-17.578,-21.484,-30.762,0.977,0.000
7011.000,-15.625,-26.367,-28.809,4.883,0.000
7015.000,-20.020,-20.508,-26.367,-0.488,0.000
7019.000,-5.371,-10.254,-25.391,10.254,0.000
7023.000,-16.602,-17.578,-23.926,18.555,0.000
7027.000,-31.738,-24.414,-18.066,10.742,0.000
7031.000,-22.949,-16.113,-16.113,7.812,0.000
7035.000,-11.719,-13.672,-20.996,4.395,0.000
7039.000,-9.277,-23.926,-30.273,3.906,0.000
7043.000,-29.297,-27.344,-34.668,-0.488,0.000
7047.000,-41.504,-23.926,-27.344,-5.859,0.000
7051.000,-36.133,-24.902,-26.367,-11.719,0.000
7054.000,-37.109,-24.414,-29.785,-18.066,0.000
7058.000,-42.969,-24.902,-32.227,-12.695,0.000
7062.000,-39.062,-27.832,-32.227,-12.207,0.000
7066.000,-23.926,-21.973,-31.738,-20.996,0.000
7070.000,-20.508,-29.297,-30.762,-18.066,0.000
7074.000,-25.879,-40.527,-30.273,-10.742,0.000
7078.000,-28.320,-37.109,-31.250,-8.301,0.000
7082.000,-31.250,-31.250,-25.879,5.859,0.000
7086.000,-29.297,-33.203,-23.438,12.695,0.000
7090.000,-30.273,-38.574,-23.926,-1.953,0.000
7093.000,-26.367,-25.391,-18.555,3.906,0.000
7097.000,-30.762,-19.043,-20.020,12.207,0.000
7101.000,-35.156,-22.461,-25.391,4.395,0.000
7105.000,-20.996,-25.879,-29.297,-0.488,0.000
7109.000,-22.949,-30.273,-32.227,4.395,0.000
7113.000,-38.086,-30.762,-28.320,6.348,0.000
7117.000,-25.879,-27.344,-24.902,0.000,0.000
7121.000,-20.020,-24.902,-27.344,0.000,0.000
7125.000,-20.020,-19.531,-28.809,6.836,0.000
7129.000,-13.672,-24.902,-28.320,-4.395,0.000
7133.000,-12.695,-36.133,-31.738,-14.160,0.000
7136.000,-28.809,-24.902,-31.250,-7.324,0.000
7140.000,-33.203,-21.973,-29.297,-3.418,0.000
7144.000,-29.785,-28.320,-34.180,-8.301,0.000
7148.000,-33.691,-22.949,-31.250,-6.836,0.000
7152.000,-33.691,-20.996,-31.250,-5.859,0.000
7156.000,-41.016,-22.461,-40.527,-17.090,0.000
7160.000,-37.109,-21.484,-34.180,-14.648,0.000
7164.000,-30.762,-21.973,-31.738,-13.672,0.000
7168.000,-33.691,-17.578,-32.227,-17.090,0.000
7172.000,-34.180,-17.090,-31.250,-5.371,0.000
7176.000,-26.855,-27.832,-29.785,2.930,0.000
7179.000,-20.020,-32.227,-29.297,-6.836,0.000
7183.000,-33.691,-22.949,-29.785,-10.742,0.000
7187.000,-31.738,-15.137,-24.902,-7.812,0.000
7191.000,-23.438,-20.996,-28.809,-10.254,0.000
7195.000,-28.320,-28.320,-29.785,-9.277,0.000
7199.000,-21.973,-23.438,-29.785,-12.207,0.000
7203.000,-18.555,-26.855,-29.297,-12.695,0.000
7207.000,-25.879,-26.855,-25.879,-6.836,0.000
7211.000,-33.203,-24.414,-30.762,-7.324,0.000
7215.000,-30.273,-30.273,-33.203,-12.695,0.000
7218.000,-13.184,-29.785,-26.367,-22.461,0.000
7222.000,-12.695,-25.391,-22.949,-33.691,0.000
7226.000,-38.574,-32.227,-21.973,-43.457,0.000
7230.000,-49.316,-34.668,-21.973,-56.152,0.000
7234.000,-47.363,-32.715,-24.414,-62.012,0.000
7238.000,-51.758,-33.203,-22.949,-66.406,0.000
7242.000,-51.270,-31.738,-20.508,-76.172,0.000
7246.000,-49.805,-32.227,-25.879,-78.613,0.000
7250.000,-51.758,-34.180,-27.832,-72.266,0.000
7254.000,-49.805,-27.832,-22.949,-56.641,0.000
7258.000,-40.527,-30.273,-23.438,-50.781,0.000
7261.000,-37.109,-33.691,-30.273,-47.363,0.000
7265.000,-25.391,-25.879,-20.020,-31.738,0.000
7269.000,-16.602,-18.066,-16.113,-20.020,0.000
7273.000,-34.180,-22.461,-26.367,-10.254,0.000
7277.000,-41.016,-29.785,-28.809,-7.812,0.000
7281.000,-21.973,-24.902,-24.414,-8.301,0.000
7285.000,-7.812,-21.484,-21.973,-3.418,0.000
7289.000,-4.395,-28.320,-22.949,-3.418,0.000
7293.000,-1.953,-21.973,-24.414,-5.859,0.000
7297.000,-14.160,-19.531,-24.414,-12.695,0.000
7301.000,-33.203,-27.832,-24.414,-17.090,0.000
7304.000,-36.133,-26.855,-27.344,-9.766,0.000
7308.000,-39.551,-23.438,-27.832,-2.930,0.000
7312.000,-45.898,-25.391,-27.344,-5.371,0.000
7316.000,-43.457,-25.879,-30.273,-11.719,0.000
7320.000,-30.762,-21.484,-26.367,-11.230,0.000
7324.000,-27.344,-22.461,-23.926,-19.043,0.000
7328.000,-45.898,-20.996,-28.320,-18.555,0.000
7332.000,-50.781,-22.461,-29.297,-14.648,0.000
7336.000,-41.992,-25.879,-30.762,-18.555,0.000
7340.000,-26.367,-22.461,-30.273,-15.137,0.000
7343.000,-30.762,-30.273,-29.297,-18.555,0.000
7347.000,-49.805,-27.832,-27.832,-16.602,0.000
7351.000,-63.477,-21.973,-28.320,-9.277,0.000
7355.000,-63.965,-25.391,-31.250,-2.930,0.000
7359.000,-63.477,-27.832,-33.203,-13.184,0.000
7363.000,-62.012,-24.414,-33.203,-21.973,0.000
7367.000,-51.270,-27.832,-36.133,-21.484,0.000
7371.000,-46.875,-33.203,-38.574,-24.414,0.000
7375.000,-36.133,-26.367,-32.715,-14.648,0.000
7379.000,-27.832,-23.438,-31.250,-13.184,0.000
7383.000,-25.391,-30.762,-36.133,-26.367,0.000
7386.000,-20.996,-29.785,-36.133,-24.902,0.000
7390.000,-22.949,-25.879,-34.180,-17.578,0.000
7394.000,-24.414,-23.438,-36.133,-11.719,0.000
7398.000,-31.738,-27.344,-36.133,-15.625,0.000
7402.000,-39.062,-25.879,-36.133,-24.902,0.000
