timestamp,TP9,AF7,AF8,TP10,Right AUX
1673805015.397,7.324,-10.254,-26.367,1.465,0.000
1673805015.401,7.812,-4.883,-22.461,-5.859,0.000
1673805015.405,-4.883,-11.230,-22.461,-8.301,0.000
1673805015.409,-14.160,-21.484,-21.973,-1.465,0.000
1673805015.413,-23.926,-17.090,-22.461,0.977,0.000
1673805015.417,-21.484,-12.695,-22.461,-3.418,0.000
1673805015.421,-26.367,-20.508,-21.973,-3.418,0.000
1673805015.425,-32.227,-22.461,-28.809,1.953,0.000
1673805015.429,-28.320,-26.367,-33.203,-6.836,0.000
1673805015.433,-31.738,-28.320,-29.785,-19.043,0.000
1673805015.436,-21.973,-11.719,-24.902,-16.602,0.000
1673805015.440,-7.812,-9.766,-23.926,0.000,0.000
1673805015.444,-6.348,-18.555,-22.949,5.859,0.000
1673805015.448,2.441,-17.090,-14.160,5.371,0.000
1673805015.452,10.254,-10.254,-11.230,11.230,0.000
1673805015.456,-13.184,-11.719,-20.020,12.207,0.000
1673805015.460,-16.113,-14.160,-23.438,10.742,0.000
1673805015.464,2.441,-16.602,-21.973,9.277,0.000
1673805015.468,10.254,-21.484,-20.508,10.254,0.000
1673805015.472,14.160,-4.883,-20.996,10.254,0.000
1673805015.476,22.461,5.371,-14.648,19.531,0.000
1673805015.479,19.531,-6.348,-9.277,18.066,0.000
1673805015.483,9.277,-9.766,-13.184,9.277,0.000
1673805015.487,12.695,-13.672,-14.160,12.207,0.000
1673805015.491,-0.488,-17.090,-9.277,10.254,0.000
1673805015.495,-27.344,-24.414,-13.184,6.836,0.000
1673805015.499,-15.137,-26.855,-23.438,0.977,0.000
1673805015.503,-11.719,-18.066,-22.461,-4.395,0.000
1673805015.507,-15.625,-18.555,-18.066,-3.418,0.000
1673805015.511,-14.648,-20.020,-21.973,-4.395,0.000
1673805015.515,-14.648,-18.555,-22.461,-4.883,0.000
1673805015.518,12.207,-17.090,-21.973,-9.766,0.000
1673805015.522,9.277,-16.602,-25.879,-11.230,0.000
1673805015.526,-31.250,-17.090,-24.902,-1.953,0.000
1673805015.530,-32.715,-14.648,-21.973,0.000,0.000
1673805015.534,-39.551,-20.996,-23.926,-16.113,0.000
1673805015.538,-42.480,-27.344,-28.320,-26.367,0.000
1673805015.542,-33.691,-22.949,-23.438,-13.672,0.000
1673805015.546,-25.391,-17.578,-24.902,-16.113,0.000
1673805015.550,-21.484,-17.090,-29.297,-24.902,0.000
1673805015.554,-26.855,-26.367,-26.855,-27.832,0.000
1673805015.558,-26.855,-30.273,-24.902,-25.391,0.000
1673805015.561,-11.719,-28.320,-24.414,-14.648,0.000
1673805015.565,-8.301,-30.762,-23.926,-16.602,0.000
1673805015.569,-32.715,-24.414,-22.461,-23.926,0.000
1673805015.573,-44.434,-21.484,-21.484,-13.184,0.000
1673805015.577,-35.645,-25.879,-19.043,-1.465,0.000
1673805015.581,-37.109,-39.062,-21.484,-9.277,0.000
1673805015.585,-38.574,-33.691,-20.020,-6.348,0.000
1673805015.589,-21.973,-22.461,-20.020,-3.906,0.000
1673805015.593,-7.324,-27.832,-23.438,-8.789,0.000
1673805015.597,-2.441,-16.602,-19.531,-6.348,0.000
1673805015.601,-8.301,-8.789,-19.531,-3.418,0.000
1673805015.604,-10.742,-17.578,-18.555,2.441,0.000
1673805015.608,-10.254,-14.648,-13.672,7.324,0.000
1673805015.612,-8.789,-16.113,-15.137,-3.906,0.000
1673805015.616,1.953,-14.648,-17.090,-14.648,0.000
1673805015.620,13.672,-6.836,-18.555,-4.395,0.000
1673805015.624,7.812,-14.160,-18.555,-3.906,0.000
1673805015.628,-12.695,-16.113,-16.113,-10.254,0.000
1673805015.632,-1.465,-9.277,-14.160,-12.207,0.000
1673805015.636,0.000,-16.602,-19.531,-22.461,0.000
1673805015.640,-13.184,-32.715,-17.090,-24.902,0.000
1673805015.643,-15.137,-31.250,-15.137,-18.066,0.000
1673805015.647,-21.484,-14.648,-15.625,-17.090,0.000
1673805015.651,-20.508,-1.953,-8.789,-14.648,0.000
1673805015.655,-17.090,-1.953,-8.301,-16.113,0.000
1673805015.659,-22.949,-11.230,-12.695,-15.625,0.000
1673805015.663,-25.879,-18.066,-14.648,-6.348,0.000
1673805015.667,-24.902,-14.160,-11.719,-0.977,0.000
1673805015.671,-26.367,-8.301,-15.137,-2.441,0.000
1673805015.675,-17.090,-4.395,-16.113,9.277,0.000
1673805015.679,-4.395,-8.789,-18.066,16.602,0.000
1673805015.683,-4.883,-19.531,-18.555,20.508,0.000
1673805015.686,-14.160,-10.254,-19.043,20.020,0.000
1673805015.690,-14.648,0.977,-17.090,10.742,0.000
1673805015.694,-9.766,0.977,-15.137,13.672,0.000
1673805015.698,0.000,0.000,-13.184,13.672,0.000
1673805015.702,3.906,-1.465,-5.859,10.254,0.000
1673805015.706,-0.488,-7.324,-4.395,15.625,0.000
1673805015.710,-5.859,-9.766,-0.977,30.762,0.000
1673805015.714,-7.812,-10.742,-0.977,19.531,0.000
1673805015.718,-8.301,-11.719,-4.883,0.977,0.000
1673805015.722,-4.395,-8.789,-3.418,8.301,0.000
1673805015.726,2.930,-5.859,-3.418,15.137,0.000
1673805015.729,23.926,-5.371,-2.930,11.719,0.000
1673805015.733,36.621,-9.766,-5.859,8.789,0.000
1673805015.737,28.320,-11.719,-5.859,1.465,0.000
1673805015.741,2.930,-3.418,0.000,6.836,0.000
1673805015.745,-10.254,4.883,-1.465,10.742,0.000
1673805015.749,1.953,-1.465,-11.230,-7.324,0.000
1673805015.753,3.418,0.000,-12.207,-4.395,0.000
1673805015.757,1.953,2.441,-11.230,8.789,0.000
1673805015.761,5.371,-6.836,-18.066,4.395,0.000
1673805015.765,-1.465,-9.766,-19.531,-10.742,0.000
1673805015.768,-8.301,-8.789,-17.090,-19.043,0.000
1673805015.772,-24.414,-12.695,-14.648,-7.324,0.000
1673805015.776,-20.020,-12.207,-14.648,3.906,0.000
1673805015.780,-20.020,-17.578,-10.742,8.789,0.000
1673805015.784,-21.484,-24.902,-17.090,7.812,0.000
1673805015.788,-6.348,-11.230,-21.484,5.371,0.000
1673805015.792,0.000,-3.906,-18.555,6.836,0.000
1673805015.796,-12.695,-9.277,-22.949,1.465,0.000
1673805015.800,-20.996,-8.301,-27.344,-7.324,0.000
1673805015.804,-16.113,-12.207,-33.203,-18.066,0.000
1673805015.808,-18.066,-14.160,-33.691,-17.090,0.000
1673805015.811,-13.672,-6.836,-28.320,-1.953,0.000
1673805015.815,-6.836,-13.184,-24.414,-4.883,0.000
1673805015.819,-26.367,-23.438,-25.391,-19.043,0.000
1673805015.823,-21.484,-28.320,-24.902,-13.184,0.000
1673805015.827,-5.859,-21.973,-20.020,-1.465,0.000
1673805015.831,-9.766,-10.254,-17.578,0.977,0.000
1673805015.835,-16.602,-14.160,-21.973,-0.488,0.000
1673805015.839,-20.996,-20.996,-20.020,5.859,0.000
1673805015.843,-13.184,-18.555,-19.531,9.766,0.000
1673805015.847,-4.395,-16.113,-21.973,4.883,0.000
1673805015.851,10.742,-12.695,-20.508,-12.207,0.000
1673805015.854,28.320,-3.906,-17.090,-13.672,0.000
1673805015.858,27.344,-3.418,-14.160,7.812,0.000
1673805015.862,9.277,-10.254,-11.719,13.672,0.000
1673805015.866,-21.484,-15.625,-13.184,0.488,0.000
1673805015.870,-27.832,-17.090,-16.113,-0.488,0.000
1673805015.874,-14.648,-15.137,-11.719,5.371,0.000
1673805015.878,-9.277,-15.625,-10.742,0.977,0.000
1673805015.882,-3.906,-16.113,-10.742,1.953,0.000
1673805015.886,-0.488,-15.137,-10.254,-2.930,0.000
1673805015.890,-10.742,-10.742,-15.625,-6.348,0.000
1673805015.893,-17.090,-13.184,-22.461,-3.906,0.000
1673805015.897,-7.324,-23.926,-21.973,-12.695,0.000
1673805015.901,12.207,-25.879,-23.438,-17.578,0.000
1673805015.905,13.672,-20.996,-26.855,-7.324,0.000
1673805015.909,-17.090,-20.508,-24.414,-6.348,0.000
1673805015.913,-30.273,-10.742,-23.438,-8.789,0.000
1673805015.917,-25.391,-5.859,-23.926,-14.648,0.000
1673805015.921,-13.184,-10.742,-27.344,-15.625,0.000
1673805015.925,-12.207,-18.555,-33.691,-9.766,0.000
1673805015.929,-28.809,-16.113,-27.832,-13.672,0.000
1673805015.933,-29.297,-6.348,-16.602,-11.719,0.000
1673805015.936,-9.277,-4.883,-20.020,-8.301,0.000
1673805015.940,-2.930,-9.766,-19.531,-11.230,0.000
1673805015.944,-8.789,-6.836,-13.184,3.906,0.000
1673805015.948,-3.418,-4.395,-15.625,2.930,0.000
1673805015.952,8.789,-11.230,-18.066,-17.090,0.000
1673805015.956,10.254,-14.648,-17.578,-16.602,0.000
1673805015.960,1.953,-17.090,-19.043,3.418,0.000
1673805015.964,-18.066,-18.555,-17.578,5.371,0.000
1673805015.968,-33.203,-22.461,-18.555,-5.371,0.000
1673805015.972,-30.273,-20.508,-20.508,-2.441,0.000
1673805015.976,-23.438,-17.578,-20.996,-5.859,0.000
1673805015.979,-26.367,-26.367,-19.531,-4.883,0.000
1673805015.983,-15.625,-25.391,-20.996,-4.883,0.000
1673805015.987,-3.906,-25.879,-27.344,-15.137,0.000
1673805015.991,8.789,-27.344,-26.855,-8.789,0.000
1673805015.995,17.578,-19.043,-15.137,6.836,0.000
1673805015.999,-17.090,-23.438,-15.137,2.441,0.000
1673805016.003,-38.574,-26.855,-18.066,-4.883,0.000
1673805016.007,-20.996,-21.973,-12.207,3.906,0.000
1673805016.011,-28.809,-31.738,-10.742,10.742,0.000
1673805016.015,-42.969,-30.273,-14.160,10.254,0.000
1673805016.018,-23.926,-22.949,-15.137,5.371,0.000
1673805016.022,-10.254,-20.020,-20.020,3.906,0.000
1673805016.026,-10.254,-13.184,-24.902,4.883,0.000
1673805016.030,2.441,-14.160,-21.484,3.418,0.000
1673805016.034,11.230,-15.625,-21.973,-1.953,0.000
1673805016.038,3.906,-13.672,-21.973,4.395,0.000
1673805016.042,-7.812,-17.578,-21.484,11.230,0.000
1673805016.046,-19.043,-18.555,-25.879,-3.906,0.000
1673805016.050,-9.277,-13.184,-25.391,-20.508,0.000
1673805016.054,6.348,-10.742,-20.996,-22.461,0.000
1673805016.058,0.000,-17.578,-21.484,-20.508,0.000
1673805016.061,-25.879,-26.855,-26.367,-11.230,0.000
1673805016.065,-40.039,-22.461,-23.926,-7.812,0.000
1673805016.069,-35.156,-15.137,-19.531,-7.812,0.000
1673805016.073,-27.344,-18.555,-20.020,-5.371,0.000
1673805016.077,-20.020,-21.484,-21.484,-5.371,0.000
1673805016.081,-21.484,-21.973,-23.438,-3.906,0.000
1673805016.085,-14.160,-25.879,-26.855,-4.395,0.000
1673805016.089,-13.672,-31.250,-27.832,-14.648,0.000
1673805016.093,-16.602,-34.180,-26.367,-18.066,0.000
1673805016.097,-20.020,-29.297,-25.391,-11.230,0.000
1673805016.101,-19.531,-21.484,-24.902,-13.672,0.000
1673805016.104,-10.254,-17.578,-25.391,-16.602,0.000
1673805016.108,-3.418,-14.648,-24.902,-12.207,0.000
1673805016.112,-4.883,-18.555,-28.320,-6.836,0.000
1673805016.116,-19.043,-19.531,-26.367,-2.930,0.000
1673805016.120,-10.254,-13.672,-27.344,-11.230,0.000
1673805016.124,-4.883,-17.090,-25.879,-8.789,0.000
1673805016.128,-0.488,-19.043,-22.949,-1.465,0.000
1673805016.132,0.000,-15.625,-22.461,-2.930,0.000
1673805016.136,-1.953,-15.625,-24.414,-8.789,0.000
1673805016.140,-5.859,-17.578,-25.879,-1.953,0.000
1673805016.143,-18.066,-18.066,-23.438,8.789,0.000
1673805016.147,-30.762,-16.113,-20.996,-3.418,0.000
1673805016.151,-24.902,-18.066,-18.555,-13.184,0.000
1673805016.155,-12.207,-18.066,-17.090,-9.766,0.000
1673805016.159,-9.766,-12.695,-13.184,-5.371,0.000
1673805016.163,-3.418,-11.230,-12.695,-12.207,0.000
1673805016.167,3.418,-15.137,-17.578,-19.531,0.000
1673805016.171,-3.418,-27.344,-20.508,-16.602,0.000
1673805016.175,-12.695,-25.391,-22.949,-3.418,0.000
1673805016.179,-15.137,-19.531,-20.020,2.441,0.000
1673805016.183,2.930,-16.113,-17.578,-2.930,0.000
1673805016.186,17.578,-10.254,-17.090,-2.930,0.000
1673805016.190,12.207,-12.207,-16.602,5.371,0.000
1673805016.194,-12.207,-16.602,-17.090,11.230,0.000
1673805016.198,-38.574,-27.344,-18.066,15.137,0.000
1673805016.202,-24.414,-25.879,-14.648,14.648,0.000
1673805016.206,-7.324,-12.695,-9.277,15.137,0.000
1673805016.210,3.418,-9.766,-9.277,25.391,0.000
1673805016.214,3.418,-9.277,-12.207,23.926,0.000
1673805016.218,-1.465,-13.672,-11.230,11.230,0.000
1673805016.222,-3.906,-13.184,-9.277,12.207,0.000
1673805016.226,-14.648,-14.160,-15.137,7.812,0.000
1673805016.229,-3.906,-14.648,-20.996,5.371,0.000
1673805016.233,2.930,-8.789,-18.066,-1.465,0.000
1673805016.237,-7.324,-11.230,-16.602,-9.766,0.000
1673805016.241,-14.648,-11.719,-23.926,-12.207,0.000
1673805016.245,-7.324,-6.348,-27.832,-6.836,0.000
1673805016.249,-5.859,-9.766,-25.879,1.465,0.000
1673805016.253,-9.277,-15.625,-23.926,-1.953,0.000
1673805016.257,-7.812,-18.555,-19.531,-3.906,0.000
1673805016.261,-15.137,-17.090,-22.949,-4.883,0.000
1673805016.265,-12.207,-15.137,-27.344,-2.930,0.000
1673805016.268,-5.859,-20.996,-24.414,-15.137,0.000
1673805016.272,-13.672,-19.531,-27.344,-28.809,0.000
1673805016.276,-20.508,-19.531,-26.855,-21.484,0.000
1673805016.280,-9.766,-20.508,-26.855,-20.020,0.000
1673805016.284,6.348,-16.602,-31.250,-21.973,0.000
1673805016.288,-13.184,-20.996,-31.738,-20.508,0.000
1673805016.292,-58.594,-33.203,-28.320,-9.766,0.000
1673805016.296,-57.129,-31.250,-26.855,-4.883,0.000
1673805016.300,-32.227,-21.973,-29.785,-16.602,0.000
1673805016.304,-10.742,-23.438,-27.832,-26.855,0.000
1673805016.308,5.371,-29.297,-23.438,-19.043,0.000
1673805016.311,13.672,-20.996,-18.555,-12.207,0.000
1673805016.315,-6.836,-19.531,-18.555,-17.578,0.000
1673805016.319,-29.785,-21.973,-21.973,-12.695,0.000
1673805016.323,-25.879,-15.137,-19.043,5.371,0.000
1673805016.327,-23.926,-21.484,-21.973,3.418,0.000
1673805016.331,-24.414,-28.320,-24.414,-10.254,0.000
1673805016.335,-14.648,-24.902,-17.090,-1.953,0.000
1673805016.339,-2.441,-20.508,-18.066,10.742,0.000
1673805016.343,-4.395,-18.555,-20.996,11.230,0.000
1673805016.347,-2.441,-19.043,-22.949,-6.348,0.000
1673805016.351,2.930,-17.090,-22.461,-14.648,0.000
1673805016.354,8.789,-16.602,-17.578,-10.254,0.000
1673805016.358,4.395,-14.160,-17.090,-4.883,0.000
1673805016.362,-2.930,-15.625,-19.043,-2.441,0.000
1673805016.366,5.859,-12.207,-12.207,0.488,0.000
1673805016.370,10.254,-8.301,-9.277,0.488,0.000
1673805016.374,21.484,-9.277,-11.230,-2.441,0.000
1673805016.378,8.301,-11.230,-10.742,-1.465,0.000
1673805016.382,-14.648,-7.812,-9.766,6.836,0.000
1673805016.386,-7.324,-11.230,-11.719,-2.930,0.000
1673805016.390,3.418,-14.160,-13.672,-9.766,0.000
1673805016.393,17.090,-13.184,-12.695,0.977,0.000
1673805016.397,28.809,-10.254,-12.695,4.883,0.000
1673805016.401,8.301,-6.836,-14.648,3.418,0.000
1673805016.405,-26.855,-12.695,-14.648,15.137,0.000
1673805016.409,-23.926,-7.812,-14.648,23.438,0.000
1673805016.413,-18.555,-1.953,-13.672,19.043,0.000
1673805016.417,-9.766,-7.812,-16.602,12.207,0.000
1673805016.421,-13.672,-13.184,-15.625,23.438,0.000
1673805016.425,-20.508,-13.672,-14.160,29.297,0.000
1673805016.429,-3.418,-14.160,-14.648,12.207,0.000
1673805016.433,9.277,-13.184,-17.090,-10.254,0.000
1673805016.436,16.602,-5.859,-21.484,-18.555,0.000
1673805016.440,14.648,-3.418,-19.043,-9.766,0.000
1673805016.444,5.371,-8.301,-14.160,6.348,0.000
1673805016.448,-14.648,-10.254,-16.602,5.859,0.000
1673805016.452,-26.367,-7.324,-21.973,-6.836,0.000
1673805016.456,1.465,-10.254,-20.996,-1.953,0.000
1673805016.460,2.441,-17.090,-20.508,-2.441,0.000
1673805016.464,-17.090,-14.648,-28.320,-14.648,0.000
1673805016.468,-13.184,-6.348,-28.320,-16.602,0.000
1673805016.472,-2.441,-4.883,-21.484,-10.742,0.000
1673805016.476,-12.207,-9.277,-23.926,0.488,0.000
1673805016.479,-11.230,-8.789,-27.344,-3.906,0.000
1673805016.483,-3.418,-12.207,-25.391,-14.160,0.000
1673805016.487,-13.184,-15.137,-23.438,-15.625,0.000
1673805016.491,-22.949,-19.043,-27.344,-19.531,0.000
1673805016.495,-29.297,-27.344,-26.855,-10.742,0.000
1673805016.499,-21.484,-24.414,-24.902,-6.348,0.000
1673805016.503,-21.973,-19.531,-25.391,-12.207,0.000
1673805016.507,-16.113,-16.602,-23.438,0.000,0.000
1673805016.511,-3.906,-13.672,-20.996,9.277,0.000
1673805016.515,-6.836,-17.578,-18.555,2.441,0.000
1673805016.518,4.395,-20.996,-11.719,0.977,0.000
1673805016.522,-9.277,-23.438,-16.602,-1.953,0.000
1673805016.526,-27.832,-23.438,-21.973,-1.953,0.000
1673805016.530,-18.555,-30.762,-20.996,-0.488,0.000
1673805016.534,-13.184,-26.855,-14.648,-0.488,0.000
1673805016.538,-4.883,-16.113,-12.207,-2.441,0.000
1673805016.542,-9.766,-20.996,-16.113,-12.695,0.000
1673805016.546,-20.508,-13.672,-14.648,-12.695,0.000
1673805016.550,-18.555,-6.348,-14.648,-7.324,0.000
1673805016.554,-18.066,-13.184,-16.113,1.465,0.000
1673805016.558,-19.043,-17.090,-18.066,5.371,0.000
1673805016.561,-21.973,-15.137,-18.555,4.883,0.000
1673805016.565,-14.160,-16.602,-20.020,2.930,0.000
1673805016.569,-16.113,-18.066,-21.484,-6.348,0.000
1673805016.573,-22.461,-14.648,-14.648,1.465,0.000
1673805016.577,-22.949,-10.254,-15.625,12.207,0.000
1673805016.581,-19.043,-10.254,-17.578,5.859,0.000
1673805016.585,-7.812,-14.160,-14.648,-10.742,0.000
1673805016.589,-1.953,-11.230,-15.625,-12.695,0.000
1673805016.593,-0.488,-7.324,-17.090,-2.930,0.000
1673805016.597,-0.977,-20.508,-17.090,0.977,0.000
1673805016.601,1.953,-22.949,-18.555,4.395,0.000
1673805016.604,-3.418,-26.367,-17.090,6.348,0.000
1673805016.608,-14.160,-30.273,-20.508,0.000,0.000
1673805016.612,-18.066,-17.578,-21.973,-7.812,0.000
1673805016.616,-19.043,-16.602,-20.508,-9.277,0.000
1673805016.620,-8.789,-13.184,-22.461,-8.789,0.000
1673805016.624,-5.859,-8.301,-25.879,-4.395,0.000
1673805016.628,3.906,-5.371,-24.414,0.000,0.000
1673805016.632,15.625,-3.418,-17.090,-0.977,0.000
1673805016.636,8.301,-12.695,-15.625,-2.930,0.000
1673805016.640,-8.301,-23.438,-18.555,-1.953,0.000
1673805016.643,-3.906,-11.230,-15.625,4.395,0.000
1673805016.647,5.859,0.977,-15.137,6.836,0.000
1673805016.651,-2.441,-0.977,-20.508,-6.836,0.000
1673805016.655,-7.812,-5.859,-17.578,3.906,0.000
1673805016.659,0.977,-6.836,-15.137,9.277,0.000
1673805016.663,11.230,-7.324,-7.812,2.441,0.000
1673805016.667,-2.930,-9.277,-6.836,-0.977,0.000
1673805016.671,-10.742,-8.789,-12.207,2.441,0.000
1673805016.675,-5.859,-10.254,-20.020,4.883,0.000
1673805016.679,-19.043,-15.137,-23.438,0.977,0.000
1673805016.683,-21.484,-13.672,-14.648,-3.906,0.000
1673805016.686,-18.555,-11.719,-12.207,-6.836,0.000
1673805016.690,-12.207,-7.324,-15.137,0.000,0.000
1673805016.694,8.789,-2.930,-15.137,2.441,0.000
1673805016.698,11.719,-2.441,-9.277,5.371,0.000
1673805016.702,2.930,-2.930,-0.488,14.648,0.000
1673805016.706,-13.184,-4.883,-5.371,15.137,0.000
1673805016.710,-13.672,-5.859,-10.254,17.578,0.000
1673805016.714,-4.395,-7.324,-9.277,6.836,0.000
1673805016.718,-6.836,-8.789,-17.090,-10.742,0.000
1673805016.722,-4.883,-12.695,-27.344,-11.719,0.000
1673805016.726,-6.836,-16.113,-26.367,-13.184,0.000
1673805016.729,-15.137,-18.066,-20.508,-14.648,0.000
1673805016.733,-16.113,-21.484,-26.367,-12.207,0.000
1673805016.737,-16.602,-27.832,-25.879,-20.020,0.000
1673805016.741,-2.441,-25.879,-23.438,-18.555,0.000
1673805016.745,-2.930,-20.996,-31.250,-12.695,0.000
1673805016.749,-11.230,-24.414,-34.180,-20.508,0.000
1673805016.753,-13.672,-30.762,-24.902,-28.320,0.000
1673805016.757,-27.832,-26.367,-20.996,-27.344,0.000
1673805016.761,-40.527,-19.043,-22.461,-19.043,0.000
1673805016.765,-32.227,-17.090,-20.996,-13.184,0.000
1673805016.768,-24.902,-20.996,-20.020,-18.555,0.000
1673805016.772,-25.879,-26.855,-20.996,-25.391,0.000
1673805016.776,-28.809,-25.391,-16.113,-12.695,0.000
1673805016.780,-39.062,-25.391,-12.207,-5.859,0.000
1673805016.784,-31.250,-27.344,-14.160,-16.113,0.000
1673805016.788,-40.527,-32.715,-20.020,-16.602,0.000
1673805016.792,-54.688,-35.156,-22.461,-14.160,0.000
1673805016.796,-31.738,-25.879,-22.461,-22.949,0.000
1673805016.800,-16.113,-20.996,-23.438,-28.320,0.000
1673805016.804,-14.160,-21.973,-24.414,-19.043,0.000
1673805016.808,-15.625,-20.996,-26.855,-12.207,0.000
1673805016.811,-23.926,-24.902,-30.273,-15.625,0.000
1673805016.815,-26.855,-28.809,-32.227,-11.230,0.000
1673805016.819,-12.695,-22.949,-29.297,-14.648,0.000
1673805016.823,-12.207,-23.438,-25.391,-17.578,0.000
1673805016.827,-23.438,-24.902,-25.391,-14.160,0.000
1673805016.831,-7.324,-19.531,-22.461,-15.137,0.000
1673805016.835,6.836,-25.879,-19.043,-11.230,0.000
1673805016.839,3.418,-32.715,-22.461,-10.254,0.000
1673805016.843,-13.184,-34.668,-21.484,-8.789,0.000
1673805016.847,-13.672,-28.809,-24.414,-7.812,0.000
1673805016.851,2.441,-17.578,-23.926,-12.695,0.000
1673805016.854,-13.184,-16.602,-21.973,-1.465,0.000
1673805016.858,-28.320,-21.973,-26.367,1.465,0.000
1673805016.862,-33.691,-30.273,-21.484,-5.859,0.000
1673805016.866,-33.691,-33.203,-13.672,-5.859,0.000
1673805016.870,-28.809,-34.668,-19.531,-9.766,0.000
1673805016.874,-22.949,-30.273,-19.531,0.488,0.000
1673805016.878,-16.113,-20.020,-16.602,10.742,0.000
1673805016.882,-11.230,-12.207,-12.207,10.742,0.000
1673805016.886,-0.977,-12.695,-8.789,1.465,0.000
1673805016.890,0.977,-15.137,-21.484,-9.277,0.000
1673805016.893,0.000,-13.672,-26.367,-1.953,0.000
1673805016.897,-1.465,-14.648,-23.926,8.789,0.000
1673805016.901,2.441,-14.648,-25.879,2.930,0.000
1673805016.905,6.836,-21.973,-25.879,1.465,0.000
1673805016.909,-5.859,-26.855,-21.484,8.789,0.000
1673805016.913,-19.531,-19.531,-18.555,6.348,0.000
1673805016.917,-12.207,-22.461,-17.578,-3.418,0.000
1673805016.921,-5.371,-28.809,-18.066,-2.930,0.000
1673805016.925,-12.207,-19.531,-17.578,-4.883,0.000
1673805016.929,-6.836,-6.348,-18.555,-6.836,0.000
1673805016.933,9.766,-6.348,-25.879,-11.719,0.000
1673805016.936,20.020,-5.371,-27.344,-18.066,0.000
1673805016.940,16.113,-12.695,-24.902,-19.043,0.000
1673805016.944,18.066,-18.066,-21.484,-21.484,0.000
1673805016.948,-0.977,-15.625,-19.531,-10.254,0.000
1673805016.952,-10.742,-20.996,-20.020,-4.883,0.000
1673805016.956,-7.324,-15.625,-18.555,0.488,0.000
1673805016.960,-28.320,-13.184,-15.625,9.766,0.000
1673805016.964,-16.113,-18.066,-19.043,2.441,0.000
1673805016.968,-4.883,-11.230,-23.438,-0.977,0.000
1673805016.972,-5.371,-7.812,-24.414,1.465,0.000
1673805016.976,2.930,-11.719,-18.555,8.301,0.000
1673805016.979,-7.812,-18.066,-17.090,13.672,0.000
1673805016.983,-15.137,-13.672,-19.043,0.488,0.000
1673805016.987,-20.508,-13.672,-25.391,-2.441,0.000
1673805016.991,-14.160,-13.672,-24.902,6.836,0.000
1673805016.995,3.906,-6.348,-19.531,3.418,0.000
1673805016.999,-8.789,-9.766,-17.578,-2.930,0.000
1673805017.003,-20.020,-12.207,-17.578,-4.395,0.000
1673805017.007,-13.184,-10.742,-18.066,1.953,0.000
1673805017.011,-12.695,-21.484,-17.090,8.789,0.000
1673805017.015,-11.719,-20.508,-18.066,6.836,0.000
1673805017.018,-1.465,-9.277,-19.043,-6.836,0.000
1673805017.022,-7.812,-10.742,-22.461,-13.184,0.000
1673805017.026,-23.926,-11.719,-25.879,-6.836,0.000
1673805017.030,-14.160,-10.742,-24.902,-11.719,0.000
1673805017.034,-25.879,-14.648,-20.996,-26.367,0.000
1673805017.038,-27.832,-20.020,-19.043,-30.762,0.000
1673805017.042,-0.488,-15.625,-20.996,-26.855,0.000
1673805017.046,6.348,-17.090,-25.879,-21.484,0.000
1673805017.050,-0.977,-25.879,-28.320,-16.602,0.000
1673805017.054,-8.789,-23.926,-32.227,-15.137,0.000
1673805017.058,-30.762,-23.926,-32.715,-9.277,0.000
1673805017.061,-42.969,-26.367,-28.320,-2.441,0.000
1673805017.065,-13.184,-22.461,-28.809,-7.324,0.000
1673805017.069,10.742,-19.043,-29.297,-11.230,0.000
1673805017.073,6.348,-20.996,-21.484,2.441,0.000
1673805017.077,-21.973,-19.043,-20.508,6.348,0.000
1673805017.081,-49.316,-20.020,-27.832,-7.324,0.000
1673805017.085,-50.781,-24.902,-26.367,-10.742,0.000
1673805017.089,-43.457,-23.438,-29.297,1.953,0.000
1673805017.093,-20.508,-22.461,-30.273,12.695,0.000
1673805017.097,-9.277,-23.926,-26.367,9.277,0.000
1673805017.101,-8.789,-19.531,-24.414,3.906,0.000
1673805017.104,1.953,-13.672,-17.090,4.395,0.000
1673805017.108,-6.348,-22.461,-15.625,-0.977,0.000
1673805017.112,-16.113,-24.414,-18.555,-5.859,0.000
1673805017.116,-8.301,-13.672,-17.090,-3.418,0.000
1673805017.120,-4.883,-3.906,-14.160,3.418,0.000
1673805017.124,2.441,-9.277,-15.137,-4.883,0.000
1673805017.128,11.719,-16.602,-26.855,-17.578,0.000
1673805017.132,10.742,-13.184,-26.855,-12.695,0.000
1673805017.136,-5.371,-16.602,-17.090,-12.695,0.000
1673805017.140,-17.090,-14.160,-19.531,-26.367,0.000
1673805017.143,0.000,-14.648,-17.578,-18.066,0.000
1673805017.147,20.996,-15.625,-11.230,-5.371,0.000
1673805017.151,21.973,-8.789,-8.301,-0.977,0.000
1673805017.155,5.371,-6.836,-11.719,6.348,0.000
1673805017.159,-8.789,-5.859,-13.672,17.090,0.000
1673805017.163,-10.742,-8.301,-8.789,20.508,0.000
1673805017.167,-13.184,-7.324,-4.395,20.996,0.000
1673805017.171,-11.719,-11.230,-10.742,19.043,0.000
1673805017.175,-6.348,-20.508,-9.766,20.020,0.000
1673805017.179,-6.836,-17.090,-1.953,28.809,0.000
1673805017.183,0.000,-10.254,-9.277,22.949,0.000
1673805017.186,12.695,-7.812,-19.531,9.766,0.000
1673805017.190,8.789,-8.301,-15.625,17.090,0.000
1673805017.194,2.930,-9.766,-5.859,24.902,0.000
1673805017.198,0.488,-8.789,-5.371,8.301,0.000
1673805017.202,-2.441,-9.277,-11.719,-0.977,0.000
1673805017.206,0.000,-7.812,-12.695,14.160,0.000
1673805017.210,0.977,0.977,-7.324,25.879,0.000
1673805017.214,2.930,-7.812,-15.137,19.531,0.000
1673805017.218,7.812,-15.137,-19.043,7.812,0.000
1673805017.222,14.160,-1.465,-15.137,-1.953,0.000
1673805017.226,9.766,3.906,-13.184,-3.418,0.000
1673805017.229,-25.879,-4.883,-13.672,-4.883,0.000
1673805017.233,-27.832,-11.230,-14.160,-5.371,0.000
1673805017.237,-4.883,-12.207,-11.719,-7.324,0.000
1673805017.241,10.742,-6.836,-11.230,-10.742,0.000
1673805017.245,13.184,-5.859,-14.160,-9.766,0.000
1673805017.249,-0.977,-14.648,-17.090,-15.625,0.000
1673805017.253,8.301,-13.184,-17.578,-15.137,0.000
1673805017.257,-2.930,-12.207,-13.184,0.000,0.000
1673805017.261,-35.645,-19.531,-13.672,0.977,0.000
1673805017.265,-29.297,-20.020,-11.230,-0.977,0.000
1673805017.268,-23.926,-15.625,-7.324,0.000,0.000
1673805017.272,-17.090,-17.578,-12.207,-2.930,0.000
1673805017.276,-11.719,-19.531,-19.043,-7.812,0.000
1673805017.280,-1.465,-16.113,-17.578,0.977,0.000
1673805017.284,10.742,-4.395,-15.625,5.371,0.000
1673805017.288,6.348,-6.348,-20.020,-2.441,0.000
1673805017.292,7.812,-18.066,-18.555,-2.930,0.000
1673805017.296,8.789,-17.090,-11.719,12.695,0.000
1673805017.300,-6.348,-12.695,-10.254,10.254,0.000
1673805017.304,-9.766,-15.137,-17.090,-14.648,0.000
1673805017.308,-1.953,-20.996,-15.625,-11.719,0.000
1673805017.311,-11.230,-18.555,-18.555,-3.906,0.000
1673805017.315,-13.184,-13.184,-23.926,-2.930,0.000
1673805017.319,-18.066,-10.254,-16.602,4.395,0.000
1673805017.323,-22.949,-12.695,-14.160,5.371,0.000
1673805017.327,-6.836,-17.090,-16.113,-6.348,0.000
1673805017.331,-15.625,-20.020,-18.066,-4.395,0.000
1673805017.335,-34.668,-17.578,-18.066,-4.395,0.000
1673805017.339,-6.348,-12.695,-14.160,-10.742,0.000
1673805017.343,-1.465,-13.672,-11.719,-8.301,0.000
1673805017.347,-21.484,-13.184,-11.230,-0.977,0.000
1673805017.350,-15.137,-19.043,-13.184,-4.395,0.000
1673805017.354,-2.930,-16.602,-9.766,-7.812,0.000
1673805017.358,1.953,-20.020,-10.742,-3.418,0.000
1673805017.362,5.371,-28.320,-21.973,-5.859,0.000
1673805017.366,5.859,-19.043,-26.367,-14.648,0.000
1673805017.370,-7.812,-16.602,-16.602,-16.113,0.000
1673805017.374,-5.859,-16.113,-7.812,-8.789,0.000
1673805017.378,-6.836,-15.137,-11.719,-5.859,0.000
1673805017.382,-15.137,-18.555,-18.555,-11.230,0.000
1673805017.386,-16.602,-19.043,-18.555,-6.348,0.000
1673805017.390,-20.996,-22.949,-17.090,7.324,0.000
1673805017.393,-19.043,-18.555,-22.949,5.371,0.000
1673805017.397,-18.066,-14.160,-23.926,-3.906,0.000
1673805017.401,-22.461,-16.113,-18.555,-11.719,0.000
1673805017.405,-24.414,-17.578,-17.090,-13.184,0.000
1673805017.409,-16.602,-18.555,-14.648,-10.254,0.000
1673805017.413,-16.113,-22.461,-16.602,-12.695,0.000
1673805017.417,-25.879,-20.996,-17.578,-2.930,0.000
1673805017.421,-20.020,-19.531,-15.625,9.766,0.000
1673805017.425,-22.461,-20.508,-19.043,19.043,0.000
1673805017.429,-27.344,-20.508,-15.137,20.508,0.000
1673805017.433,-21.484,-23.438,-13.184,-0.977,0.000
1673805017.436,-12.207,-21.973,-19.043,-10.742,0.000
1673805017.440,0.488,-16.602,-25.391,-3.418,0.000
1673805017.444,9.766,-18.555,-27.344,-8.301,0.000
1673805017.448,12.207,-20.508,-24.902,-10.254,0.000
1673805017.452,1.465,-21.484,-25.879,-11.719,0.000
1673805017.456,-10.742,-20.996,-26.855,-4.883,0.000
1673805017.460,-27.344,-20.020,-28.320,6.836,0.000
1673805017.464,-17.578,-16.602,-26.855,4.883,0.000
1673805017.468,-9.766,-15.137,-28.320,-5.371,0.000
1673805017.472,-15.137,-19.043,-23.438,-2.930,0.000
1673805017.476,-7.812,-23.438,-20.996,7.812,0.000
1673805017.479,-4.395,-27.832,-20.996,5.859,0.000
1673805017.483,-12.695,-24.414,-23.926,-2.441,0.000
1673805017.487,-6.836,-5.859,-20.508,2.441,0.000
1673805017.491,-1.953,-3.906,-15.625,7.324,0.000
1673805017.495,0.488,-13.672,-21.484,10.254,0.000
1673805017.499,8.301,-15.137,-24.414,4.883,0.000
1673805017.503,9.277,-20.508,-23.926,2.441,0.000
1673805017.507,-13.672,-20.020,-20.020,14.160,0.000
1673805017.511,-28.320,-22.949,-16.602,16.113,0.000
1673805017.515,-28.320,-37.109,-26.855,5.371,0.000
1673805017.518,-21.484,-33.691,-30.762,-2.441,0.000
1673805017.522,-12.695,-25.391,-15.625,-5.859,0.000
1673805017.526,-9.277,-21.484,-11.230,-0.977,0.000
1673805017.530,-4.883,-20.020,-19.531,-3.418,0.000
1673805017.534,0.488,-16.113,-19.531,-16.602,0.000
1673805017.538,-21.484,-17.090,-17.090,-24.414,0.000
1673805017.542,-36.621,-23.926,-23.926,-16.602,0.000
1673805017.546,-34.668,-28.320,-30.273,-9.277,0.000
1673805017.550,-41.504,-23.438,-27.832,-10.742,0.000
1673805017.554,-39.551,-29.297,-25.391,-5.859,0.000
1673805017.558,-25.879,-37.598,-33.203,-4.883,0.000
1673805017.561,-18.066,-27.344,-31.738,-13.184,0.000
1673805017.565,-17.578,-19.043,-17.578,-17.090,0.000
1673805017.569,-12.207,-18.066,-26.855,-26.367,0.000
1673805017.573,-2.930,-18.555,-31.738,-23.438,0.000
1673805017.577,-10.742,-19.043,-25.879,-25.391,0.000
1673805017.581,-26.367,-24.902,-28.320,-23.926,0.000
1673805017.585,-38.574,-32.715,-24.414,-14.160,0.000
1673805017.589,-41.016,-27.832,-26.855,-16.602,0.000
1673805017.593,-25.879,-25.879,-28.320,-20.508,0.000
1673805017.597,-21.484,-24.902,-27.344,-18.066,0.000
1673805017.601,-32.227,-16.113,-26.367,-17.090,0.000
1673805017.604,-40.039,-18.066,-27.344,-21.973,0.000
1673805017.608,-40.527,-19.043,-27.832,-17.090,0.000
1673805017.612,-30.762,-15.625,-28.809,-24.414,0.000
1673805017.616,-21.973,-16.602,-27.832,-28.320,0.000
1673805017.620,-24.902,-16.602,-27.344,-22.949,0.000
1673805017.624,-21.973,-15.625,-27.832,-18.555,0.000
1673805017.628,-26.367,-21.484,-25.391,-10.742,0.000
1673805017.632,-28.809,-28.320,-27.832,-16.602,0.000
1673805017.636,-21.973,-32.715,-28.809,-18.555,0.000
1673805017.640,-21.484,-31.250,-18.066,-5.859,0.000
1673805017.643,-19.043,-32.715,-18.066,0.000,0.000
1673805017.647,-11.230,-30.762,-23.438,7.324,0.000
1673805017.651,-15.625,-24.902,-21.484,4.395,0.000
1673805017.655,-20.020,-22.461,-24.902,4.883,0.000
1673805017.659,-5.859,-20.508,-23.438,2.930,0.000
1673805017.663,8.789,-18.555,-24.902,-20.020,0.000
1673805017.667,7.324,-17.090,-31.738,-26.855,0.000
1673805017.671,2.930,-23.438,-29.785,-27.832,0.000
1673805017.675,0.488,-26.855,-20.508,-21.973,0.000
1673805017.679,-12.695,-18.066,-16.602,-16.113,0.000
1673805017.683,-21.484,-23.438,-22.461,-24.902,0.000
1673805017.686,-28.320,-30.762,-25.391,-20.508,0.000
1673805017.690,-30.762,-20.996,-20.508,-3.906,0.000
1673805017.694,-30.273,-23.438,-23.438,-14.648,0.000
1673805017.698,-33.691,-29.785,-30.762,-31.250,0.000
1673805017.702,-28.320,-21.973,-31.738,-17.090,0.000
1673805017.706,-13.184,-14.648,-31.250,-4.883,0.000
1673805017.710,-1.953,-13.184,-26.855,0.000,0.000
1673805017.714,-5.371,-11.230,-20.020,4.883,0.000
1673805017.718,-17.578,-11.230,-20.508,0.000,0.000
1673805017.722,-11.719,-11.719,-23.438,-8.301,0.000
1673805017.726,0.000,-20.508,-20.508,-5.859,0.000
1673805017.729,-3.418,-21.973,-18.066,0.488,0.000
1673805017.733,-18.555,-12.695,-15.137,2.930,0.000
1673805017.737,-14.160,-11.719,-18.555,9.277,0.000
1673805017.741,-11.230,-17.090,-22.461,9.766,0.000
1673805017.745,-15.137,-22.461,-24.414,-0.488,0.000
1673805017.749,-1.465,-18.555,-30.273,-3.906,0.000
1673805017.753,3.906,-9.277,-27.832,-0.977,0.000
1673805017.757,-3.418,-16.113,-23.438,-9.766,0.000
1673805017.761,-10.742,-23.438,-28.320,-6.836,0.000
1673805017.765,-24.902,-18.555,-28.809,0.000,0.000
1673805017.768,-29.785,-15.137,-33.691,-6.836,0.000
1673805017.772,-23.926,-15.137,-35.645,-5.371,0.000
1673805017.776,-23.438,-21.484,-30.762,4.395,0.000
1673805017.780,-17.090,-24.414,-25.879,11.719,0.000
1673805017.784,-3.418,-18.555,-26.855,0.977,0.000
1673805017.788,-2.930,-16.602,-26.855,-8.789,0.000
1673805017.792,-12.207,-21.484,-18.555,-6.836,0.000
1673805017.796,-8.301,-26.855,-20.508,-7.812,0.000
1673805017.800,-14.160,-19.043,-23.438,-15.625,0.000
1673805017.804,-9.766,-16.602,-20.996,-9.766,0.000
1673805017.808,-2.930,-19.043,-18.066,-2.441,0.000
1673805017.811,-9.277,-20.020,-15.625,0.000,0.000
1673805017.815,-16.113,-21.484,-23.438,-4.395,0.000
1673805017.819,-19.531,-20.508,-26.367,-9.766,0.000
1673805017.823,-2.441,-16.602,-20.020,2.441,0.000
1673805017.827,8.301,-14.160,-17.578,15.625,0.000
1673805017.831,5.371,-21.973,-21.484,0.000,0.000
1673805017.835,18.066,-29.297,-25.879,-12.695,0.000
1673805017.839,9.277,-20.020,-23.926,-4.395,0.000
1673805017.843,-30.762,-13.672,-25.879,1.465,0.000
1673805017.847,-37.598,-20.508,-27.832,-6.836,0.000
1673805017.851,-34.668,-26.855,-24.414,-10.742,0.000
1673805017.854,-25.391,-25.879,-19.043,-6.836,0.000
1673805017.858,-14.648,-18.555,-21.973,-0.977,0.000
1673805017.862,-8.301,-11.230,-23.926,3.418,0.000
1673805017.866,-8.301,-11.719,-21.973,-13.672,0.000
1673805017.870,-19.531,-17.578,-22.461,-15.137,0.000
1673805017.874,-21.973,-24.414,-25.879,-4.395,0.000
1673805017.878,-16.602,-25.879,-29.785,2.930,0.000
1673805017.882,-20.508,-20.996,-28.320,0.488,0.000
1673805017.886,-22.461,-15.625,-21.484,-11.230,0.000
1673805017.890,-21.973,-18.555,-23.926,-7.324,0.000
1673805017.893,-16.113,-22.949,-28.809,-2.441,0.000
1673805017.897,-1.953,-18.555,-25.391,-3.906,0.000
1673805017.901,2.930,-12.695,-26.367,-6.836,0.000
1673805017.905,-7.324,-20.020,-25.391,-7.324,0.000
1673805017.909,-25.391,-25.391,-26.855,-11.719,0.000
1673805017.913,-21.484,-15.625,-28.320,-10.742,0.000
1673805017.917,-4.395,-11.719,-25.879,-2.930,0.000
1673805017.921,7.812,-6.836,-22.949,-5.859,0.000
1673805017.925,19.531,-3.418,-19.531,-0.977,0.000
1673805017.929,20.020,-12.695,-14.648,-6.836,0.000
1673805017.933,-1.953,-23.438,-17.090,-9.277,0.000
1673805017.936,-20.020,-20.020,-23.438,2.930,0.000
1673805017.940,-20.508,-18.066,-20.508,8.789,0.000
1673805017.944,-23.926,-19.531,-18.555,8.789,0.000
1673805017.948,-16.113,-16.113,-18.555,6.836,0.000
1673805017.952,-3.418,-13.672,-11.230,3.906,0.000
1673805017.956,-3.906,-17.090,-11.719,3.418,0.000
1673805017.960,-3.418,-9.766,-5.859,13.672,0.000
1673805017.964,-8.301,-6.348,-1.465,7.324,0.000
1673805017.968,-16.602,-14.648,-12.695,-5.859,0.000
1673805017.972,-6.836,-12.695,-14.160,0.488,0.000
1673805017.976,8.301,-1.953,-11.230,0.488,0.000
1673805017.979,10.742,-4.883,-16.113,0.000,0.000
1673805017.983,-12.207,-20.508,-12.695,4.395,0.000
1673805017.987,-28.809,-15.625,-10.742,11.719,0.000
1673805017.991,-15.625,-6.836,-10.254,20.508,0.000
1673805017.995,0.488,-5.371,-4.395,17.578,0.000
1673805017.999,-0.977,-3.906,-1.953,11.230,0.000
1673805018.003,1.953,-8.301,-3.418,14.160,0.000
1673805018.007,1.953,-7.324,-8.789,19.531,0.000
1673805018.011,4.883,-13.184,-12.207,5.859,0.000
1673805018.015,8.301,-14.648,-8.789,2.441,0.000
1673805018.018,-1.953,-14.160,-13.184,-2.930,0.000
1673805018.022,-5.371,-16.602,-17.090,-6.348,0.000
1673805018.026,-6.836,-8.301,-12.695,3.906,0.000
1673805018.030,-11.230,-14.160,-11.719,6.836,0.000
1673805018.034,-8.301,-21.484,-17.090,4.395,0.000
1673805018.038,-11.719,-14.160,-21.484,2.930,0.000
1673805018.042,-15.625,-11.719,-21.973,4.395,0.000
1673805018.046,-8.301,-14.160,-19.043,-2.441,0.000
1673805018.050,-12.207,-18.066,-20.020,-7.812,0.000
1673805018.054,-15.137,-27.344,-21.484,-2.930,0.000
1673805018.058,-8.789,-18.555,-19.043,-6.836,0.000
1673805018.061,-18.555,-13.184,-20.020,-11.230,0.000
1673805018.065,-14.648,-15.625,-20.020,-17.578,0.000
1673805018.069,-14.648,-14.160,-19.531,-20.996,0.000
1673805018.073,-14.648,-20.020,-22.949,-9.277,0.000
1673805018.077,-2.930,-20.508,-23.438,2.930,0.000
1673805018.081,-12.695,-13.184,-23.926,3.418,0.000
1673805018.085,-34.668,-12.695,-20.020,2.441,0.000
1673805018.089,-33.203,-18.555,-13.184,6.348,0.000
1673805018.093,-17.578,-12.207,-9.766,17.578,0.000
1673805018.097,-3.906,-5.859,-13.184,24.902,0.000
1673805018.101,-4.883,-10.254,-20.508,7.324,0.000
1673805018.104,-5.859,-14.160,-20.508,6.348,0.000
1673805018.108,8.301,-11.230,-15.625,19.531,0.000
1673805018.112,-6.836,-14.160,-15.625,3.906,0.000
1673805018.116,-16.602,-18.066,-17.578,-7.812,0.000
1673805018.120,-4.883,-17.578,-15.137,1.465,0.000
1673805018.124,1.465,-15.625,-11.230,7.812,0.000
1673805018.128,-16.602,-19.531,-15.625,0.488,0.000
1673805018.132,-33.691,-17.090,-22.949,-6.348,0.000
1673805018.136,-28.320,-8.789,-21.484,-12.207,0.000
1673805018.140,-17.090,-9.766,-16.602,-11.230,0.000
1673805018.143,-13.184,-13.184,-20.508,-8.789,0.000
1673805018.147,-7.812,-11.719,-22.461,-10.254,0.000
1673805018.151,0.488,-11.230,-16.113,-9.766,0.000
1673805018.155,2.930,-11.230,-20.020,-1.953,0.000
1673805018.159,-12.695,-18.555,-26.367,7.324,0.000
1673805018.163,-19.531,-19.531,-24.902,-1.465,0.000
1673805018.167,-6.836,-16.602,-27.344,-12.207,0.000
1673805018.171,6.348,-16.602,-31.738,-3.906,0.000
1673805018.175,5.371,-18.555,-33.691,2.441,0.000
1673805018.179,3.418,-20.996,-33.203,-7.812,0.000
1673805018.183,11.230,-25.391,-24.414,-13.672,0.000
1673805018.186,-0.488,-33.203,-20.508,-3.418,0.000
1673805018.190,-3.418,-29.785,-21.484,1.953,0.000
1673805018.194,-16.602,-21.484,-22.461,0.488,0.000
1673805018.198,-29.297,-20.996,-15.625,5.371,0.000
1673805018.202,-16.113,-23.438,-15.625,3.418,0.000
1673805018.206,-12.695,-21.484,-29.297,-5.859,0.000
1673805018.210,-21.973,-21.973,-29.297,-4.395,0.000
1673805018.214,-32.715,-19.043,-20.020,4.883,0.000
1673805018.218,-31.250,-14.160,-19.531,-0.488,0.000
1673805018.222,-34.668,-16.602,-26.855,-6.836,0.000
1673805018.226,-29.785,-24.414,-25.879,4.395,0.000
1673805018.229,-24.414,-28.320,-25.879,0.000,0.000
1673805018.233,-22.949,-20.996,-30.273,-13.184,0.000
1673805018.237,-18.066,-20.020,-29.297,-16.602,0.000
1673805018.241,-24.902,-21.973,-30.273,-7.812,0.000
1673805018.245,-22.949,-20.508,-27.344,-0.977,0.000
1673805018.249,-12.695,-20.508,-24.902,0.000,0.000
1673805018.253,-4.883,-20.020,-23.438,-6.836,0.000
1673805018.257,1.953,-18.555,-25.391,-4.883,0.000
1673805018.261,2.930,-19.531,-23.926,4.395,0.000
1673805018.265,-1.953,-14.648,-21.484,0.488,0.000
1673805018.268,-6.836,-6.836,-24.902,-10.254,0.000
1673805018.272,-8.301,-13.184,-22.949,-17.578,0.000
1673805018.276,0.488,-20.020,-16.113,-14.648,0.000
1673805018.280,-14.160,-20.996,-15.625,-7.812,0.000
1673805018.284,-31.738,-20.508,-20.996,-8.301,0.000
1673805018.288,-24.414,-20.020,-28.320,-18.066,0.000
1673805018.292,-35.156,-23.438,-14.160,-6.836,0.000
1673805018.296,-41.016,-21.973,-4.395,-10.742,0.000
1673805018.300,-46.387,-20.020,-18.066,-23.926,0.000
1673805018.304,-53.223,-26.855,-22.461,-17.578,0.000
1673805018.308,-43.945,-17.090,-20.020,-6.836,0.000
1673805018.311,-34.180,-16.602,-21.484,-10.742,0.000
1673805018.315,-23.926,-17.090,-21.973,-16.113,0.000
1673805018.319,-18.066,-14.648,-16.113,-19.043,0.000
1673805018.323,-10.254,-24.414,-13.672,-19.531,0.000
1673805018.327,-11.719,-28.809,-20.996,-18.066,0.000
1673805018.331,-36.133,-30.762,-22.949,-16.113,0.000
1673805018.335,-18.066,-25.391,-16.113,0.488,0.000
1673805018.339,-7.324,-25.391,-13.672,-0.977,0.000
1673805018.343,-30.273,-21.973,-19.531,-2.930,0.000
1673805018.347,-22.949,-15.625,-15.625,13.672,0.000
1673805018.351,-10.254,-20.996,-11.230,14.648,0.000
1673805018.354,-14.160,-23.438,-19.043,2.930,0.000
1673805018.358,-8.301,-16.602,-25.879,-0.488,0.000
1673805018.362,-4.395,-17.090,-23.926,-5.371,0.000
1673805018.366,-2.441,-15.625,-20.508,-12.695,0.000
1673805018.370,4.395,-9.766,-24.414,-20.020,0.000
1673805018.374,10.742,-9.766,-27.344,-13.672,0.000
1673805018.378,11.230,-12.695,-25.391,-2.930,0.000
1673805018.382,-11.719,-12.207,-21.973,0.977,0.000
1673805018.386,-10.742,-18.555,-25.391,-7.812,0.000
1673805018.390,-8.301,-23.926,-27.832,-5.371,0.000
1673805018.393,-22.949,-20.996,-22.949,0.000,0.000
1673805018.397,-27.344,-21.484,-19.531,-6.348,0.000
1673805018.401,-22.949,-17.578,-24.414,-17.578,0.000
1673805018.405,-5.859,-19.531,-24.414,-18.555,0.000
1673805018.409,-9.766,-30.273,-24.414,-20.508,0.000
1673805018.413,-18.066,-20.508,-24.902,-23.926,0.000
1673805018.417,-9.766,-6.836,-20.996,-13.672,0.000
1673805018.421,-5.371,-20.020,-20.020,-9.766,0.000
1673805018.425,1.953,-26.367,-16.113,6.348,0.000
1673805018.429,-9.277,-23.438,-20.020,5.371,0.000
1673805018.433,-20.996,-18.555,-17.578,-4.883,0.000
1673805018.436,-15.137,-16.113,-19.531,-0.977,0.000
1673805018.440,-15.137,-15.137,-28.320,2.441,0.000
1673805018.444,-6.348,-13.672,-22.461,-1.465,0.000
1673805018.448,5.859,-10.254,-18.555,-5.859,0.000
1673805018.452,7.324,-6.348,-20.020,-6.348,0.000
1673805018.456,-8.301,-21.484,-20.020,1.465,0.000
1673805018.460,-14.648,-33.203,-26.855,5.371,0.000
1673805018.464,-12.695,-32.227,-26.855,0.000,0.000
1673805018.468,-17.578,-28.809,-25.879,-5.371,0.000
1673805018.472,-9.766,-23.438,-31.738,-13.184,0.000
1673805018.476,0.000,-21.973,-28.809,-17.090,0.000
1673805018.479,8.301,-24.902,-26.855,-11.719,0.000
1673805018.483,4.883,-21.973,-31.250,-13.672,0.000
1673805018.487,-10.742,-18.066,-27.832,-18.555,0.000
1673805018.491,-27.344,-23.926,-21.973,-6.836,0.000
1673805018.495,-39.551,-24.902,-23.926,-7.812,0.000
1673805018.499,-27.344,-23.438,-27.344,-12.207,0.000
1673805018.503,-15.137,-20.996,-26.855,4.883,0.000
1673805018.507,-15.137,-12.695,-20.996,13.672,0.000
1673805018.511,-12.695,-11.719,-24.902,-5.859,0.000
1673805018.515,-4.883,-21.973,-28.809,-15.137,0.000
1673805018.518,-7.324,-24.902,-24.414,-1.465,0.000
1673805018.522,-11.719,-20.996,-23.438,12.695,0.000
1673805018.526,-0.488,-30.762,-21.484,9.766,0.000
1673805018.530,1.953,-31.738,-24.902,2.441,0.000
1673805018.534,5.859,-20.508,-23.438,4.883,0.000
1673805018.538,17.578,-18.555,-18.555,10.742,0.000
1673805018.542,-0.977,-13.184,-21.484,4.883,0.000
1673805018.546,-6.348,-11.719,-22.461,2.441,0.000
1673805018.550,-14.648,-19.531,-21.973,-2.441,0.000
1673805018.554,-22.949,-21.973,-26.367,-11.719,0.000
1673805018.558,-13.672,-23.438,-30.273,-14.648,0.000
1673805018.561,-6.348,-22.461,-31.250,-17.578,0.000
1673805018.565,-8.301,-23.926,-25.879,-15.137,0.000
1673805018.569,-16.602,-27.832,-25.391,-6.348,0.000
1673805018.573,-18.066,-31.738,-27.832,-9.277,0.000
1673805018.577,-18.555,-34.668,-30.273,-10.742,0.000
1673805018.581,-22.461,-28.809,-29.297,1.465,0.000
1673805018.585,-14.160,-22.949,-26.367,-3.906,0.000
1673805018.589,-15.625,-26.855,-27.832,-16.602,0.000
1673805018.593,-5.371,-20.508,-24.414,-23.926,0.000
1673805018.597,3.906,-18.066,-22.461,-16.113,0.000
1673805018.601,-11.719,-25.879,-22.949,-4.395,0.000
1673805018.604,-12.207,-23.926,-20.996,-4.883,0.000
1673805018.608,-0.977,-19.043,-20.996,1.953,0.000
1673805018.612,3.906,-19.531,-24.414,7.324,0.000
1673805018.616,0.488,-19.043,-20.996,2.930,0.000
1673805018.620,-5.371,-18.555,-14.160,6.348,0.000
1673805018.624,-0.488,-27.344,-14.648,5.371,0.000
1673805018.628,3.906,-21.973,-11.719,2.930,0.000
1673805018.632,-19.043,-17.090,-13.672,2.930,0.000
1673805018.636,-33.691,-22.461,-18.066,-5.859,0.000
1673805018.640,-23.438,-17.090,-17.090,-13.672,0.000
1673805018.643,-13.672,-11.719,-15.137,-18.555,0.000
1673805018.647,-3.906,-12.207,-17.578,-12.207,0.000
1673805018.651,0.977,-15.137,-20.996,2.930,0.000
1673805018.655,-7.812,-16.602,-20.996,-0.488,0.000
1673805018.659,-14.160,-18.555,-25.879,-7.812,0.000
1673805018.663,-7.812,-26.367,-31.250,-2.441,0.000
1673805018.667,-11.230,-32.715,-28.320,0.488,0.000
1673805018.671,-21.484,-20.508,-21.484,-0.488,0.000
1673805018.675,-15.625,-12.207,-19.531,-1.465,0.000
1673805018.679,-8.789,-22.949,-24.902,2.930,0.000
1673805018.683,-21.484,-25.879,-22.461,0.977,0.000
1673805018.686,-16.113,-13.672,-16.113,3.906,0.000
1673805018.690,-3.418,-12.695,-18.066,13.184,0.000
1673805018.694,-3.906,-17.578,-19.531,0.977,0.000
1673805018.698,-12.207,-12.207,-17.090,1.465,0.000
1673805018.702,-27.832,-7.812,-16.113,16.113,0.000
1673805018.706,-28.809,-11.230,-23.926,4.395,0.000
1673805018.710,-13.184,-19.043,-28.809,-13.672,0.000
1673805018.714,-7.812,-20.508,-26.367,-11.719,0.000
1673805018.718,-5.371,-16.113,-28.320,-3.418,0.000
1673805018.722,-16.602,-19.043,-33.691,-7.812,0.000
1673805018.726,-19.531,-17.578,-33.203,-5.859,0.000
1673805018.729,-14.160,-16.602,-24.902,-4.883,0.000
1673805018.733,-10.742,-24.902,-24.902,-9.766,0.000
1673805018.737,7.324,-20.508,-32.227,-7.324,0.000
1673805018.741,-0.488,-22.461,-27.344,-9.277,0.000
1673805018.745,-17.090,-24.902,-13.184,-13.184,0.000
1673805018.749,-13.184,-14.648,-16.113,-15.137,0.000
1673805018.753,-19.531,-22.949,-21.484,-20.508,0.000
1673805018.757,-14.648,-23.438,-19.043,-27.832,0.000
1673805018.761,-9.766,-15.625,-19.043,-22.949,0.000
1673805018.765,-9.766,-23.438,-19.043,-11.230,0.000
1673805018.768,-26.855,-36.621,-23.438,-8.789,0.000
1673805018.772,-32.227,-31.738,-22.949,-9.766,0.000
1673805018.776,-24.902,-15.625,-23.926,-6.348,0.000
1673805018.780,-7.324,-11.719,-23.438,-4.883,0.000
1673805018.784,-9.766,-14.648,-24.902,-1.953,0.000
1673805018.788,-29.785,-16.113,-26.367,-5.859,0.000
1673805018.792,-29.785,-20.508,-19.531,-5.371,0.000
1673805018.796,-38.086,-22.949,-20.996,-1.953,0.000
1673805018.800,-43.945,-25.879,-29.785,3.418,0.000
1673805018.804,-33.691,-31.738,-27.344,6.348,0.000
1673805018.808,-25.391,-26.367,-17.578,-0.977,0.000
1673805018.811,-22.949,-26.855,-16.602,-16.113,0.000
1673805018.815,-8.301,-32.715,-14.648,-3.418,0.000
1673805018.819,-5.371,-21.484,-15.625,8.789,0.000
1673805018.823,-8.301,-10.254,-21.484,-3.906,0.000
1673805018.827,-13.672,-7.324,-21.484,-6.836,0.000
1673805018.831,-19.531,-6.836,-20.508,-10.742,0.000
1673805018.835,-6.836,-8.789,-25.879,-8.301,0.000
1673805018.839,1.953,-13.672,-26.367,-4.883,0.000
1673805018.843,0.488,-16.113,-24.414,-10.254,0.000
1673805018.847,-5.859,-17.578,-20.996,-11.719,0.000
1673805018.851,2.930,-13.184,-20.020,1.465,0.000
1673805018.854,18.555,-6.836,-22.949,6.348,0.000
1673805018.858,17.578,-2.930,-20.508,-6.836,0.000
1673805018.862,17.090,-3.418,-18.066,0.488,0.000
1673805018.866,26.367,-0.977,-16.602,12.207,0.000
1673805018.870,12.695,-1.465,-14.648,14.648,0.000
1673805018.874,9.766,-7.324,-17.090,13.184,0.000
1673805018.878,16.602,-5.371,-18.555,6.836,0.000
1673805018.882,-6.348,-7.812,-19.043,12.695,0.000
1673805018.886,0.488,-8.789,-13.184,19.043,0.000
1673805018.890,5.859,-14.160,-8.789,19.531,0.000
1673805018.894,-13.184,-12.695,-13.184,13.672,0.000
1673805018.897,-19.043,-2.441,-9.766,13.184,0.000
1673805018.901,-9.766,-11.719,-11.230,11.719,0.000
1673805018.905,-9.277,-15.625,-18.555,0.977,0.000
1673805018.909,-11.719,-12.207,-18.066,-6.836,0.000
1673805018.913,-7.812,-13.184,-16.113,-8.789,0.000
1673805018.917,-5.859,-10.742,-20.996,-6.348,0.000
1673805018.921,-10.254,-16.602,-17.578,-6.836,0.000
1673805018.925,-24.902,-20.996,-11.230,-9.766,0.000
1673805018.929,-9.277,-10.742,-16.602,-9.766,0.000
1673805018.933,-2.441,-9.277,-22.949,0.977,0.000
1673805018.936,-21.484,-16.113,-22.949,-0.488,0.000
1673805018.940,-22.461,-11.230,-20.508,-6.836,0.000
1673805018.944,-12.695,-10.254,-15.137,7.324,0.000
1673805018.948,-10.254,-17.578,-20.020,4.883,0.000
1673805018.952,-1.465,-13.672,-25.879,-8.301,0.000
1673805018.956,14.160,-10.254,-23.926,-7.812,0.000
1673805018.960,15.137,-8.789,-20.996,-3.906,0.000
1673805018.964,4.883,-7.812,-27.344,-0.977,0.000
1673805018.968,-2.930,-9.766,-24.414,5.859,0.000
1673805018.972,-6.836,-19.531,-10.742,10.742,0.000
1673805018.976,7.812,-17.578,-7.812,6.836,0.000
1673805018.979,12.695,-10.742,-9.277,10.742,0.000
1673805018.983,-5.371,-18.066,-8.301,13.184,0.000
1673805018.987,-14.160,-21.484,-8.789,2.930,0.000
1673805018.991,-34.668,-19.043,-14.160,-9.766,0.000
1673805018.995,-36.133,-5.859,-19.531,-20.996,0.000
1673805018.999,-22.949,-1.465,-17.090,-10.254,0.000
1673805019.003,-26.367,-5.859,-16.113,0.000,0.000
1673805019.007,-23.438,-7.812,-20.996,-5.371,0.000
1673805019.011,-16.602,-12.207,-22.949,-2.930,0.000
1673805019.015,-7.324,-13.672,-23.438,-4.883,0.000
1673805019.019,-10.742,-9.766,-20.020,-9.277,0.000
1673805019.022,-29.785,-9.766,-21.973,-11.230,0.000
1673805019.026,-27.344,-12.695,-25.391,-7.812,0.000
1673805019.030,-8.301,-10.742,-22.461,-7.324,0.000
1673805019.034,7.324,-12.695,-20.020,-0.977,0.000
1673805019.038,12.207,-16.602,-20.996,-2.441,0.000
1673805019.042,5.371,-10.254,-23.438,-9.277,0.000
1673805019.046,-4.883,-11.719,-20.020,-1.465,0.000
1673805019.050,-18.066,-16.113,-18.066,10.742,0.000
1673805019.054,-21.973,-10.742,-15.625,9.277,0.000
1673805019.058,-9.766,-4.883,-12.207,5.859,0.000
1673805019.061,-4.883,-10.254,-11.230,6.348,0.000
1673805019.065,-8.789,-11.230,-11.230,3.906,0.000
1673805019.069,-15.137,-12.207,-16.602,6.836,0.000
1673805019.073,-8.789,-15.625,-18.555,-4.883,0.000
1673805019.077,-4.883,-5.859,-14.160,-9.766,0.000
1673805019.081,-0.488,-5.859,-15.137,-9.766,0.000
1673805019.085,-16.602,-16.113,-16.602,-15.137,0.000
1673805019.089,-20.996,-12.695,-21.484,-10.254,0.000
1673805019.093,-7.324,-7.812,-25.879,-8.789,0.000
1673805019.097,0.977,-12.207,-25.391,-15.137,0.000
1673805019.101,4.395,-13.672,-19.531,-10.742,0.000
1673805019.104,-3.906,-10.742,-20.020,-12.695,0.000
1673805019.108,-23.926,-15.137,-22.949,-15.625,0.000
1673805019.112,-10.742,-18.066,-17.578,-8.789,0.000
1673805019.116,-1.953,-15.137,-15.625,-1.465,0.000
1673805019.120,-5.859,-11.719,-17.090,3.906,0.000
1673805019.124,-4.395,-11.230,-14.160,6.836,0.000
1673805019.128,-22.461,-15.137,-17.090,1.953,0.000
1673805019.132,-25.879,-18.555,-24.414,-3.418,0.000
1673805019.136,-9.766,-18.555,-20.020,2.441,0.000
1673805019.140,-16.602,-20.020,-17.578,7.812,0.000
1673805019.144,-7.324,-18.066,-18.066,8.301,0.000
1673805019.147,-0.977,-17.578,-17.090,17.578,0.000
1673805019.151,-10.742,-22.949,-16.113,13.184,0.000
1673805019.155,-8.789,-25.879,-13.184,4.395,0.000
1673805019.159,-11.719,-22.461,-15.137,11.719,0.000
1673805019.163,-1.465,-18.555,-14.648,6.836,0.000
1673805019.167,7.324,-9.766,-12.695,6.836,0.000
1673805019.171,-4.395,-12.695,-15.137,2.930,0.000
1673805019.175,16.113,-16.602,-16.602,-11.230,0.000
1673805019.179,19.531,-10.742,-15.625,-12.695,0.000
1673805019.183,-17.090,-9.766,-13.184,10.742,0.000
1673805019.186,-24.414,-8.789,-14.648,11.230,0.000
1673805019.190,-17.090,-14.648,-21.484,-10.254,0.000
1673805019.194,-10.254,-17.578,-18.066,-5.859,0.000
1673805019.198,-3.906,-19.043,-14.648,-5.371,0.000
1673805019.202,-9.766,-19.043,-10.742,-9.277,0.000
1673805019.206,-10.742,-24.414,-14.160,-2.930,0.000
1673805019.210,-5.859,-25.391,-24.414,-4.395,0.000
1673805019.214,-14.160,-19.531,-22.461,0.488,0.000
1673805019.218,-12.207,-27.344,-23.438,6.348,0.000
1673805019.222,-8.301,-30.762,-24.902,0.977,0.000
1673805019.226,-6.836,-19.043,-25.879,3.906,0.000
1673805019.229,0.000,-13.672,-25.391,6.836,0.000
1673805019.233,4.395,-15.625,-25.391,-2.930,0.000
1673805019.237,0.488,-11.230,-19.531,-10.254,0.000
1673805019.241,-21.973,-12.695,-13.672,-1.953,0.000
1673805019.245,-34.180,-31.250,-15.137,4.883,0.000
1673805019.249,-23.438,-31.738,-22.949,-0.977,0.000
1673805019.253,-20.996,-20.508,-25.879,2.930,0.000
1673805019.257,-17.578,-26.855,-24.414,3.906,0.000
1673805019.261,-11.719,-25.391,-27.832,-10.742,0.000
1673805019.265,-8.789,-19.043,-26.367,-17.090,0.000
1673805019.269,-5.371,-18.066,-25.391,-13.672,0.000
1673805019.272,-20.996,-22.461,-23.926,-13.184,0.000
1673805019.276,-34.668,-38.574,-31.250,-24.902,0.000
1673805019.280,-22.461,-33.203,-38.086,-27.344,0.000
1673805019.284,-15.137,-20.020,-30.762,-12.695,0.000
1673805019.288,-11.719,-20.996,-24.902,-7.812,0.000
1673805019.292,-10.742,-18.555,-23.926,-16.602,0.000
1673805019.296,-18.066,-18.066,-22.949,-18.555,0.000
1673805019.300,-19.043,-20.020,-20.996,-16.113,0.000
1673805019.304,-10.254,-16.113,-21.973,-11.230,0.000
1673805019.308,-7.812,-15.625,-20.020,-10.254,0.000
1673805019.311,-0.977,-20.996,-23.438,-16.113,0.000
1673805019.315,-0.977,-19.043,-28.809,-4.395,0.000
1673805019.319,-12.207,-16.113,-28.320,4.883,0.000
1673805019.323,-26.855,-19.531,-28.809,-2.441,0.000
1673805019.327,-18.555,-22.461,-28.809,-2.930,0.000
1673805019.331,5.371,-25.391,-28.320,1.465,0.000
1673805019.335,-0.977,-21.973,-31.250,-2.441,0.000
1673805019.339,-23.438,-14.648,-29.297,-13.184,0.000
1673805019.343,-6.348,-9.277,-21.484,-6.836,0.000
1673805019.347,4.883,-12.207,-20.020,1.953,0.000
1673805019.351,-15.137,-15.137,-21.973,2.930,0.000
1673805019.354,-22.461,-18.555,-20.020,6.836,0.000
1673805019.358,-20.020,-21.484,-20.020,5.859,0.000
1673805019.362,-11.719,-8.789,-20.996,3.906,0.000
1673805019.366,-9.277,-10.254,-26.367,1.953,0.000
1673805019.370,-22.461,-14.648,-25.879,4.395,0.000
1673805019.374,-14.160,-8.301,-20.996,5.371,0.000
1673805019.378,-3.418,-14.160,-20.996,-4.395,0.000
1673805019.382,-2.441,-17.090,-22.949,-4.883,0.000
1673805019.386,1.465,-13.184,-26.367,1.953,0.000
1673805019.390,1.465,-11.719,-27.344,-0.977,0.000
1673805019.394,-2.930,-14.648,-28.320,-3.418,0.000
1673805019.397,3.418,-13.672,-26.855,8.301,0.000
1673805019.401,9.277,-6.836,-17.578,20.020,0.000
1673805019.405,-0.488,-12.207,-14.648,19.531,0.000
1673805019.409,0.000,-19.043,-16.602,14.648,0.000
1673805019.413,-4.395,-22.461,-20.020,9.766,0.000
1673805019.417,-5.371,-22.949,-21.973,11.719,0.000
1673805019.421,2.441,-24.414,-21.484,0.000,0.000
1673805019.425,9.277,-25.391,-26.367,-24.902,0.000
1673805019.429,18.066,-23.438,-32.715,-26.855,0.000
1673805019.433,23.438,-21.484,-33.203,-19.531,0.000
1673805019.437,4.883,-16.602,-27.832,-11.230,0.000
1673805019.440,-20.020,-23.926,-26.855,-15.625,0.000
1673805019.444,-16.602,-22.461,-27.344,-13.672,0.000
1673805019.448,-13.672,-14.160,-24.414,-3.418,0.000
1673805019.452,-23.926,-14.648,-22.949,-2.930,0.000
1673805019.456,-33.691,-18.066,-20.020,-8.301,0.000
1673805019.460,-31.738,-23.926,-19.043,-10.254,0.000
1673805019.464,-28.809,-29.297,-15.625,-10.254,0.000
1673805019.468,-24.414,-27.832,-10.254,-0.977,0.000
1673805019.472,-9.766,-26.367,-9.766,0.000,0.000
1673805019.476,-11.719,-25.879,-15.137,-9.277,0.000
1673805019.479,-7.324,-30.762,-19.531,-3.418,0.000
1673805019.483,-9.277,-30.273,-15.625,6.836,0.000
1673805019.487,-27.344,-23.438,-11.230,5.371,0.000
1673805019.491,-26.855,-18.066,-11.719,-2.441,0.000
1673805019.495,-11.719,-14.160,-13.184,8.301,0.000
1673805019.499,-3.418,-15.625,-14.160,20.508,0.000
1673805019.503,-13.672,-26.367,-13.672,6.836,0.000
1673805019.507,-25.879,-28.809,-17.090,2.930,0.000
1673805019.511,-7.324,-20.020,-16.113,4.883,0.000
1673805019.515,7.812,-16.113,-15.137,-0.488,0.000
1673805019.519,16.113,-17.090,-22.949,-9.277,0.000
1673805019.522,14.160,-19.043,-27.832,-13.672,0.000
1673805019.526,-0.977,-20.996,-31.250,-20.020,0.000
1673805019.530,-7.812,-22.949,-32.715,-20.020,0.000
1673805019.534,-11.719,-20.996,-29.297,-10.742,0.000
1673805019.538,-16.602,-12.695,-27.832,-2.441,0.000
1673805019.542,-31.738,-11.230,-25.391,-5.371,0.000
1673805019.546,-28.809,-19.531,-21.484,-6.348,0.000
1673805019.550,-20.508,-23.438,-21.973,2.441,0.000
1673805019.554,-16.602,-17.090,-18.555,-0.977,0.000
1673805019.558,-5.859,-19.043,-11.719,-2.441,0.000
1673805019.562,-8.789,-19.531,-18.066,1.953,0.000
1673805019.565,-5.371,-20.020,-19.531,10.254,0.000
