timestamp,TP9,AF7,AF8,TP10,Right AUX
1673806243.530,-35.156,-25.391,-29.785,-19.531,0.000
1673806243.534,-40.039,-26.367,-15.137,-20.020,0.000
1673806243.538,-34.180,-33.203,-18.555,-16.113,0.000
1673806243.542,-19.043,-34.668,-28.809,-14.160,0.000
1673806243.546,-14.648,-20.020,-33.691,-16.113,0.000
1673806243.550,-20.508,-17.090,-25.879,-17.578,0.000
1673806243.554,-17.578,-25.879,-14.648,-12.207,0.000
1673806243.558,-17.090,-30.273,-19.043,-6.836,0.000
1673806243.562,-17.578,-23.926,-23.926,-14.160,0.000
1673806243.565,-14.648,-20.020,-24.414,-16.113,0.000
1673806243.569,-14.160,-32.227,-36.133,-6.836,0.000
1673806243.573,-23.926,-41.504,-44.922,-10.254,0.000
1673806243.577,-27.344,-28.809,-29.785,-14.648,0.000
1673806243.581,-12.207,-16.602,-16.602,-17.090,0.000
1673806243.585,-10.742,-16.602,-18.555,-14.160,0.000
1673806243.589,-26.855,-21.484,-24.902,-11.719,0.000
1673806243.593,-25.391,-26.855,-31.250,-17.578,0.000
1673806243.597,-23.438,-30.273,-30.762,-24.414,0.000
1673806243.601,-29.297,-26.367,-30.273,-21.973,0.000
1673806243.605,-41.016,-25.879,-25.391,-24.902,0.000
1673806243.608,-46.875,-29.297,-25.879,-32.227,0.000
1673806243.612,-40.527,-30.762,-29.785,-27.832,0.000
1673806243.616,-35.156,-32.715,-27.832,-22.461,0.000
1673806243.620,-34.180,-32.227,-26.367,-20.996,0.000
1673806243.624,-36.133,-25.391,-26.367,-18.066,0.000
1673806243.628,-34.668,-32.715,-26.367,-27.832,0.000
1673806243.632,-32.227,-48.340,-31.250,-34.668,0.000
1673806243.636,-29.297,-35.156,-32.715,-26.855,0.000
1673806243.640,-27.344,-24.414,-24.902,-21.484,0.000
1673806243.644,-36.133,-20.996,-26.367,-11.719,0.000
1673806243.647,-43.945,-22.461,-25.879,-18.555,0.000
1673806243.651,-37.109,-34.668,-28.809,-21.973,0.000
1673806243.655,-27.344,-34.180,-43.457,-5.371,0.000
1673806243.659,-28.809,-15.137,-34.180,-2.441,0.000
1673806243.663,-38.086,-19.531,-20.020,-17.578,0.000
1673806243.667,-38.086,-25.391,-25.879,-25.391,0.000
1673806243.671,-38.086,-26.855,-31.250,-24.414,0.000
1673806243.675,-39.062,-35.645,-33.691,-20.020,0.000
1673806243.679,-37.109,-28.809,-17.578,-23.438,0.000
1673806243.683,-37.598,-29.297,-12.695,-27.344,0.000
1673806243.687,-32.227,-29.785,-22.461,-20.508,0.000
1673806243.690,-32.227,-23.438,-23.926,-21.973,0.000
1673806243.694,-34.668,-23.926,-20.996,-22.461,0.000
1673806243.698,-32.227,-18.555,-24.902,-20.996,0.000
1673806243.702,-33.691,-15.137,-25.391,-20.996,0.000
1673806243.706,-31.250,-20.508,-25.879,-19.043,0.000
1673806243.710,-31.250,-19.043,-29.785,-28.809,0.000
1673806243.714,-28.809,-25.879,-24.902,-30.762,0.000
1673806243.718,-20.020,-36.621,-20.508,-26.855,0.000
1673806243.722,-18.066,-26.855,-19.531,-20.996,0.000
1673806243.726,-13.672,-35.645,-20.996,-18.066,0.000
1673806243.730,-13.672,-37.109,-29.785,-18.066,0.000
1673806243.733,-24.902,-19.531,-42.969,-26.367,0.000
1673806243.737,-24.414,-22.461,-28.320,-22.461,0.000
1673806243.741,-15.137,-19.043,-12.695,-10.742,0.000
1673806243.745,-10.254,-16.113,-23.926,-6.836,0.000
1673806243.749,-1.465,-15.625,-18.066,-1.465,0.000
1673806243.753,-9.766,-18.555,-10.742,-8.789,0.000
1673806243.757,-15.137,-17.090,-17.578,-14.648,0.000
1673806243.761,-19.531,-18.555,-23.926,-14.160,0.000
1673806243.765,-20.996,-20.996,-19.043,-18.066,0.000
1673806243.769,-8.789,-12.207,-17.090,-18.066,0.000
1673806243.772,-10.254,-15.137,-18.066,-13.184,0.000
1673806243.776,-24.414,-17.090,-12.695,-10.254,0.000
1673806243.780,-29.785,-11.719,-10.254,-8.301,0.000
1673806243.784,-20.508,-11.719,-1.465,-12.207,0.000
1673806243.788,-19.043,-19.531,-0.488,-17.578,0.000
1673806243.792,-26.367,-23.926,-5.371,-16.602,0.000
1673806243.796,-36.621,-28.809,-12.695,-15.625,0.000
1673806243.800,-45.898,-26.855,-22.949,-21.484,0.000
1673806243.804,-44.434,-20.996,-18.555,-22.461,0.000
1673806243.808,-35.645,-18.066,-9.766,-19.043,0.000
1673806243.812,-36.621,-23.926,-15.137,-28.320,0.000
1673806243.815,-38.574,-20.020,-18.066,-32.227,0.000
1673806243.819,-32.715,-18.555,-14.648,-20.996,0.000
1673806243.823,-29.297,-12.695,-18.066,-12.207,0.000
1673806243.827,-31.250,-8.789,-24.414,-5.371,0.000
1673806243.831,-28.809,-17.578,-13.184,0.000,0.000
1673806243.835,-21.973,-14.648,-5.371,-6.836,0.000
1673806243.839,-25.391,-9.277,-14.648,-8.301,0.000
1673806243.843,-28.809,-9.766,-21.973,-16.113,0.000
1673806243.847,-27.832,-16.113,-15.625,-26.855,0.000
1673806243.851,-26.367,-24.414,-9.277,-24.414,0.000
1673806243.855,-25.879,-31.250,-11.230,-26.855,0.000
1673806243.858,-27.832,-20.508,-14.648,-21.973,0.000
1673806243.862,-20.996,-13.672,-13.672,-9.766,0.000
1673806243.866,-14.648,-20.020,-16.113,-14.160,0.000
1673806243.870,-30.273,-14.648,-21.484,-19.043,0.000
1673806243.874,-43.457,-14.648,-22.461,-17.578,0.000
1673806243.878,-29.297,-12.207,-18.555,-12.695,0.000
1673806243.882,-25.879,-15.625,-13.184,-5.371,0.000
1673806243.886,-28.809,-36.621,-14.160,-5.859,0.000
1673806243.890,-30.762,-34.668,-28.320,-5.371,0.000
1673806243.894,-31.250,-10.742,-27.832,-3.418,0.000
1673806243.897,-39.062,-5.371,-14.648,-17.090,0.000
1673806243.901,-40.527,-18.066,-7.324,-31.738,0.000
1673806243.905,-40.527,-22.949,-12.207,-26.855,0.000
1673806243.909,-48.340,-22.461,-11.719,-18.066,0.000
1673806243.913,-45.898,-14.160,-13.672,-25.391,0.000
1673806243.917,-39.551,-3.906,-24.902,-31.250,0.000
1673806243.921,-32.715,-10.742,-20.020,-24.414,0.000
1673806243.925,-23.438,-11.719,-11.719,-16.602,0.000
1673806243.929,-23.926,-13.672,-15.137,-9.766,0.000
1673806243.933,-31.250,-24.902,-22.949,-19.043,0.000
1673806243.937,-35.156,-26.367,-26.367,-35.645,0.000
1673806243.940,-29.297,-19.043,-21.973,-34.180,0.000
1673806243.944,-23.438,-24.414,-16.113,-34.180,0.000
1673806243.948,-26.855,-27.832,-18.555,-34.668,0.000
1673806243.952,-36.133,-25.879,-26.367,-30.273,0.000
1673806243.956,-36.133,-25.391,-34.180,-27.344,0.000
1673806243.960,-25.391,-13.184,-29.785,-28.809,0.000
1673806243.964,-24.902,-15.137,-22.461,-36.621,0.000
1673806243.968,-26.855,-17.578,-25.879,-41.992,0.000
1673806243.972,-21.973,-6.836,-30.273,-28.809,0.000
1673806243.976,-28.809,-7.324,-25.391,-14.648,0.000
1673806243.979,-28.320,-16.602,-22.949,-17.090,0.000
1673806243.983,-22.949,-20.508,-36.133,-22.461,0.000
1673806243.987,-20.508,-13.672,-39.551,-24.902,0.000
1673806243.991,-19.043,-23.438,-37.598,-33.691,0.000
1673806243.995,-20.508,-32.715,-33.203,-35.645,0.000
1673806243.999,-22.949,-33.691,-25.879,-32.715,0.000
1673806244.003,-16.602,-29.785,-26.855,-31.738,0.000
1673806244.007,-21.484,-21.484,-28.320,-20.996,0.000
1673806244.011,-37.598,-16.113,-21.484,-15.137,0.000
1673806244.015,-40.527,-23.438,-33.691,-16.602,0.000
1673806244.019,-31.738,-27.344,-39.551,-7.812,0.000
1673806244.022,-25.391,-29.297,-18.555,-2.441,0.000
1673806244.026,-21.973,-32.227,-9.766,-4.883,0.000
1673806244.030,-19.531,-29.785,-10.742,-0.977,0.000
1673806244.034,-21.484,-31.738,-8.789,-5.859,0.000
1673806244.038,-32.227,-35.645,-6.836,-6.348,0.000
1673806244.042,-33.203,-25.879,-14.648,-1.953,0.000
1673806244.046,-36.133,-31.738,-12.207,-5.859,0.000
1673806244.050,-38.086,-29.297,-10.742,-0.977,0.000
1673806244.054,-28.320,-16.113,-16.602,-0.488,0.000
1673806244.058,-22.949,-13.184,-13.184,7.324,0.000
1673806244.062,-20.996,-14.648,-15.137,8.301,0.000
1673806244.065,-21.973,-20.020,-13.672,-1.953,0.000
1673806244.069,-20.996,-16.113,-12.695,-1.465,0.000
1673806244.073,-12.207,-14.160,-21.484,-1.465,0.000
1673806244.077,-8.789,-25.391,-20.508,2.441,0.000
1673806244.081,3.418,-19.043,-17.578,-5.859,0.000
1673806244.085,4.883,-13.672,-17.578,-11.719,0.000
1673806244.089,-5.371,-18.066,-30.273,-0.488,0.000
1673806244.093,-4.395,-15.625,-31.738,3.418,0.000
1673806244.097,-12.207,-22.949,-22.949,-3.418,0.000
1673806244.101,-19.043,-20.020,-30.762,-17.090,0.000
1673806244.104,-16.602,-11.719,-24.414,-15.625,0.000
1673806244.108,-22.461,-17.090,-16.602,-14.160,0.000
1673806244.112,-22.461,-16.602,-27.344,-21.973,0.000
1673806244.116,-23.926,-14.648,-32.227,-31.250,0.000
1673806244.120,-31.738,-22.461,-31.738,-19.531,0.000
1673806244.124,-39.062,-24.902,-32.715,0.488,0.000
1673806244.128,-51.758,-27.344,-26.855,-8.301,0.000
1673806244.132,-55.176,-23.438,-24.414,-20.020,0.000
1673806244.136,-44.434,-26.367,-27.344,-19.531,0.000
1673806244.140,-41.016,-34.180,-28.809,-18.555,0.000
1673806244.144,-53.223,-37.109,-43.457,-24.902,0.000
1673806244.147,-45.898,-37.109,-52.246,-26.855,0.000
1673806244.151,-31.738,-31.738,-31.738,-20.996,0.000
1673806244.155,-28.320,-28.809,-13.184,-8.789,0.000
1673806244.159,-39.062,-25.391,-21.484,-12.695,0.000
1673806244.163,-34.668,-19.531,-26.367,-13.184,0.000
1673806244.167,-21.973,-19.531,-25.391,-8.301,0.000
1673806244.171,-22.949,-29.297,-20.996,-13.184,0.000
1673806244.175,-31.250,-36.621,-26.367,-17.090,0.000
1673806244.179,-20.996,-20.508,-21.973,-11.719,0.000
1673806244.183,-9.766,-6.348,-15.625,-11.719,0.000
1673806244.187,-12.695,-13.672,-26.855,-21.973,0.000
1673806244.190,-8.789,-20.508,-22.949,-25.879,0.000
1673806244.194,-4.883,-33.691,-20.020,-21.484,0.000
1673806244.198,-10.254,-30.762,-34.668,-14.160,0.000
1673806244.202,-14.648,-24.414,-27.344,-19.043,0.000
1673806244.206,-21.484,-34.668,-8.789,-21.973,0.000
1673806244.210,-27.344,-32.715,-9.766,-19.043,0.000
1673806244.214,-34.668,-26.855,-17.578,-23.926,0.000
1673806244.218,-30.273,-18.555,-16.602,-31.738,0.000
1673806244.222,-17.578,-13.672,-27.344,-27.344,0.000
1673806244.226,-18.555,-17.578,-31.250,-21.484,0.000
1673806244.229,-32.715,-19.531,-19.043,-27.344,0.000
1673806244.233,-38.086,-25.391,-24.414,-34.668,0.000
1673806244.237,-30.762,-28.809,-26.855,-29.297,0.000
1673806244.241,-30.273,-32.227,-25.391,-10.254,0.000
1673806244.245,-30.273,-29.785,-28.809,-3.906,0.000
1673806244.249,-31.250,-20.996,-26.367,-22.461,0.000
1673806244.253,-25.391,-17.090,-19.531,-29.785,0.000
1673806244.257,-20.020,-20.020,-16.602,-21.973,0.000
1673806244.261,-28.809,-23.438,-21.973,-21.973,0.000
1673806244.265,-30.762,-22.949,-21.973,-26.367,0.000
1673806244.269,-30.762,-34.668,-20.020,-31.738,0.000
1673806244.272,-29.297,-32.715,-18.555,-32.227,0.000
1673806244.276,-40.039,-20.020,-21.973,-28.809,0.000
1673806244.280,-42.480,-27.344,-34.180,-29.785,0.000
1673806244.284,-30.273,-27.344,-31.250,-23.438,0.000
1673806244.288,-25.879,-16.113,-19.531,-16.602,0.000
1673806244.292,-38.086,-16.602,-20.020,-19.531,0.000
1673806244.296,-54.688,-22.461,-15.625,-20.508,0.000
1673806244.300,-40.527,-27.832,-17.578,-23.438,0.000
1673806244.304,-24.902,-21.484,-24.414,-29.297,0.000
1673806244.308,-25.391,-14.160,-17.090,-25.879,0.000
1673806244.312,-29.297,-19.043,-10.742,-29.785,0.000
1673806244.315,-31.250,-20.020,-11.719,-35.645,0.000
1673806244.319,-16.602,-16.113,-16.113,-15.625,0.000
1673806244.323,-15.625,-25.391,-25.391,-11.719,0.000
1673806244.327,-20.508,-25.879,-24.902,-22.949,0.000
1673806244.331,-19.043,-23.438,-22.949,-20.996,0.000
1673806244.335,-28.320,-24.902,-22.949,-17.090,0.000
1673806244.339,-33.691,-21.484,-18.555,-21.973,0.000
1673806244.343,-24.902,-19.531,-23.926,-17.578,0.000
1673806244.347,-18.555,-19.043,-21.973,-13.184,0.000
1673806244.351,-12.207,-18.555,-19.043,-11.719,0.000
1673806244.354,-14.160,-29.785,-23.926,-10.742,0.000
1673806244.358,-23.438,-33.691,-23.926,-7.324,0.000
1673806244.362,-20.020,-20.996,-23.926,-8.301,0.000
1673806244.366,-29.785,-21.973,-30.762,-19.531,0.000
1673806244.370,-36.621,-20.996,-33.691,-20.996,0.000
1673806244.374,-33.691,-10.254,-32.227,-19.531,0.000
1673806244.378,-28.809,-15.625,-25.879,-20.020,0.000
1673806244.382,-22.949,-27.344,-19.531,-20.996,0.000
1673806244.386,-22.949,-28.809,-24.414,-32.715,0.000
1673806244.390,-20.020,-24.902,-36.133,-33.203,0.000
1673806244.394,-12.207,-27.832,-24.902,-24.902,0.000
1673806244.397,-11.230,-16.602,-27.832,-31.738,0.000
1673806244.401,-15.625,-4.883,-32.227,-44.434,0.000
1673806244.405,-29.297,-18.066,-19.531,-44.922,0.000
1673806244.409,-28.809,-31.738,-19.043,-31.738,0.000
1673806244.413,-13.184,-25.391,-19.043,-22.949,0.000
1673806244.417,-8.789,-8.301,-21.484,-23.926,0.000
1673806244.421,-14.160,-15.137,-21.973,-20.020,0.000
1673806244.425,-17.090,-38.086,-25.391,-17.090,0.000
1673806244.429,-24.414,-32.715,-37.109,-16.602,0.000
1673806244.433,-23.926,-18.066,-29.785,-14.160,0.000
1673806244.437,-25.879,-14.160,-21.973,-15.137,0.000
1673806244.440,-43.457,-17.090,-27.832,-10.254,0.000
1673806244.444,-41.992,-19.043,-22.461,-11.719,0.000
1673806244.448,-34.180,-22.461,-20.020,-20.996,0.000
1673806244.452,-27.344,-25.879,-20.996,-14.648,0.000
1673806244.456,-27.344,-18.555,-16.113,-5.859,0.000
1673806244.460,-30.762,-17.090,-17.578,-8.301,0.000
1673806244.464,-27.832,-27.832,-20.996,-10.254,0.000
1673806244.468,-21.484,-29.297,-22.461,-8.789,0.000
1673806244.472,-22.949,-27.832,-26.367,-15.137,0.000
1673806244.476,-37.109,-29.785,-32.227,-26.367,0.000
1673806244.479,-37.598,-19.531,-22.461,-30.273,0.000
1673806244.483,-26.367,-27.832,-20.508,-29.297,0.000
1673806244.487,-19.531,-25.879,-24.414,-25.391,0.000
1673806244.491,-22.461,-15.625,-17.090,-27.344,0.000
1673806244.495,-28.809,-21.484,-35.645,-33.203,0.000
1673806244.499,-30.273,-17.578,-26.367,-27.832,0.000
1673806244.503,-18.555,-14.648,-1.465,-25.391,0.000
1673806244.507,-4.883,-20.508,-16.602,-20.020,0.000
1673806244.511,-10.742,-22.949,-26.367,-15.137,0.000
1673806244.515,-16.113,-19.531,-13.184,-18.555,0.000
1673806244.519,-12.695,-5.371,-6.348,-15.137,0.000
1673806244.522,-10.742,1.953,-8.789,-7.324,0.000
1673806244.526,-15.137,-9.766,-14.648,-18.066,0.000
1673806244.530,-17.578,-15.137,-19.043,-18.555,0.000
1673806244.534,-10.254,-7.812,-18.066,-5.371,0.000
1673806244.538,-24.414,-11.719,-14.648,-11.719,0.000
1673806244.542,-35.156,-23.926,-14.160,-17.578,0.000
1673806244.546,-26.855,-13.184,-18.066,-7.812,0.000
1673806244.550,-31.250,-10.254,-13.184,-6.348,0.000
1673806244.554,-36.133,-14.160,-9.277,-6.836,0.000
1673806244.558,-25.879,-19.531,-6.836,-4.395,0.000
1673806244.562,-22.461,-29.785,-5.859,-1.953,0.000
1673806244.565,-35.645,-19.043,-16.113,-1.465,0.000
1673806244.569,-38.086,-9.277,-20.508,-0.488,0.000
1673806244.573,-31.738,-6.836,-13.672,7.812,0.000
1673806244.577,-21.973,-10.742,-9.766,5.371,0.000
1673806244.581,-18.066,-15.137,-9.277,-5.859,0.000
1673806244.585,-21.973,-14.648,-9.277,-13.184,0.000
1673806244.589,-17.578,-18.066,-6.348,3.418,0.000
1673806244.593,-15.137,-13.184,-1.465,17.578,0.000
1673806244.597,-18.555,-6.348,-12.695,4.395,0.000
1673806244.601,-6.836,-7.324,-23.926,-6.348,0.000
1673806244.604,-3.418,-20.020,-19.043,-5.371,0.000
1673806244.608,-4.395,-20.020,-13.184,-4.395,0.000
1673806244.612,5.371,-12.695,-16.602,-6.836,0.000
1673806244.616,-0.488,-12.695,-26.855,-9.277,0.000
1673806244.620,-1.953,-15.137,-19.043,-3.418,0.000
1673806244.624,2.441,-19.531,-0.488,5.859,0.000
1673806244.628,4.883,-5.859,7.324,16.113,0.000
1673806244.632,2.930,3.906,9.766,16.602,0.000
1673806244.636,-9.277,-15.625,-7.324,6.348,0.000
1673806244.640,-14.160,-26.855,-20.996,-2.441,0.000
1673806244.644,-9.766,-10.742,-13.672,-4.395,0.000
1673806244.647,-1.953,3.418,-12.695,-16.113,0.000
1673806244.651,-1.465,5.371,-20.020,-27.832,0.000
1673806244.655,-20.020,-1.465,-29.297,-21.973,0.000
1673806244.659,-31.250,-12.695,-28.320,-13.672,0.000
1673806244.663,-28.809,-17.090,-23.926,-13.672,0.000
1673806244.667,-23.438,-15.137,-29.297,-27.344,0.000
1673806244.671,-17.090,-10.254,-27.344,-28.809,0.000
1673806244.675,-13.184,-9.766,-21.484,-11.230,0.000
1673806244.679,-5.371,-11.230,-20.996,1.953,0.000
1673806244.683,-9.277,-9.766,-20.508,1.465,0.000
1673806244.686,-13.672,-15.625,-22.949,-0.488,0.000
1673806244.690,-10.254,-18.555,-31.738,6.348,0.000
1673806244.694,-7.324,-10.254,-29.297,10.254,0.000
1673806244.698,-0.977,-18.066,-16.602,-4.883,0.000
1673806244.702,3.418,-21.484,-15.625,-13.672,0.000
1673806244.706,-5.859,-17.578,-15.137,-7.324,0.000
1673806244.710,-21.484,-21.484,-20.508,-6.836,0.000
1673806244.714,-25.391,-25.879,-37.109,-9.766,0.000
1673806244.718,-22.461,-25.879,-33.691,-4.395,0.000
1673806244.722,-24.414,-23.926,-13.672,1.953,0.000
1673806244.726,-36.133,-22.949,-13.184,-6.836,0.000
1673806244.729,-39.062,-26.855,-25.879,-13.672,0.000
1673806244.733,-33.203,-20.996,-33.203,-23.438,0.000
1673806244.737,-36.133,-18.555,-26.855,-32.227,0.000
1673806244.741,-35.156,-30.273,-19.531,-27.832,0.000
1673806244.745,-30.762,-27.832,-22.461,-29.785,0.000
1673806244.749,-34.668,-26.855,-25.879,-31.250,0.000
1673806244.753,-41.504,-32.715,-22.949,-21.973,0.000
1673806244.757,-41.504,-28.809,-24.902,-16.113,0.000
1673806244.761,-37.109,-16.113,-38.086,-25.879,0.000
1673806244.765,-29.785,-8.301,-27.344,-30.273,0.000
1673806244.769,-17.090,-8.301,-11.230,-26.855,0.000
1673806244.772,-11.719,-12.695,-15.137,-26.367,0.000
1673806244.776,-15.137,-12.207,-23.926,-10.742,0.000
1673806244.780,-3.906,-7.324,-21.484,-4.395,0.000
1673806244.784,0.000,-9.277,-18.066,-7.812,0.000
1673806244.788,-13.184,-12.695,-21.973,-15.625,0.000
1673806244.792,-19.531,-12.207,-23.438,-16.113,0.000
1673806244.796,-10.254,-13.672,-21.484,-9.766,0.000
1673806244.800,-7.324,-31.738,-25.391,-15.625,0.000
1673806244.804,-15.625,-34.180,-34.668,-20.020,0.000
1673806244.808,-17.578,-15.625,-27.832,-21.973,0.000
1673806244.811,-25.391,-13.184,-17.090,-24.414,0.000
1673806244.815,-33.691,-15.625,-21.484,-24.902,0.000
1673806244.819,-33.203,-20.996,-20.020,-34.180,0.000
1673806244.823,-36.133,-31.250,-22.949,-38.086,0.000
1673806244.827,-41.016,-29.785,-22.461,-22.949,0.000
1673806244.831,-42.480,-29.785,-13.672,-17.578,0.000
1673806244.835,-44.922,-25.391,-14.648,-29.785,0.000
1673806244.839,-41.992,-23.438,-17.090,-34.180,0.000
1673806244.843,-37.598,-27.344,-17.578,-32.227,0.000
1673806244.847,-30.762,-18.066,-25.391,-30.273,0.000
1673806244.851,-31.738,-21.484,-25.879,-45.898,0.000
1673806244.854,-31.738,-41.504,-20.020,-41.504,0.000
1673806244.858,-38.086,-40.527,-27.832,-18.066,0.000
1673806244.862,-31.250,-25.879,-15.625,-10.254,0.000
1673806244.866,-17.090,-15.137,-4.395,-13.184,0.000
1673806244.870,-14.160,-14.160,-14.160,-13.184,0.000
1673806244.874,-13.184,-13.672,-21.973,-0.488,0.000
1673806244.878,-20.020,-12.695,-30.762,-6.348,0.000
1673806244.882,-23.438,-23.926,-26.367,-17.090,0.000
1673806244.886,-9.766,-29.297,-13.672,-15.137,0.000
1673806244.890,-9.277,-13.672,-16.113,-11.719,0.000
1673806244.894,-15.137,-14.648,-19.531,-9.766,0.000
1673806244.897,-17.578,-14.648,-26.367,-15.625,0.000
1673806244.901,-21.973,-16.113,-30.273,-16.113,0.000
1673806244.905,-30.762,-20.996,-25.391,-12.695,0.000
1673806244.909,-34.668,-20.996,-22.461,-17.090,0.000
1673806244.913,-32.715,-23.438,-21.484,-23.438,0.000
1673806244.917,-29.297,-20.020,-18.555,-31.738,0.000
1673806244.921,-27.344,-18.555,-21.484,-39.551,0.000
1673806244.925,-41.504,-23.926,-26.855,-37.598,0.000
1673806244.929,-58.594,-23.926,-23.926,-26.855,0.000
1673806244.933,-54.688,-21.973,-23.926,-35.645,0.000
1673806244.936,-48.340,-29.297,-20.996,-40.527,0.000
1673806244.940,-47.852,-34.180,-20.508,-35.156,0.000
1673806244.944,-42.969,-22.461,-26.367,-31.250,0.000
1673806244.948,-31.250,-20.020,-28.320,-28.809,0.000
1673806244.952,-29.785,-32.227,-19.531,-27.832,0.000
1673806244.956,-38.574,-30.273,-20.020,-22.949,0.000
1673806244.960,-38.574,-21.973,-34.180,-11.230,0.000
1673806244.964,-20.508,-11.719,-30.762,0.977,0.000
1673806244.968,-17.090,-10.254,-25.391,-14.160,0.000
1673806244.972,-22.461,-17.090,-26.855,-29.785,0.000
1673806244.976,-10.254,-15.625,-31.250,-20.020,0.000
1673806244.979,-10.742,-7.812,-32.715,-18.066,0.000
1673806244.983,-13.184,-15.137,-31.738,-24.902,0.000
1673806244.987,-3.906,-23.926,-35.156,-22.949,0.000
1673806244.991,-12.207,-16.113,-27.344,-18.066,0.000
1673806244.995,-18.066,-11.719,-23.438,-25.391,0.000
1673806244.999,-14.160,-20.996,-35.156,-34.668,0.000
1673806245.003,-10.742,-28.320,-38.086,-28.320,0.000
1673806245.007,-8.301,-27.832,-26.855,-12.207,0.000
1673806245.011,-17.090,-32.227,-25.879,-8.789,0.000
1673806245.015,-21.973,-27.832,-34.180,-29.785,0.000
1673806245.018,-19.531,-29.297,-32.715,-30.762,0.000
1673806245.022,-15.625,-32.227,-26.367,-16.113,0.000
1673806245.026,-24.902,-38.574,-21.484,-20.020,0.000
1673806245.030,-26.855,-49.316,-20.996,-32.715,0.000
1673806245.034,-14.160,-41.016,-22.461,-35.645,0.000
1673806245.038,-13.672,-29.785,-30.273,-31.738,0.000
1673806245.042,-23.926,-20.996,-22.461,-24.414,0.000
1673806245.046,-39.062,-27.832,-8.301,-24.414,0.000
1673806245.050,-37.109,-45.410,-13.672,-29.297,0.000
1673806245.054,-31.738,-32.715,-15.625,-13.672,0.000
1673806245.058,-42.480,-15.625,-15.137,-9.766,0.000
1673806245.061,-43.457,-13.184,-17.578,-14.160,0.000
1673806245.065,-35.645,-16.602,-23.926,-13.184,0.000
1673806245.069,-28.809,-23.438,-25.391,-9.766,0.000
1673806245.073,-41.992,-31.250,-18.066,-14.648,0.000
1673806245.077,-54.688,-32.227,-13.184,-18.555,0.000
1673806245.081,-46.875,-21.484,-9.277,-20.996,0.000
1673806245.085,-37.109,-14.648,-19.043,-29.785,0.000
1673806245.089,-34.668,-18.066,-22.949,-30.273,0.000
1673806245.093,-35.156,-14.648,-7.812,-29.785,0.000
1673806245.097,-29.785,-15.137,-1.953,-26.855,0.000
1673806245.101,-28.320,-27.832,-13.184,-35.156,0.000
1673806245.104,-32.227,-27.832,-21.973,-46.387,0.000
1673806245.108,-37.598,-18.066,-8.789,-40.527,0.000
1673806245.112,-39.062,-14.160,-3.906,-41.016,0.000
1673806245.116,-37.598,-18.555,-16.113,-39.551,0.000
1673806245.120,-40.039,-28.320,-19.531,-42.969,0.000
1673806245.124,-39.551,-25.879,-22.949,-51.758,0.000
1673806245.128,-44.434,-20.508,-32.715,-57.617,0.000
1673806245.132,-44.922,-22.949,-38.086,-52.734,0.000
1673806245.136,-27.832,-17.090,-33.691,-40.527,0.000
1673806245.140,-27.344,-25.391,-27.344,-35.645,0.000
1673806245.143,-32.715,-24.414,-21.484,-30.762,0.000
1673806245.147,-28.809,-22.949,-19.043,-34.668,0.000
1673806245.151,-27.832,-38.086,-31.738,-35.645,0.000
1673806245.155,-24.414,-31.738,-38.574,-18.555,0.000
1673806245.159,-18.066,-13.672,-26.855,-13.672,0.000
1673806245.163,-16.113,-16.602,-19.531,-23.926,0.000
1673806245.167,-19.531,-37.598,-22.949,-26.367,0.000
1673806245.171,-26.855,-42.480,-34.668,-19.531,0.000
1673806245.175,-26.855,-30.762,-39.551,-12.695,0.000
1673806245.179,-19.531,-14.160,-25.879,-12.695,0.000
1673806245.183,-26.855,-19.531,-13.672,-29.297,0.000
1673806245.186,-37.109,-21.973,-16.602,-37.109,0.000
1673806245.190,-36.133,-11.719,-21.973,-28.320,0.000
1673806245.194,-46.387,-19.043,-27.344,-25.879,0.000
1673806245.198,-43.945,-18.066,-28.320,-28.809,0.000
1673806245.202,-30.762,-20.508,-25.879,-24.414,0.000
1673806245.206,-34.180,-27.344,-25.391,-18.066,0.000
1673806245.210,-33.203,-21.973,-40.039,-20.996,0.000
1673806245.214,-31.250,-30.273,-41.992,-21.973,0.000
1673806245.218,-36.133,-42.480,-19.531,-20.020,0.000
1673806245.222,-45.898,-31.738,-14.160,-13.184,0.000
1673806245.226,-46.875,-26.367,-17.090,-10.742,0.000
1673806245.229,-37.598,-38.574,-21.484,-6.348,0.000
1673806245.233,-28.809,-31.738,-16.602,-0.488,0.000
1673806245.237,-23.438,-13.184,-11.230,0.488,0.000
1673806245.241,-21.973,-25.879,-19.531,-3.418,0.000
1673806245.245,-30.273,-39.551,-17.578,-15.625,0.000
1673806245.249,-30.762,-26.855,-13.184,-12.207,0.000
1673806245.253,-26.855,-29.297,-18.066,-9.277,0.000
1673806245.257,-26.855,-32.227,-9.766,-7.324,0.000
1673806245.261,-19.531,-19.043,0.488,-0.977,0.000
1673806245.265,-15.137,-21.973,-14.160,-2.441,0.000
1673806245.268,-13.672,-32.227,-24.414,-5.859,0.000
1673806245.272,-23.926,-17.090,-13.672,-4.883,0.000
1673806245.276,-27.832,-2.441,-12.695,0.977,0.000
1673806245.280,-17.090,-2.441,-13.672,3.906,0.000
1673806245.284,-14.648,-4.395,-9.277,-10.254,0.000
1673806245.288,-7.324,-14.648,-12.695,-17.578,0.000
1673806245.292,-4.395,-27.832,-15.625,-17.578,0.000
1673806245.296,-23.926,-27.832,-16.113,-27.344,0.000
1673806245.300,-34.180,-23.926,-18.066,-36.133,0.000
1673806245.304,-41.504,-29.297,-21.484,-32.715,0.000
1673806245.308,-57.129,-32.227,-30.762,-19.043,0.000
1673806245.311,-57.129,-23.926,-28.320,-17.578,0.000
1673806245.315,-58.105,-18.066,-27.344,-34.180,0.000
1673806245.319,-66.895,-15.625,-32.715,-38.574,0.000
1673806245.323,-60.059,-17.090,-28.320,-32.227,0.000
1673806245.327,-63.477,-28.809,-28.809,-33.203,0.000
1673806245.331,-67.871,-27.344,-27.344,-40.039,0.000
1673806245.335,-64.941,-22.461,-26.855,-36.621,0.000
1673806245.339,-69.824,-26.855,-34.180,-31.250,0.000
1673806245.343,-78.125,-31.250,-34.668,-37.598,0.000
1673806245.347,-81.055,-33.691,-26.855,-38.086,0.000
1673806245.351,-71.289,-29.297,-23.438,-39.551,0.000
1673806245.354,-64.941,-25.391,-28.809,-33.203,0.000
1673806245.358,-67.383,-29.785,-30.762,-27.344,0.000
1673806245.362,-53.711,-32.227,-20.996,-32.227,0.000
1673806245.366,-35.156,-25.879,-16.113,-39.551,0.000
1673806245.370,-37.598,-17.578,-37.109,-45.410,0.000
1673806245.374,-37.598,-15.625,-43.457,-36.621,0.000
1673806245.378,-30.762,-27.832,-20.020,-30.273,0.000
1673806245.382,-33.691,-23.926,-16.602,-28.809,0.000
1673806245.386,-39.062,-13.672,-22.461,-31.738,0.000
1673806245.390,-38.086,-16.602,-21.484,-23.438,0.000
1673806245.393,-37.109,-22.461,-24.414,-19.043,0.000
1673806245.397,-36.133,-20.020,-32.227,-28.320,0.000
1673806245.401,-45.898,-11.230,-28.809,-24.902,0.000
1673806245.405,-44.922,-7.324,-16.602,-16.602,0.000
1673806245.409,-35.156,-14.648,-18.066,-6.836,0.000
1673806245.413,-36.621,-15.625,-34.180,-12.207,0.000
1673806245.417,-35.156,-8.789,-36.621,-34.180,0.000
1673806245.421,-34.668,-8.301,-22.461,-33.203,0.000
1673806245.425,-35.156,-5.859,-21.973,-9.277,0.000
1673806245.429,-40.039,-11.230,-18.555,-3.418,0.000
1673806245.433,-40.527,-10.742,-11.230,-7.812,0.000
1673806245.436,-30.762,-9.277,-14.160,-12.695,0.000
1673806245.440,-24.902,-12.695,-13.184,-10.254,0.000
1673806245.444,-26.855,-14.160,-10.254,4.395,0.000
1673806245.448,-32.715,-20.508,-12.695,-4.883,0.000
1673806245.452,-28.320,-2.930,-12.695,-10.254,0.000
1673806245.456,-16.602,8.301,-11.719,1.465,0.000
1673806245.460,-13.672,0.977,-14.160,-1.465,0.000
1673806245.464,-18.555,-3.418,-9.766,-1.465,0.000
1673806245.468,-16.602,-14.160,-11.719,8.789,0.000
1673806245.472,-8.301,-21.484,-11.230,8.789,0.000
1673806245.475,-13.184,-9.277,-6.836,7.812,0.000
1673806245.479,-9.277,-3.418,-16.113,9.277,0.000
1673806245.483,3.418,-16.113,-15.625,5.859,0.000
1673806245.487,-9.766,-23.438,0.488,2.930,0.000
1673806245.491,-20.508,-13.184,5.859,4.395,0.000
1673806245.495,-34.180,-9.277,-1.953,3.418,0.000
1673806245.499,-40.039,-14.648,-1.953,-0.488,0.000
1673806245.503,-31.738,-15.137,-5.371,-2.930,0.000
1673806245.507,-32.715,-15.137,-10.742,-5.859,0.000
1673806245.511,-30.762,-25.879,-4.883,-3.906,0.000
1673806245.515,-29.297,-23.438,-23.438,-3.906,0.000
1673806245.518,-28.320,-22.461,-37.598,-2.441,0.000
1673806245.522,-32.715,-30.762,-12.695,-8.301,0.000
1673806245.526,-28.320,-16.113,1.953,-13.184,0.000
1673806245.530,-16.602,-12.207,0.977,-9.766,0.000
1673806245.534,-10.742,-23.438,-1.953,-6.348,0.000
1673806245.538,-11.719,-21.973,-8.301,-2.441,0.000
1673806245.542,-11.719,-10.254,-8.301,-5.371,0.000
1673806245.546,-8.301,-7.812,-12.207,-14.648,0.000
1673806245.550,0.488,-4.883,-13.184,-10.254,0.000
1673806245.554,9.766,-7.324,-14.160,-1.465,0.000
1673806245.558,13.184,-4.395,-13.184,13.184,0.000
1673806245.561,8.789,-2.441,-11.230,10.742,0.000
1673806245.565,11.719,-6.836,-24.414,-2.441,0.000
1673806245.569,16.113,-0.488,-33.691,-7.324,0.000
1673806245.573,12.695,-8.301,-25.879,-12.695,0.000
1673806245.577,4.883,-12.207,-12.695,-5.859,0.000
1673806245.581,-3.906,-9.277,-13.672,-1.953,0.000
1673806245.585,-11.719,-19.043,-23.926,-17.578,0.000
1673806245.589,-16.602,-19.043,-24.414,-28.809,0.000
1673806245.593,-25.391,-14.648,-29.297,-23.438,0.000
1673806245.597,-25.879,-22.949,-37.598,-26.367,0.000
1673806245.600,-25.879,-30.273,-25.391,-34.180,0.000
1673806245.604,-30.273,-13.184,-19.531,-37.109,0.000
1673806245.608,-25.879,-6.836,-21.973,-37.109,0.000
1673806245.612,-23.926,-15.625,-17.090,-43.457,0.000
1673806245.616,-19.531,-10.254,-24.414,-40.527,0.000
1673806245.620,-12.207,-19.531,-40.039,-35.645,0.000
1673806245.624,-26.367,-28.809,-23.926,-30.762,0.000
1673806245.628,-49.805,-19.043,-9.277,-29.785,0.000
1673806245.632,-45.898,-16.113,-17.090,-35.645,0.000
1673806245.636,-33.203,-17.578,-18.066,-35.156,0.000
1673806245.640,-33.203,-26.855,-11.719,-32.715,0.000
1673806245.643,-31.250,-31.738,-13.672,-24.414,0.000
1673806245.647,-23.438,-21.973,-15.137,-22.949,0.000
1673806245.651,-16.113,-20.020,-13.184,-22.949,0.000
1673806245.655,-5.859,-20.020,-13.672,-18.066,0.000
1673806245.659,1.465,-24.414,-26.855,-20.996,0.000
1673806245.663,0.977,-27.832,-29.785,-24.902,0.000
1673806245.667,1.465,-18.555,-30.273,-18.555,0.000
1673806245.671,-7.324,-14.648,-30.273,-7.324,0.000
1673806245.675,-18.066,-15.625,-16.113,-11.719,0.000
1673806245.679,-20.996,-27.832,-19.043,-28.809,0.000
1673806245.683,-21.484,-27.344,-32.715,-37.598,0.000
1673806245.686,-23.926,-18.066,-31.250,-33.691,0.000
1673806245.690,-34.180,-21.973,-21.973,-33.203,0.000
1673806245.694,-29.297,-20.996,-14.648,-29.297,0.000
1673806245.698,-15.625,-14.160,-16.113,-18.555,0.000
1673806245.702,-11.719,-17.578,-18.555,-14.160,0.000
1673806245.706,-24.902,-14.160,-17.090,-16.602,0.000
1673806245.710,-33.203,-14.160,-22.461,-19.043,0.000
1673806245.714,-38.086,-20.508,-17.090,-14.160,0.000
1673806245.718,-40.039,-27.344,-15.625,-12.207,0.000
1673806245.722,-32.227,-24.414,-23.926,-9.277,0.000
1673806245.725,-36.621,-17.578,-24.902,-5.859,0.000
1673806245.729,-39.062,-30.273,-26.855,-5.859,0.000
1673806245.733,-29.297,-30.273,-20.996,-2.930,0.000
1673806245.737,-24.414,-17.578,-14.648,-9.277,0.000
1673806245.741,-31.738,-18.066,-13.672,-10.742,0.000
1673806245.745,-25.879,-19.531,-15.137,-5.859,0.000
1673806245.749,-12.207,-21.973,-20.996,-6.836,0.000
1673806245.753,-14.160,-21.484,-19.531,-12.207,0.000
1673806245.757,-12.695,-14.648,-26.855,-9.277,0.000
1673806245.761,-12.695,-12.695,-28.320,0.000,0.000
1673806245.765,-17.578,-20.020,-13.672,-15.625,0.000
1673806245.768,-17.578,-24.414,-14.648,-21.484,0.000
1673806245.772,-21.484,-16.602,-17.090,-13.184,0.000
1673806245.776,-26.367,-15.625,-15.625,-20.508,0.000
1673806245.780,-18.555,-27.832,-22.949,-24.414,0.000
1673806245.784,-15.137,-35.156,-26.367,-22.461,0.000
1673806245.788,-29.785,-26.367,-25.391,-23.438,0.000
1673806245.792,-32.227,-21.973,-20.020,-28.809,0.000
1673806245.796,-16.113,-29.297,-14.160,-32.227,0.000
1673806245.800,-20.996,-26.367,-10.742,-26.855,0.000
1673806245.804,-31.738,-14.648,-11.719,-25.391,0.000
1673806245.808,-35.156,-16.113,-20.996,-26.367,0.000
1673806245.811,-40.527,-22.949,-27.832,-24.414,0.000
1673806245.815,-39.062,-24.902,-19.043,-26.367,0.000
1673806245.819,-39.062,-24.902,-12.207,-26.367,0.000
1673806245.823,-44.922,-20.508,-19.531,-26.855,0.000
1673806245.827,-51.270,-14.160,-23.438,-26.855,0.000
1673806245.831,-57.129,-15.137,-16.113,-27.832,0.000
1673806245.835,-52.734,-22.949,-16.113,-24.902,0.000
1673806245.839,-58.594,-30.273,-24.414,-21.484,0.000
1673806245.843,-60.059,-34.180,-27.344,-26.855,0.000
1673806245.847,-59.082,-30.273,-27.832,-31.250,0.000
1673806245.850,-64.941,-30.762,-26.367,-33.203,0.000
1673806245.854,-64.453,-33.691,-19.531,-32.227,0.000
1673806245.858,-56.641,-38.086,-16.113,-23.926,0.000
1673806245.862,-53.711,-34.180,-19.043,-27.832,0.000
1673806245.866,-57.129,-33.203,-25.391,-44.434,0.000
1673806245.870,-52.734,-34.180,-23.926,-46.387,0.000
1673806245.874,-49.805,-32.227,-20.508,-36.621,0.000
1673806245.878,-45.898,-32.227,-23.926,-29.297,0.000
1673806245.882,-30.273,-37.598,-31.250,-21.973,0.000
1673806245.886,-24.902,-36.133,-33.691,-20.996,0.000
1673806245.890,-20.996,-33.203,-36.621,-22.949,0.000
1673806245.893,-11.719,-29.297,-31.738,-20.996,0.000
1673806245.897,-23.438,-34.180,-28.809,-27.344,0.000
1673806245.901,-25.879,-33.691,-32.715,-37.109,0.000
1673806245.905,-17.090,-31.250,-32.227,-28.809,0.000
1673806245.909,-22.949,-33.203,-23.926,-19.043,0.000
1673806245.913,-29.297,-29.297,-21.973,-25.879,0.000
1673806245.917,-31.738,-25.879,-25.391,-27.344,0.000
1673806245.921,-30.273,-25.879,-20.508,-24.902,0.000
1673806245.925,-23.438,-27.344,-20.508,-19.531,0.000
1673806245.929,-21.973,-38.086,-20.020,-20.996,0.000
1673806245.933,-31.738,-29.785,-17.578,-22.949,0.000
1673806245.936,-35.156,-20.020,-29.785,-23.438,0.000
1673806245.940,-28.809,-20.508,-36.133,-26.367,0.000
1673806245.944,-32.715,-18.555,-33.203,-27.344,0.000
1673806245.948,-38.086,-20.020,-30.762,-29.785,0.000
1673806245.952,-26.367,-32.715,-26.367,-25.391,0.000
1673806245.956,-25.391,-35.156,-25.391,-19.043,0.000
1673806245.960,-34.668,-22.949,-26.367,-26.367,0.000
1673806245.964,-25.391,-11.719,-25.879,-36.621,0.000
1673806245.968,-22.949,-11.719,-33.691,-38.086,0.000
1673806245.972,-28.320,-17.090,-30.273,-31.738,0.000
1673806245.975,-28.809,-26.367,-26.367,-26.367,0.000
1673806245.979,-29.785,-22.949,-27.344,-30.762,0.000
1673806245.983,-21.973,-18.555,-20.996,-34.668,0.000
1673806245.987,-8.789,-22.949,-24.414,-28.320,0.000
1673806245.991,-8.789,-33.691,-37.109,-23.926,0.000
1673806245.995,-16.602,-29.785,-37.109,-18.555,0.000
1673806245.999,-15.625,-18.555,-32.227,-18.066,0.000
1673806246.003,-17.090,-31.250,-28.809,-27.344,0.000
1673806246.007,-26.367,-29.785,-28.320,-23.926,0.000
1673806246.011,-30.273,-21.973,-23.926,-19.043,0.000
1673806246.015,-28.320,-34.180,-20.508,-30.273,0.000
1673806246.018,-15.625,-41.016,-23.926,-42.969,0.000
1673806246.022,-8.301,-34.180,-30.762,-38.086,0.000
1673806246.026,-23.438,-33.691,-27.344,-25.391,0.000
1673806246.030,-43.457,-29.785,-27.832,-26.367,0.000
1673806246.034,-46.875,-31.250,-30.273,-32.227,0.000
1673806246.038,-42.480,-38.086,-26.855,-32.227,0.000
1673806246.042,-41.992,-28.320,-29.785,-19.043,0.000
1673806246.046,-27.344,-20.996,-26.367,-7.324,0.000
1673806246.050,-19.531,-26.367,-20.996,-14.648,0.000
1673806246.054,-30.273,-29.785,-23.438,-19.043,0.000
1673806246.057,-34.180,-27.832,-26.855,-23.926,0.000
1673806246.061,-30.273,-29.297,-31.250,-37.109,0.000
1673806246.065,-20.996,-36.133,-41.992,-31.738,0.000
1673806246.069,-18.555,-30.762,-36.621,-26.855,0.000
1673806246.073,-16.602,-25.879,-26.855,-22.949,0.000
1673806246.077,-11.230,-26.367,-19.531,-14.648,0.000
1673806246.081,-10.254,-19.043,-22.461,-11.719,0.000
1673806246.085,-6.836,-18.066,-24.414,-12.695,0.000
1673806246.089,-1.953,-11.719,-15.625,-11.230,0.000
1673806246.093,-5.371,-22.461,-25.879,-22.461,0.000
1673806246.097,-12.207,-29.297,-33.691,-32.715,0.000
1673806246.100,-7.812,-22.461,-26.855,-27.344,0.000
1673806246.104,-6.348,-25.391,-30.762,-21.484,0.000
1673806246.108,-15.625,-20.020,-36.621,-21.484,0.000
1673806246.112,-22.949,-21.484,-35.645,-21.973,0.000
1673806246.116,-28.320,-33.203,-32.227,-21.484,0.000
1673806246.120,-29.785,-28.320,-20.996,-21.973,0.000
1673806246.124,-27.832,-21.973,-19.043,-19.043,0.000
1673806246.128,-29.297,-20.020,-18.066,-10.742,0.000
1673806246.132,-31.250,-19.043,-18.555,-4.883,0.000
1673806246.136,-33.691,-26.367,-29.785,-10.254,0.000
1673806246.140,-32.715,-27.344,-30.273,-25.391,0.000
1673806246.143,-25.879,-28.809,-27.344,-28.809,0.000
1673806246.147,-25.391,-21.973,-24.902,-26.367,0.000
1673806246.151,-21.484,-18.555,-26.367,-27.832,0.000
1673806246.155,-25.879,-32.715,-33.691,-23.926,0.000
1673806246.159,-29.297,-36.621,-25.879,-19.531,0.000
1673806246.163,-16.602,-20.020,-10.254,-16.602,0.000
1673806246.167,-18.555,-16.113,-9.766,-11.719,0.000
1673806246.171,-34.180,-27.344,-18.555,-6.836,0.000
1673806246.175,-24.902,-23.438,-23.438,-8.789,0.000
1673806246.179,-18.066,-18.066,-13.672,-8.789,0.000
1673806246.182,-16.602,-20.996,-24.414,-18.066,0.000
1673806246.186,-16.602,-21.973,-37.109,-20.020,0.000
1673806246.190,-25.391,-17.578,-22.461,-19.531,0.000
1673806246.194,-28.320,-25.391,-21.484,-31.250,0.000
1673806246.198,-27.832,-29.785,-20.508,-26.367,0.000
1673806246.202,-30.273,-25.391,-24.414,-26.855,0.000
1673806246.206,-26.367,-37.598,-37.598,-32.715,0.000
1673806246.210,-19.531,-42.480,-32.227,-29.297,0.000
1673806246.214,-18.555,-26.855,-22.949,-27.832,0.000
1673806246.218,-23.926,-17.090,-24.902,-29.297,0.000
1673806246.222,-25.391,-18.555,-28.809,-30.273,0.000
1673806246.225,-25.879,-26.367,-32.715,-21.484,0.000
1673806246.229,-31.250,-33.691,-34.180,-9.277,0.000
1673806246.233,-28.320,-31.250,-33.203,-10.742,0.000
1673806246.237,-26.367,-28.320,-26.855,-10.742,0.000
1673806246.241,-24.902,-31.738,-26.367,-4.395,0.000
1673806246.245,-22.949,-30.273,-39.551,-0.488,0.000
1673806246.249,-28.809,-26.855,-35.156,-6.836,0.000
1673806246.253,-25.879,-29.785,-16.602,-18.066,0.000
1673806246.257,-20.996,-21.973,-11.719,-11.230,0.000
1673806246.261,-20.996,-15.137,-11.719,-5.371,0.000
1673806246.265,-22.949,-22.461,-21.484,-13.184,0.000
1673806246.268,-13.184,-34.180,-32.715,-20.020,0.000
1673806246.272,-13.184,-28.809,-36.621,-25.391,0.000
1673806246.276,-20.996,-24.902,-36.621,-20.996,0.000
1673806246.280,-19.043,-25.879,-24.414,-21.484,0.000
1673806246.284,-14.160,-24.902,-24.902,-22.461,0.000
1673806246.288,-12.207,-28.320,-26.367,-11.719,0.000
1673806246.292,-7.812,-32.715,-20.020,-5.859,0.000
1673806246.296,-6.348,-26.367,-27.832,-10.742,0.000
1673806246.300,4.883,-31.250,-28.320,-1.953,0.000
1673806246.304,11.230,-29.785,-28.809,7.324,0.000
1673806246.307,-8.301,-25.391,-37.109,-1.953,0.000
1673806246.311,-21.973,-41.504,-27.344,-8.789,0.000
1673806246.315,-27.832,-24.414,-11.230,-14.648,0.000
1673806246.319,-29.297,-19.043,-4.395,-15.137,0.000
1673806246.323,-23.438,-21.484,-13.184,-3.418,0.000
1673806246.327,-16.113,-4.883,-21.973,5.371,0.000
1673806246.331,-20.508,-17.578,-14.160,2.441,0.000
1673806246.335,-33.203,-33.203,-14.648,-9.277,0.000
1673806246.339,-26.855,-24.902,-20.508,-11.719,0.000
1673806246.343,-18.066,-21.484,-16.113,-5.859,0.000
1673806246.347,-21.973,-45.898,-27.344,-2.930,0.000
1673806246.350,-27.344,-45.410,-21.973,-11.719,0.000
1673806246.354,-28.320,-21.484,-8.301,-19.531,0.000
1673806246.358,-24.902,-19.531,-11.719,-18.066,0.000
1673806246.362,-30.762,-21.484,-21.484,-23.438,0.000
1673806246.366,-26.855,-27.832,-26.367,-41.016,0.000
1673806246.370,-14.648,-28.320,-25.391,-35.645,0.000
1673806246.374,-16.113,-18.555,-27.344,-12.695,0.000
1673806246.378,-22.461,-18.066,-36.133,-15.625,0.000
1673806246.382,-18.555,-33.203,-34.668,-23.438,0.000
1673806246.386,-18.066,-29.297,-21.484,-20.996,0.000
1673806246.390,-19.043,-12.695,-18.066,-13.184,0.000
1673806246.393,-20.996,-12.695,-24.902,-14.160,0.000
1673806246.397,-20.508,-17.090,-17.578,-17.578,0.000
1673806246.401,-19.531,-16.602,-10.742,-15.137,0.000
1673806246.405,-13.672,-8.301,-18.066,-6.836,0.000
1673806246.409,-14.160,-10.742,-16.602,-0.488,0.000
1673806246.413,-16.113,-26.367,-6.348,-3.906,0.000
1673806246.417,0.977,-3.906,5.371,1.465,0.000
1673806246.421,-11.230,9.766,-7.324,-8.789,0.000
1673806246.425,-20.996,3.418,-14.648,-10.254,0.000
1673806246.429,-15.137,-1.953,-12.695,-8.789,0.000
1673806246.432,-16.602,-4.395,-13.184,-4.883,0.000
1673806246.436,-21.973,-10.254,-14.648,2.930,0.000
1673806246.440,-21.484,-21.484,-14.648,-1.465,0.000
1673806246.444,-19.043,-15.625,-8.789,-4.883,0.000
1673806246.448,-21.484,-6.836,-7.812,-7.812,0.000
1673806246.452,-19.043,-11.719,-8.789,-11.719,0.000
1673806246.456,-7.812,-16.602,-7.324,-3.418,0.000
1673806246.460,-6.348,-7.324,-9.277,-3.906,0.000
1673806246.464,-6.348,-11.230,-14.160,-13.184,0.000
1673806246.468,-15.625,-17.578,-15.137,-23.438,0.000
1673806246.472,-18.555,-3.418,-14.160,-27.344,0.000
1673806246.475,-15.137,-0.488,-12.207,-11.719,0.000
1673806246.479,-17.090,-7.812,-18.555,3.418,0.000
1673806246.483,-15.625,-10.742,-26.855,-14.160,0.000
1673806246.487,-7.324,-13.672,-9.766,-25.391,0.000
1673806246.491,-1.465,-12.207,-1.465,-9.277,0.000
1673806246.495,-7.812,-6.348,-13.184,-4.395,0.000
1673806246.499,-11.230,-16.602,-22.949,-7.324,0.000
1673806246.503,-2.930,-43.945,-17.090,-6.836,0.000
1673806246.507,-3.906,-32.227,-16.602,-7.812,0.000
1673806246.511,-2.930,-1.465,-9.766,0.977,0.000
1673806246.515,-4.883,6.348,-5.371,6.348,0.000
1673806246.518,-24.902,-3.418,-16.602,-9.277,0.000
1673806246.522,-31.738,-13.672,-11.230,-18.066,0.000
1673806246.526,-26.855,-18.066,-2.930,-11.230,0.000
1673806246.530,-22.949,-31.250,-9.277,-19.531,0.000
1673806246.534,-21.973,-31.738,-15.625,-24.902,0.000
1673806246.538,-22.949,-20.020,-23.926,-16.113,0.000
1673806246.542,-26.367,-5.859,-29.297,-20.508,0.000
1673806246.546,-32.715,-8.301,-19.531,-34.180,0.000
1673806246.550,-26.367,-22.461,-15.625,-36.133,0.000
1673806246.554,-19.531,-23.926,-19.043,-30.273,0.000
1673806246.557,-19.043,-21.973,-20.508,-21.484,0.000
1673806246.561,-11.230,-21.484,-13.672,-21.484,0.000
1673806246.565,-6.348,-20.508,-12.695,-33.691,0.000
1673806246.569,6.836,-35.645,-20.508,-31.738,0.000
1673806246.573,0.488,-34.668,-31.250,-30.273,0.000
1673806246.577,-22.949,-23.926,-26.367,-28.809,0.000
1673806246.581,-20.020,-25.879,-22.949,-25.391,0.000
1673806246.585,-10.742,-21.484,-17.578,-21.973,0.000
1673806246.589,-16.113,-24.902,-23.438,-16.113,0.000
1673806246.593,-13.672,-32.715,-27.832,-10.742,0.000
1673806246.597,-6.348,-27.832,-20.020,-7.324,0.000
1673806246.600,-3.418,-15.137,-23.438,-6.348,0.000
1673806246.604,-10.254,-19.043,-29.785,-15.137,0.000
1673806246.608,-11.719,-31.738,-33.691,-15.137,0.000
1673806246.612,-16.602,-35.156,-29.297,-12.695,0.000
1673806246.616,-30.273,-28.809,-19.531,-22.949,0.000
1673806246.620,-25.391,-19.043,-18.066,-24.414,0.000
1673806246.624,-24.902,-23.438,-19.531,-17.578,0.000
1673806246.628,-40.039,-22.949,-19.043,-24.902,0.000
1673806246.632,-37.109,-20.508,-15.137,-35.645,0.000
1673806246.636,-33.691,-48.340,-26.855,-41.016,0.000
1673806246.639,-36.621,-46.387,-36.621,-33.203,0.000
1673806246.643,-28.320,-13.672,-22.949,-10.742,0.000
1673806246.647,-29.297,-9.766,-11.230,-20.508,0.000
1673806246.651,-27.344,-6.836,-11.719,-27.832,0.000
1673806246.655,-23.438,-5.859,-7.324,-17.090,0.000
1673806246.659,-22.949,-32.715,-4.395,-22.461,0.000
1673806246.663,-24.902,-42.480,-25.391,-41.504,0.000
1673806246.667,-26.367,-19.531,-37.109,-47.363,0.000
1673806246.671,-23.438,-22.949,-27.344,-41.504,0.000
1673806246.675,-26.367,-46.875,-34.668,-41.504,0.000
1673806246.679,-41.016,-44.434,-42.969,-36.133,0.000
1673806246.682,-38.086,-21.484,-27.344,-33.691,0.000
1673806246.686,-26.855,-4.883,-12.695,-34.180,0.000
1673806246.690,-31.738,-5.371,-19.043,-36.621,0.000
1673806246.694,-44.434,-22.461,-25.879,-39.551,0.000
1673806246.698,-37.109,-22.949,-23.926,-34.668,0.000
1673806246.702,-25.391,-20.996,-24.902,-29.297,0.000
1673806246.706,-25.879,-25.879,-23.438,-26.367,0.000
1673806246.710,-33.691,-19.531,-22.949,-41.992,0.000
1673806246.714,-34.180,-18.555,-20.996,-51.270,0.000
1673806246.718,-23.438,-22.461,-27.344,-41.504,0.000
1673806246.722,-21.484,-21.973,-37.598,-29.297,0.000
1673806246.725,-17.090,-20.996,-41.016,-26.855,0.000
1673806246.729,-16.602,-15.625,-34.668,-26.855,0.000
1673806246.733,-34.668,-20.020,-28.320,-35.156,0.000
1673806246.737,-39.062,-27.832,-14.160,-42.969,0.000
1673806246.741,-32.715,-16.113,-19.531,-35.645,0.000
1673806246.745,-40.527,-13.184,-33.691,-32.227,0.000
1673806246.749,-39.551,-25.879,-24.414,-32.227,0.000
1673806246.753,-33.691,-27.832,-12.695,-23.926,0.000
1673806246.757,-40.527,-17.090,-23.438,-15.137,0.000
1673806246.761,-41.504,-11.230,-35.156,-25.391,0.000
1673806246.764,-21.973,-21.484,-19.531,-32.715,0.000
1673806246.768,-15.625,-25.879,-15.137,-31.738,0.000
1673806246.772,-24.414,-14.648,-20.508,-29.785,0.000
1673806246.776,-35.645,-18.066,-20.996,-24.414,0.000
1673806246.780,-41.016,-18.066,-19.531,-23.438,0.000
1673806246.784,-25.879,-24.902,-16.113,-12.695,0.000
1673806246.788,-19.531,-27.832,-23.438,-5.859,0.000
1673806246.792,-21.973,-14.648,-19.531,-1.953,0.000
1673806246.796,-19.043,-15.625,-10.742,0.977,0.000
1673806246.800,-20.020,-20.996,-8.301,-10.742,0.000
1673806246.804,-14.160,-20.508,-11.719,-19.043,0.000
1673806246.807,-11.230,-18.066,-17.090,-16.113,0.000
1673806246.811,-15.625,-20.020,-16.113,-16.602,0.000
1673806246.815,-15.137,-27.832,-17.090,-23.926,0.000
1673806246.819,-19.531,-34.668,-23.438,-15.137,0.000
1673806246.823,-24.902,-29.785,-25.391,-7.324,0.000
1673806246.827,-25.391,-15.625,-23.438,-8.789,0.000
1673806246.831,-18.555,-12.207,-18.066,-13.672,0.000
1673806246.835,-20.508,-22.461,-25.391,-27.344,0.000
1673806246.839,-18.555,-18.066,-22.461,-16.113,0.000
1673806246.843,-17.090,-14.160,-11.230,-22.949,0.000
1673806246.847,-28.809,-17.090,-17.578,-35.156,0.000
1673806246.850,-30.273,-19.043,-28.809,-27.344,0.000
1673806246.854,-25.879,-21.973,-20.508,-26.367,0.000
1673806246.858,-23.926,-28.809,-13.672,-27.832,0.000
1673806246.862,-21.973,-33.203,-20.996,-29.785,0.000
1673806246.866,-25.391,-16.113,-32.227,-31.250,0.000
1673806246.870,-32.715,-9.277,-29.785,-28.809,0.000
1673806246.874,-34.668,-19.043,-19.043,-28.320,0.000
1673806246.878,-20.996,-14.160,-25.879,-33.691,0.000
1673806246.882,-10.254,-19.531,-29.785,-26.855,0.000
1673806246.886,-20.996,-21.484,-25.391,-21.973,0.000
1673806246.889,-34.180,-21.973,-30.273,-29.785,0.000
1673806246.893,-42.480,-39.062,-36.621,-34.180,0.000
1673806246.897,-36.133,-35.645,-26.367,-34.180,0.000
1673806246.901,-22.461,-31.250,-16.113,-33.691,0.000
1673806246.905,-18.066,-34.668,-17.090,-25.391,0.000
1673806246.909,-26.855,-31.250,-32.715,-19.043,0.000
1673806246.913,-46.387,-33.203,-48.340,-19.043,0.000
1673806246.917,-55.176,-44.434,-39.551,-23.926,0.000
1673806246.921,-42.969,-29.785,-21.973,-27.344,0.000
1673806246.925,-37.598,-15.137,-25.391,-27.832,0.000
1673806246.929,-44.434,-21.973,-28.320,-29.297,0.000
1673806246.932,-48.828,-32.227,-16.602,-35.156,0.000
1673806246.936,-51.270,-34.668,-20.020,-38.574,0.000
1673806246.940,-43.457,-26.367,-28.320,-39.062,0.000
1673806246.944,-42.969,-28.320,-33.203,-40.527,0.000
1673806246.948,-45.410,-46.387,-24.414,-42.480,0.000
1673806246.952,-18.555,-40.039,-26.855,-37.598,0.000
1673806246.956,-12.695,-6.836,-29.785,-24.902,0.000
1673806246.960,-33.691,-21.484,-21.973,-23.926,0.000
1673806246.964,-24.902,-34.668,-20.020,-27.832,0.000
1673806246.968,-27.832,-27.344,-22.461,-31.738,0.000
1673806246.972,-32.227,-20.996,-20.508,-20.508,0.000
1673806246.975,-26.855,-12.207,-18.066,-13.672,0.000
1673806246.979,-36.133,-25.879,-24.902,-23.926,0.000
1673806246.983,-29.297,-29.297,-35.156,-27.832,0.000
1673806246.987,-24.414,-28.809,-27.832,-22.949,0.000
1673806246.991,-47.363,-62.012,-26.855,-20.508,0.000
1673806246.995,-41.504,-54.199,-25.879,-20.508,0.000
1673806246.999,-9.277,-19.043,-9.277,-9.277,0.000
1673806247.003,-6.836,-17.090,-20.508,-12.207,0.000
1673806247.007,-18.066,-17.578,-28.320,-24.414,0.000
1673806247.011,-22.949,-24.414,-33.691,-22.461,0.000
1673806247.014,-25.391,-31.250,-27.344,-16.602,0.000
1673806247.018,-21.973,-31.250,-12.207,-20.020,0.000
1673806247.022,-32.715,-33.691,-14.648,-26.855,0.000
1673806247.026,-37.109,-23.926,-16.113,-24.414,0.000
1673806247.030,-32.227,-23.438,-23.438,-23.438,0.000
1673806247.034,-36.133,-27.832,-26.367,-19.043,0.000
1673806247.038,-37.109,-25.879,-24.902,-18.066,0.000
1673806247.042,-39.062,-32.715,-25.391,-29.297,0.000
1673806247.046,-38.086,-40.527,-20.996,-35.156,0.000
1673806247.050,-37.109,-33.691,-22.949,-32.715,0.000
1673806247.054,-37.598,-18.555,-21.484,-32.715,0.000
1673806247.057,-37.598,-12.695,-27.344,-23.438,0.000
1673806247.061,-38.086,-18.555,-27.344,-20.996,0.000
1673806247.065,-34.180,-18.555,-15.137,-21.484,0.000
1673806247.069,-30.762,-19.043,-18.555,-12.207,0.000
1673806247.073,-23.438,-21.973,-22.949,-9.277,0.000
1673806247.077,-24.902,-26.367,-25.391,-13.184,0.000
1673806247.081,-33.691,-21.484,-20.508,-14.160,0.000
1673806247.085,-33.203,-20.508,-24.414,-24.902,0.000
1673806247.089,-20.996,-15.625,-31.250,-27.832,0.000
1673806247.093,-27.344,-11.230,-28.320,-28.320,0.000
1673806247.097,-29.297,-19.043,-23.926,-26.855,0.000
1673806247.100,-21.973,-20.020,-23.926,-21.484,0.000
1673806247.104,-26.367,-14.648,-34.668,-16.602,0.000
1673806247.108,-22.461,-29.785,-26.855,-15.625,0.000
1673806247.112,-13.184,-43.457,-14.648,-15.625,0.000
1673806247.116,-20.020,-25.391,-15.625,-19.043,0.000
1673806247.120,-35.645,-12.207,-20.508,-28.809,0.000
1673806247.124,-32.715,-20.020,-18.555,-28.320,0.000
1673806247.128,-24.902,-21.484,-19.531,-26.855,0.000
1673806247.132,-35.645,-16.602,-28.809,-28.320,0.000
1673806247.136,-42.969,-18.555,-25.879,-36.133,0.000
1673806247.139,-37.598,-28.320,-19.043,-28.320,0.000
1673806247.143,-36.621,-30.762,-14.648,-19.531,0.000
1673806247.147,-37.598,-23.438,-21.484,-23.926,0.000
1673806247.151,-38.574,-13.184,-24.414,-22.949,0.000
1673806247.155,-43.945,-25.391,-21.484,-19.531,0.000
1673806247.159,-44.434,-36.621,-22.461,-14.648,0.000
1673806247.163,-36.133,-36.133,-18.555,-11.719,0.000
1673806247.167,-29.785,-28.320,-22.949,-25.879,0.000
1673806247.171,-32.715,-16.113,-21.484,-31.738,0.000
1673806247.175,-34.668,-24.902,-21.973,-23.438,0.000
1673806247.179,-32.227,-28.320,-39.062,-14.160,0.000
1673806247.182,-31.250,-27.832,-29.297,-16.113,0.000
1673806247.186,-35.156,-23.926,-14.648,-30.762,0.000
1673806247.190,-31.738,-20.020,-24.902,-42.480,0.000
1673806247.194,-17.090,-22.461,-34.180,-35.645,0.000
1673806247.198,-12.207,-27.344,-41.992,-31.738,0.000
1673806247.202,-17.090,-32.715,-38.086,-30.762,0.000
1673806247.206,-12.695,-32.715,-27.344,-25.391,0.000
1673806247.210,-16.602,-24.902,-23.438,-19.531,0.000
1673806247.214,-16.602,-21.973,-20.996,-15.137,0.000
1673806247.218,-21.973,-32.227,-26.855,-27.832,0.000
1673806247.221,-26.855,-32.715,-28.809,-43.945,0.000
1673806247.225,-17.578,-25.879,-22.949,-39.062,0.000
1673806247.229,-13.184,-27.832,-20.020,-26.855,0.000
1673806247.233,-20.996,-26.367,-29.297,-22.949,0.000
1673806247.237,-37.598,-28.809,-33.203,-22.461,0.000
1673806247.241,-40.527,-28.809,-22.949,-27.344,0.000
1673806247.245,-34.668,-23.926,-23.438,-37.598,0.000
1673806247.249,-37.598,-27.344,-28.809,-41.016,0.000
1673806247.253,-31.250,-17.090,-32.715,-25.879,0.000
1673806247.257,-17.578,-4.395,-18.066,-5.859,0.000
1673806247.261,-29.785,-17.578,-14.160,-9.766,0.000
1673806247.264,-29.785,-24.414,-25.391,-25.391,0.000
1673806247.268,-14.160,-17.578,-18.066,-31.250,0.000
1673806247.272,-10.742,-22.461,-13.672,-25.391,0.000
1673806247.276,-19.043,-28.809,-21.973,-16.602,0.000
1673806247.280,-32.715,-21.484,-23.438,-23.926,0.000
1673806247.284,-35.645,-15.625,-18.555,-30.273,0.000
1673806247.288,-28.320,-21.973,-26.367,-26.367,0.000
1673806247.292,-22.949,-26.367,-30.762,-20.508,0.000
1673806247.296,-19.043,-27.832,-16.113,-20.996,0.000
1673806247.300,-19.531,-23.926,-14.648,-23.926,0.000
1673806247.304,-14.648,-13.184,-18.555,-21.484,0.000
1673806247.307,-18.555,-13.672,-24.414,-18.555,0.000
1673806247.311,-28.809,-17.090,-36.133,-20.996,0.000
1673806247.315,-21.484,-21.484,-21.484,-20.508,0.000
1673806247.319,-23.438,-27.832,-15.625,-20.996,0.000
1673806247.323,-30.273,-20.508,-21.973,-18.555,0.000
1673806247.327,-33.203,-18.555,-20.508,-13.184,0.000
1673806247.331,-36.133,-23.926,-18.555,-15.625,0.000
1673806247.335,-26.367,-26.855,-17.090,-14.648,0.000
1673806247.339,-31.738,-19.043,-20.508,-22.461,0.000
1673806247.343,-43.457,-22.461,-25.391,-30.762,0.000
1673806247.346,-32.227,-34.180,-32.227,-18.066,0.000
1673806247.350,-23.438,-28.320,-23.438,-19.531,0.000
1673806247.354,-31.250,-22.461,-14.160,-30.762,0.000
1673806247.358,-32.227,-23.438,-20.020,-18.066,0.000
1673806247.362,-31.250,-25.879,-23.926,-7.324,0.000
1673806247.366,-26.367,-31.738,-21.484,-19.043,0.000
1673806247.370,-26.367,-39.062,-18.066,-25.391,0.000
1673806247.374,-27.344,-35.156,-24.414,-22.949,0.000
1673806247.378,-19.531,-15.137,-13.672,-6.348,0.000
1673806247.382,-18.066,-7.812,-5.859,-2.930,0.000
1673806247.386,-20.020,-17.578,-14.160,-15.137,0.000
1673806247.389,-17.090,-10.742,-14.648,-11.230,0.000
1673806247.393,-4.883,-10.742,-18.555,-5.859,0.000
1673806247.397,-4.395,-23.438,-25.879,-6.836,0.000
1673806247.401,-16.113,-32.715,-14.648,-11.719,0.000
1673806247.405,-22.949,-23.438,-14.160,-9.766,0.000
1673806247.409,-24.902,-7.324,-11.719,-2.930,0.000
1673806247.413,-23.438,-12.207,-12.695,-10.254,0.000
1673806247.417,-15.625,-19.043,-25.879,-14.648,0.000
1673806247.421,-6.836,-21.484,-30.273,-6.348,0.000
1673806247.425,-12.207,-16.113,-20.996,-10.254,0.000
1673806247.429,-20.020,-7.812,-24.414,-27.832,0.000
1673806247.432,-21.484,-14.160,-35.645,-36.621,0.000
1673806247.436,-13.672,-7.812,-14.160,-20.996,0.000
1673806247.440,-3.418,5.859,-1.953,-6.348,0.000
1673806247.444,-12.695,-1.465,-11.230,-20.020,0.000
1673806247.448,-20.996,-8.789,-19.043,-28.320,0.000
1673806247.452,-18.555,-13.672,-23.926,-28.320,0.000
1673806247.456,-11.230,-25.879,-21.484,-31.250,0.000
1673806247.460,-5.371,-18.555,-19.531,-26.367,0.000
1673806247.464,-8.301,0.488,-12.207,-15.625,0.000
1673806247.468,-7.812,4.883,-7.812,-11.719,0.000
1673806247.471,-5.371,-9.277,-7.812,-9.277,0.000
1673806247.475,-13.184,-17.090,-14.648,-8.301,0.000
1673806247.479,-22.461,-2.930,-17.578,3.906,0.000
1673806247.483,-30.762,-0.977,-10.254,4.395,0.000
1673806247.487,-32.227,-8.789,-6.348,0.000,0.000
1673806247.491,-24.414,-11.230,-10.254,-11.230,0.000
1673806247.495,-13.184,-8.301,-14.648,-22.461,0.000
1673806247.499,-3.418,-10.742,-11.719,-18.555,0.000
1673806247.503,-5.859,-26.855,-9.766,-20.996,0.000
1673806247.507,-8.301,-29.785,-16.113,-16.602,0.000
1673806247.511,-13.184,-22.461,-22.949,-7.324,0.000
1673806247.514,-10.254,-13.184,-13.184,-11.230,0.000
1673806247.518,-18.066,-12.207,-9.277,-23.438,0.000
1673806247.522,-20.996,-20.508,-11.230,-20.508,0.000
1673806247.526,-12.207,-36.133,-12.207,-14.648,0.000
1673806247.530,-13.184,-33.691,-30.273,-17.578,0.000
1673806247.534,-8.301,0.488,-21.973,-13.184,0.000
1673806247.538,-12.207,1.953,-2.930,-17.090,0.000
1673806247.542,-21.973,-20.996,-13.672,-20.508,0.000
1673806247.546,-26.855,-20.020,-21.973,-18.555,0.000
1673806247.550,-20.996,-17.090,-21.973,-16.602,0.000
1673806247.554,-16.113,-17.578,-27.832,-17.090,0.000
1673806247.557,-25.879,-16.602,-21.484,-4.395,0.000
1673806247.561,-41.016,-22.461,-17.578,-4.395,0.000
1673806247.565,-36.621,-19.531,-31.250,-18.066,0.000
1673806247.569,-24.414,-13.184,-35.156,-8.301,0.000
1673806247.573,-23.438,-20.996,-31.250,-11.230,0.000
1673806247.577,-29.297,-28.320,-30.762,-15.137,0.000
1673806247.581,-24.414,-24.902,-30.273,-9.277,0.000
1673806247.585,-19.043,-14.648,-27.832,-18.066,0.000
1673806247.589,-26.367,-13.184,-19.043,-15.137,0.000
1673806247.593,-15.625,-20.020,-21.484,-6.348,0.000
1673806247.596,-12.695,-34.668,-32.715,-3.906,0.000
1673806247.600,-8.301,-16.113,-29.297,1.465,0.000
1673806247.604,4.395,4.883,-14.648,8.301,0.000
1673806247.608,-12.207,-7.324,-3.418,5.859,0.000
1673806247.612,-18.066,-10.254,-8.789,2.930,0.000
1673806247.616,-14.648,-15.137,-20.508,-1.953,0.000
1673806247.620,-22.949,-22.461,-18.555,-10.254,0.000
1673806247.624,-26.367,-20.996,-24.902,-9.766,0.000
1673806247.628,-22.949,-23.926,-29.297,-1.465,0.000
1673806247.632,-18.555,-20.996,-26.367,1.953,0.000
1673806247.636,-20.996,-30.273,-24.902,-12.207,0.000
1673806247.639,-35.645,-36.133,-29.785,-23.926,0.000
1673806247.643,-39.551,-18.066,-31.250,-18.555,0.000
1673806247.647,-28.320,-13.184,-23.926,-17.578,0.000
1673806247.651,-25.391,-23.438,-24.902,-20.508,0.000
1673806247.655,-29.785,-23.926,-28.809,-11.719,0.000
1673806247.659,-34.180,-13.672,-29.785,0.977,0.000
1673806247.663,-38.574,-15.625,-29.785,-2.441,0.000
1673806247.667,-42.480,-22.949,-28.320,-25.391,0.000
1673806247.671,-34.180,-25.391,-29.785,-30.762,0.000
1673806247.675,-37.109,-52.246,-29.785,-29.297,0.000
1673806247.679,-38.574,-32.715,-19.531,-29.297,0.000
1673806247.682,-25.391,0.488,-11.230,-23.926,0.000
1673806247.686,-25.879,-11.719,-20.508,-29.785,0.000
1673806247.690,-27.832,-16.113,-22.949,-26.855,0.000
1673806247.694,-27.344,-3.906,-21.973,-17.090,0.000
1673806247.698,-38.086,-5.371,-33.691,-32.227,0.000
