timestamp,TP9,AF7,AF8,TP10,Right AUX
0.000,-30.273,108.887,-293.945,-50.781,0.000
4.000,-39.062,469.727,-203.613,0.977,0.000
8.000,-46.875,-31.738,-365.234,-5.859,0.000
12.000,-43.457,-255.371,-353.516,-64.941,0.000
16.000,-34.180,108.398,-290.039,-62.988,0.000
19.000,-23.438,119.629,-300.293,1.953,0.000
23.000,-29.785,-170.410,-372.070,17.578,0.000
27.000,-47.852,-773.926,-588.867,-39.551,0.000
31.000,-41.504,-292.480,-398.438,-74.219,0.000
35.000,-22.949,464.844,-177.246,-22.461,0.000
39.000,-35.645,312.988,-281.738,15.137,0.000
43.000,-49.805,22.949,-367.676,-28.320,0.000
47.000,-32.715,119.629,-346.680,-69.824,0.000
51.000,-15.137,341.309,-284.180,-40.039,0.000
55.000,-26.855,228.516,-299.316,5.859,0.000
59.000,-40.527,110.840,-333.496,-16.113,0.000
62.000,-43.945,2.930,-384.766,-67.383,0.000
66.000,-29.297,-118.164,-397.949,-49.805,0.000
70.000,-30.273,-250.000,-380.371,7.324,0.000
74.000,-48.340,-388.672,-383.301,14.160,0.000
78.000,-46.387,-107.422,-319.336,-37.598,0.000
82.000,-33.691,131.348,-297.852,-60.059,0.000
86.000,-23.926,-100.098,-429.688,-3.906,0.000
90.000,-30.273,78.125,-313.477,15.625,0.000
94.000,-36.133,313.477,-255.859,-34.180,0.000
98.000,-20.508,72.266,-344.238,-59.570,0.000
102.000,-7.812,-194.824,-336.426,-14.648,0.000
105.000,-22.949,161.621,-255.371,20.020,0.000
109.000,-37.598,296.875,-281.250,-18.555,0.000
113.000,-24.414,-276.367,-449.707,-65.430,0.000
117.000,-6.836,-836.426,-587.891,-24.414,0.000
121.000,-24.414,-335.449,-359.863,26.855,0.000
125.000,-54.199,232.910,-234.375,-1.953,0.000
129.000,-52.734,47.852,-400.391,-56.641,0.000
133.000,-32.227,3.906,-333.984,-39.551,0.000
137.000,-27.344,288.086,-240.234,5.371,0.000
141.000,-42.480,337.891,-293.457,-0.977,0.000
145.000,-45.410,-12.695,-409.668,-37.598,0.000
148.000,-24.902,-32.715,-355.957,-50.293,0.000
152.000,-21.484,357.910,-249.023,-26.367,0.000
156.000,-42.480,217.773,-339.844,-0.977,0.000
160.000,-59.082,-292.969,-474.121,-37.109,0.000
164.000,-51.270,-500.488,-492.188,-74.219,0.000
168.000,-33.203,-79.102,-307.617,-31.250,0.000
172.000,-39.062,359.375,-246.094,14.160,0.000
176.000,-51.270,-303.711,-531.738,-9.766,0.000
180.000,-42.969,-417.969,-474.121,-62.988,0.000
184.000,-32.227,271.484,-249.512,-50.781,0.000
188.000,-34.668,356.934,-254.395,0.977,0.000
191.000,-44.922,-434.082,-548.828,-14.648,0.000
195.000,-44.922,-425.781,-473.145,-72.754,0.000
199.000,-25.391,256.836,-261.230,-62.500,0.000
203.000,-18.555,296.875,-282.715,0.977,0.000
207.000,-37.109,-235.840,-368.164,2.930,0.000
211.000,-44.922,-321.777,-367.188,-53.223,0.000
215.000,-30.762,102.539,-288.086,-61.035,0.000
219.000,-20.020,1.953,-328.125,-4.883,0.000
223.000,-28.320,-107.422,-310.547,21.484,0.000
227.000,-39.551,115.723,-284.180,-32.715,0.000
230.000,-28.320,57.617,-361.328,-74.707,0.000
234.000,-4.395,-184.570,-372.559,-40.039,0.000
238.000,-7.324,-77.148,-271.973,5.859,0.000
242.000,-35.156,249.023,-258.301,-20.996,0.000
246.000,-32.715,191.406,-335.938,-65.918,0.000
250.000,-13.672,-96.191,-369.629,-31.250,0.000
254.000,-16.602,-178.223,-354.492,23.926,0.000
258.000,-37.109,-153.809,-352.051,-0.488,0.000
262.000,-43.457,-261.230,-417.969,-63.965,0.000
266.000,-27.344,-370.605,-480.469,-55.664,0.000
270.000,-15.625,27.344,-291.992,6.348,0.000
273.000,-23.926,442.871,-200.195,13.184,0.000
277.000,-32.715,199.707,-339.355,-41.016,0.000
281.000,-33.203,-492.676,-547.852,-60.547,0.000
285.000,-23.926,-246.582,-368.652,-18.555,0.000
289.000,-27.344,190.918,-260.742,16.113,0.000
293.000,-41.504,0.000,-391.602,-17.578,0.000
297.000,-31.250,-181.152,-395.508,-59.570,0.000
301.000,-16.113,-197.754,-377.930,-20.508,0.000
305.000,-25.391,76.172,-307.129,24.414,0.000
309.000,-43.457,74.219,-349.121,-6.348,0.000
312.000,-44.434,-300.781,-422.852,-56.641,0.000
316.000,-31.250,91.797,-299.805,-44.434,0.000
320.000,-26.367,502.930,-222.168,6.348,0.000
324.000,-40.527,64.941,-372.559,3.906,0.000
328.000,-37.598,-523.926,-451.660,-42.480,0.000
332.000,-13.672,-7.324,-310.547,-57.129,0.000
336.000,-10.254,397.461,-253.906,-17.578,0.000
340.000,-41.016,106.934,-341.797,-12.695,0.000
344.000,-62.988,-196.777,-434.082,-68.848,0.000
348.000,-47.363,-278.809,-434.082,-91.309,0.000
352.000,-40.039,-133.789,-356.934,-46.875,0.000
355.000,-49.316,-208.984,-405.273,-9.766,0.000
359.000,-51.270,-125.488,-376.953,-36.621,0.000
363.000,-48.340,209.473,-302.246,-68.359,0.000
367.000,-41.992,319.824,-278.809,-35.156,0.000
371.000,-43.945,-174.805,-470.215,10.254,0.000
375.000,-56.152,-231.934,-400.879,-18.066,0.000
379.000,-57.129,186.035,-299.316,-68.848,0.000
383.000,-34.180,188.477,-298.340,-57.129,0.000
387.000,-25.879,110.352,-218.262,-2.930,0.000
391.000,-53.711,219.727,-247.070,-10.742,0.000
395.000,-55.176,-89.355,-384.277,-65.918,0.000
398.000,-30.762,-455.078,-416.992,-67.383,0.000
402.000,-20.020,-291.504,-285.156,-8.789,0.000
406.000,-28.809,209.473,-226.562,1.953,0.000
410.000,-36.621,323.730,-296.387,-45.898,0.000
414.000,-30.273,-129.395,-446.289,-68.848,0.000
418.000,-22.461,-538.574,-419.434,-23.926,0.000
422.000,-31.738,138.672,-228.516,9.277,0.000
426.000,-47.363,306.641,-319.336,-31.250,0.000
430.000,-39.062,-207.031,-441.895,-69.336,0.000
434.000,-21.973,46.387,-285.156,-38.086,0.000
437.000,-18.066,296.875,-232.422,0.977,0.000
441.000,-27.832,-47.852,-370.605,-10.742,0.000
445.000,-37.598,-507.324,-487.793,-59.082,0.000
449.000,-20.020,-311.523,-356.445,-60.547,0.000
453.000,-12.695,302.246,-198.242,-2.441,0.000
457.000,-32.715,116.211,-332.520,2.441,0.000
461.000,-41.016,-525.391,-577.148,-46.875,0.000
465.000,-24.414,-342.285,-412.109,-54.199,0.000
469.000,-11.719,377.930,-200.684,0.977,0.000
473.000,-21.973,346.191,-263.184,34.180,0.000
477.000,-40.527,-83.984,-341.797,-23.926,0.000
480.000,-39.062,41.992,-323.730,-73.730,0.000
484.000,-27.344,379.395,-238.770,-26.367,0.000
488.000,-28.809,38.574,-326.660,20.020,0.000
492.000,-43.945,-464.355,-404.785,-13.184,0.000
496.000,-43.457,-85.938,-329.102,-61.035,0.000
500.000,-18.555,381.836,-242.676,-38.574,0.000
504.000,-16.113,180.664,-322.266,7.812,0.000
508.000,-37.598,-463.379,-446.289,-6.348,0.000
512.000,-44.922,-251.465,-400.879,-60.547,0.000
516.000,-30.762,73.242,-341.797,-56.641,0.000
520.000,-20.996,142.090,-294.922,0.000,0.000
523.000,-31.250,149.414,-306.152,10.254,0.000
527.000,-34.180,131.348,-353.516,-45.410,0.000
531.000,-34.668,108.887,-351.074,-77.148,0.000
535.000,-30.762,-73.730,-381.348,-19.531,0.000
539.000,-36.621,-247.559,-431.152,13.184,0.000
543.000,-47.363,-193.359,-395.020,-43.457,0.000
547.000,-31.738,8.301,-383.789,-82.520,0.000
551.000,-12.695,-338.867,-507.812,-32.227,0.000
555.000,-21.484,-377.930,-371.582,20.996,0.000
559.000,-37.598,214.844,-261.719,-9.277,0.000
563.000,-34.180,130.859,-378.906,-56.152,0.000
566.000,-24.414,-237.793,-407.227,-41.992,0.000
570.000,-27.344,-54.199,-316.895,16.602,0.000
574.000,-45.410,340.332,-255.371,0.488,0.000
578.000,-48.828,115.234,-395.996,-61.035,0.000
582.000,-27.832,-445.801,-443.848,-58.594,0.000
586.000,-17.578,-167.480,-285.156,-6.348,0.000
590.000,-32.715,397.461,-221.191,1.953,0.000
594.000,-43.945,40.039,-416.504,-40.527,0.000
598.000,-29.297,-648.926,-560.547,-48.340,0.000
602.000,-20.996,-22.949,-300.781,-5.371,0.000
605.000,-33.691,412.109,-229.980,25.879,0.000
609.000,-45.898,-10.254,-384.277,-6.348,0.000
613.000,-40.527,-146.484,-401.367,-60.059,0.000
617.000,-14.160,208.008,-278.320,-37.109,0.000
621.000,-11.230,332.520,-265.137,29.785,0.000
625.000,-28.809,-104.980,-409.668,6.348,0.000
629.000,-38.086,-417.480,-469.727,-57.617,0.000
633.000,-28.320,-231.445,-362.793,-42.480,0.000
637.000,-26.367,53.223,-284.668,11.230,0.000
641.000,-47.363,-356.445,-469.238,5.371,0.000
645.000,-49.316,-593.750,-451.172,-39.062,0.000
648.000,-33.203,152.344,-258.789,-49.805,0.000
652.000,-22.461,379.883,-253.906,1.465,0.000
656.000,-35.645,20.996,-367.188,18.066,0.000
660.000,-49.316,16.113,-368.164,-44.922,0.000
664.000,-36.133,195.312,-321.777,-83.008,0.000
668.000,-22.461,216.797,-292.480,-39.062,0.000
672.000,-27.344,-14.160,-289.551,8.789,0.000
676.000,-36.621,-345.703,-407.715,-22.949,0.000
680.000,-32.715,-336.914,-389.648,-64.941,0.000
684.000,-14.160,-202.148,-352.539,-34.668,0.000
688.000,-6.348,-632.324,-503.906,23.926,0.000
691.000,-22.949,-169.922,-335.938,3.906,0.000
695.000,-33.203,232.422,-304.199,-57.129,0.000
699.000,-24.902,-12.207,-415.527,-53.223,0.000
703.000,-30.273,151.367,-293.945,2.441,0.000
707.000,-43.457,325.684,-259.766,1.465,0.000
711.000,-40.039,179.688,-357.910,-46.387,0.000
715.000,-30.273,-110.840,-400.879,-50.781,0.000
719.000,-18.066,-36.133,-333.984,3.906,0.000
723.000,-27.832,-9.277,-345.703,29.297,0.000
727.000,-44.922,-254.395,-430.176,-27.832,0.000
731.000,-22.949,-423.828,-497.559,-60.059,0.000
734.000,4.395,-135.254,-333.496,-8.789,0.000
738.000,-12.695,184.082,-218.262,29.297,0.000
742.000,-41.504,221.680,-296.387,-14.160,0.000
746.000,-40.039,-437.988,-576.660,-64.453,0.000
750.000,-32.715,-424.316,-387.695,-35.645,0.000
754.000,-35.645,399.902,-147.949,11.230,0.000
758.000,-47.852,296.387,-281.738,-12.695,0.000
762.000,-62.500,-131.348,-342.285,-67.871,0.000
766.000,-53.223,101.562,-304.199,-60.547,0.000
770.000,-46.875,162.598,-282.227,-6.836,0.000
774.000,-68.848,-190.430,-364.746,15.137,0.000
777.000,-78.125,-767.578,-604.492,-32.715,0.000
781.000,-62.012,-297.852,-401.367,-73.242,0.000
785.000,-43.457,459.473,-179.199,-11.719,0.000
789.000,-46.875,233.887,-330.566,28.809,0.000
793.000,-60.547,-232.422,-401.855,-24.902,0.000
797.000,-52.246,-37.598,-339.355,-57.617,0.000
801.000,-33.203,363.770,-241.211,-11.719,0.000
805.000,-45.410,210.449,-300.781,28.809,0.000
809.000,-65.918,55.664,-342.773,2.441,0.000
813.000,-52.246,130.859,-337.402,-36.133,0.000
816.000,-28.320,-29.297,-383.301,-16.113,0.000
820.000,-23.926,-265.137,-414.551,38.574,0.000
824.000,-41.016,-273.438,-377.930,21.973,0.000
828.000,-32.715,71.289,-333.984,-42.969,0.000
832.000,-22.949,210.449,-334.473,-40.527,0.000
836.000,-30.762,-146.484,-476.562,10.254,0.000
840.000,-46.387,-63.965,-366.211,20.508,0.000
844.000,-54.199,245.605,-289.062,-31.250,0.000
848.000,-37.109,-60.059,-425.781,-53.223,0.000
852.000,-21.973,-128.906,-339.355,-6.836,0.000
856.000,-30.273,309.082,-246.582,22.949,0.000
859.000,-42.480,304.688,-306.641,-14.648,0.000
863.000,-25.879,-281.738,-464.844,-57.617,0.000
867.000,-4.395,-820.801,-583.984,-24.902,0.000
871.000,-14.160,-123.047,-318.848,24.414,0.000
875.000,-30.273,373.535,-252.930,0.488,0.000
879.000,-29.785,-20.996,-434.570,-62.988,0.000
883.000,-20.020,-46.875,-339.844,-47.363,0.000
887.000,-10.254,345.215,-213.379,10.254,0.000
891.000,-28.809,355.957,-281.250,8.301,0.000
895.000,-44.434,-92.773,-409.668,-45.410,0.000
899.000,-26.367,-86.426,-354.492,-61.523,0.000
902.000,-16.602,249.512,-255.371,-5.371,0.000
906.000,-33.691,16.602,-346.191,24.414,0.000
910.000,-39.551,-366.699,-466.309,-21.973,0.000
914.000,-26.855,-474.609,-459.473,-58.594,0.000
918.000,-12.207,-131.836,-292.969,-15.625,0.000
922.000,-23.926,276.855,-248.535,15.137,0.000
926.000,-39.551,-311.035,-521.973,-35.645,0.000
930.000,-26.367,-606.445,-470.215,-79.590,0.000
934.000,-7.324,208.984,-241.699,-44.922,0.000
938.000,-14.160,354.980,-271.484,7.324,0.000
942.000,-41.504,-105.469,-377.930,-6.836,0.000
945.000,-42.969,-54.199,-375.488,-55.176,0.000
949.000,-26.855,247.070,-305.664,-39.062,0.000
953.000,-29.785,255.371,-285.645,8.301,0.000
957.000,-37.598,-266.113,-357.910,0.977,0.000
961.000,-47.852,-485.352,-435.059,-59.082,0.000
965.000,-38.574,-65.430,-302.734,-73.242,0.000
969.000,-30.273,120.117,-282.715,-15.137,0.000
973.000,-45.410,-438.477,-452.637,16.113,0.000
977.000,-50.781,-156.250,-351.562,-36.133,0.000
981.000,-38.086,196.777,-309.082,-75.195,0.000
985.000,-21.484,89.355,-313.965,-36.133,0.000
988.000,-20.996,196.777,-238.770,6.348,0.000
992.000,-38.086,254.395,-267.578,-20.996,0.000
996.000,-38.086,120.117,-344.727,-58.594,0.000
1000.000,-15.137,-59.082,-354.004,-33.691,0.000
1004.000,-13.672,-185.059,-352.539,17.090,0.000
1008.000,-52.734,-226.562,-354.980,-6.348,0.000
1012.000,-53.223,-257.324,-410.645,-69.824,0.000
1016.000,-29.785,-560.059,-526.367,-64.453,0.000
1020.000,-28.809,-507.812,-366.699,-3.906,0.000
1024.000,-43.457,214.355,-234.375,9.277,0.000
1027.000,-43.945,141.113,-376.465,-41.016,0.000
1031.000,-20.508,-243.652,-449.219,-57.129,0.000
1035.000,-10.254,141.602,-278.320,-10.742,0.000
1039.000,-20.020,434.570,-203.125,13.184,0.000
1043.000,-38.574,125.488,-340.332,-33.691,0.000
1047.000,-36.133,-196.777,-363.770,-61.523,0.000
1051.000,-18.066,-195.801,-348.145,-23.926,0.000
1055.000,-24.902,-1.465,-296.387,11.719,0.000
1059.000,-45.410,-19.043,-352.051,-24.414,0.000
1063.000,-37.109,-743.652,-597.656,-68.359,0.000
1066.000,-0.488,-193.359,-340.332,-37.109,0.000
1070.000,-9.766,393.555,-198.730,20.996,0.000
1074.000,-45.410,-60.547,-371.582,-3.418,0.000
1078.000,-42.969,-81.055,-366.211,-66.406,0.000
1082.000,-29.297,191.895,-312.988,-64.453,0.000
1086.000,-31.738,308.105,-277.832,-7.324,0.000
1090.000,-50.781,73.730,-324.707,10.742,0.000
1094.000,-55.664,-90.332,-375.977,-45.898,0.000
1098.000,-33.691,-206.543,-421.387,-62.988,0.000
1102.000,-20.996,-95.215,-346.191,-19.043,0.000
1106.000,-29.297,-258.789,-405.762,16.602,0.000
1109.000,-36.133,-546.875,-426.758,-20.508,0.000
1113.000,-27.344,49.316,-305.664,-66.406,0.000
1117.000,-13.672,295.898,-268.066,-24.414,0.000
1121.000,-23.438,79.102,-353.027,26.855,0.000
1125.000,-41.016,86.426,-373.535,-7.812,0.000
1129.000,-30.762,-23.438,-390.137,-59.082,0.000
1133.000,-11.719,-29.297,-369.141,-33.691,0.000
1137.000,-19.043,46.875,-292.969,21.484,0.000
1141.000,-24.902,162.109,-318.848,5.859,0.000
1145.000,-26.855,-166.504,-459.473,-57.129,0.000
1149.000,-20.508,-423.828,-475.098,-52.246,0.000
1152.000,-13.672,-453.125,-442.871,6.836,0.000
1156.000,-32.227,96.680,-298.340,7.324,0.000
1160.000,-45.898,323.242,-295.410,-40.039,0.000
1164.000,-34.668,-40.039,-419.922,-55.176,0.000
1168.000,-23.926,-70.801,-330.566,-5.859,0.000
1172.000,-28.320,288.086,-245.605,27.832,0.000
1176.000,-39.551,298.828,-316.406,-17.578,0.000
1180.000,-24.902,-139.648,-442.871,-59.082,0.000
1184.000,-5.371,-396.484,-422.852,-31.738,0.000
1188.000,-15.625,-44.434,-294.922,9.766,0.000
1191.000,-27.832,-53.223,-369.629,-12.207,0.000
1195.000,-25.391,-515.625,-504.395,-57.129,0.000
1199.000,-21.973,-510.254,-405.762,-28.320,0.000
1203.000,-18.555,281.250,-218.262,14.160,0.000
1207.000,-27.832,424.316,-290.039,-9.277,0.000
1211.000,-46.875,-187.012,-533.691,-61.523,0.000
1215.000,-38.086,-62.012,-395.508,-62.988,0.000
1219.000,-20.508,380.859,-218.750,-12.207,0.000
1223.000,-29.785,284.668,-269.531,3.906,0.000
1227.000,-47.363,-149.414,-354.004,-43.945,0.000
1231.000,-39.062,-38.086,-351.562,-70.801,0.000
1234.000,-22.461,305.664,-244.141,-25.391,0.000
1238.000,-29.785,-71.777,-334.473,17.578,0.000
1242.000,-51.270,-822.754,-591.797,-12.695,0.000
1246.000,-50.781,-443.848,-423.828,-67.871,0.000
1250.000,-26.367,293.945,-228.516,-55.664,0.000
1254.000,-26.855,261.719,-292.969,-9.766,0.000
1258.000,-56.152,19.531,-314.941,-20.508,0.000
1262.000,-59.082,86.914,-323.730,-66.895,0.000
1266.000,-34.180,252.441,-296.387,-46.387,0.000
1270.000,-25.391,162.109,-292.969,17.578,0.000
1274.000,-40.039,19.043,-304.199,9.766,0.000
1277.000,-51.270,126.953,-302.734,-47.363,0.000
1281.000,-44.434,91.797,-346.191,-67.383,0.000
1285.000,-34.668,-154.785,-384.766,-16.113,0.000
1289.000,-46.387,-238.281,-376.953,12.207,0.000
1293.000,-53.711,-165.039,-365.234,-29.297,0.000
1297.000,-26.855,-229.004,-439.453,-61.035,0.000
1301.000,-4.883,-342.773,-478.516,-16.113,0.000
1305.000,-12.695,44.922,-327.148,22.949,0.000
1309.000,-24.902,312.012,-277.832,-18.555,0.000
1313.000,-26.855,72.266,-395.996,-58.594,0.000
1317.000,-10.254,-441.406,-545.410,-27.344,0.000
1320.000,-8.789,-134.277,-334.961,10.254,0.000
1324.000,-32.715,390.625,-227.051,-14.160,0.000
1328.000,-34.668,36.133,-414.551,-54.199,0.000
1332.000,-17.090,-458.984,-437.500,-32.715,0.000
1336.000,-18.066,-159.180,-326.172,13.184,0.000
1340.000,-40.527,328.613,-271.973,10.742,0.000
1344.000,-42.969,2.441,-407.227,-36.133,0.000
1348.000,-22.949,-399.902,-429.199,-55.176,0.000
1352.000,-9.277,-77.148,-333.008,-6.348,0.000
1356.000,-21.973,184.570,-266.113,32.715,0.000
1360.000,-38.574,-72.754,-364.746,-0.977,0.000
1363.000,-29.785,-398.926,-414.062,-41.016,0.000
1367.000,-23.926,99.121,-251.465,-7.324,0.000
1371.000,-33.691,393.066,-233.887,23.926,0.000
1375.000,-48.828,-47.363,-375.488,-18.555,0.000
1379.000,-44.922,-453.125,-465.332,-65.430,0.000
1383.000,-26.367,-292.969,-375.000,-35.645,0.000
1387.000,-29.297,68.359,-250.000,8.789,0.000
1391.000,-41.504,-112.793,-387.207,-16.113,0.000
1395.000,-38.086,-208.008,-407.227,-68.359,0.000
1399.000,-25.391,160.645,-288.574,-63.965,0.000
1402.000,-23.438,339.844,-256.836,-6.348,0.000
1406.000,-39.062,-337.891,-523.926,14.648,0.000
1410.000,-53.223,-568.359,-484.863,-48.828,0.000
1414.000,-36.621,99.609,-290.039,-85.449,0.000
1418.000,-10.254,258.789,-291.016,-29.785,0.000
1422.000,-26.367,78.125,-266.602,11.230,0.000
1426.000,-36.621,-166.504,-370.117,-22.461,0.000
1430.000,-26.367,-193.848,-410.645,-65.430,0.000
1434.000,-22.949,16.113,-332.031,-26.367,0.000
1438.000,-34.668,-27.344,-269.531,22.461,0.000
1442.000,-49.316,100.098,-295.410,-11.230,0.000
1445.000,-44.922,190.918,-345.703,-61.523,0.000
1449.000,-27.832,-55.664,-392.578,-45.898,0.000
1453.000,-18.555,-375.977,-372.559,14.648,0.000
1457.000,-20.020,130.859,-273.438,19.531,0.000
1461.000,-23.438,185.547,-375.977,-40.039,0.000
1465.000,-26.367,-182.129,-420.410,-56.641,0.000
1469.000,-29.785,-17.578,-325.195,-17.578,0.000
1473.000,-36.621,-25.879,-356.445,-8.301,0.000
1477.000,-48.828,-274.902,-451.660,-49.805,0.000
1481.000,-43.945,-569.336,-495.605,-62.012,0.000
1484.000,-22.461,-220.703,-329.102,-21.973,0.000
1488.000,-30.762,404.785,-195.312,8.789,0.000
1492.000,-41.504,297.363,-301.270,-23.438,0.000
1496.000,-33.203,-457.520,-584.961,-65.430,0.000
1500.000,-17.090,-332.031,-387.695,-27.344,0.000
1504.000,-20.020,447.754,-171.387,20.020,0.000
1508.000,-34.180,219.727,-332.031,-21.973,0.000
1512.000,-32.715,-217.773,-388.184,-77.637,0.000
1516.000,-22.461,18.066,-316.406,-55.176,0.000
1520.000,-18.066,124.512,-291.504,5.371,0.000
1524.000,-26.367,-204.590,-386.230,11.230,0.000
1527.000,-31.250,-432.129,-393.066,-41.016,0.000
1531.000,-16.113,35.156,-284.668,-55.176,0.000
1535.000,-1.465,454.102,-218.262,-16.113,0.000
1539.000,-15.137,147.461,-337.891,-4.883,0.000
1543.000,-50.781,-564.453,-494.629,-41.016,0.000
1547.000,-50.293,-132.812,-345.215,-78.125,0.000
1551.000,-33.691,367.676,-243.652,-53.223,0.000
1555.000,-37.109,143.066,-308.594,-10.742,0.000
1559.000,-43.457,59.082,-351.074,-40.527,0.000
1563.000,-39.551,13.184,-404.297,-84.473,0.000
1567.000,-26.855,-160.156,-414.062,-54.688,0.000
1570.000,-29.297,-248.047,-398.926,1.953,0.000
1574.000,-41.992,-334.473,-393.066,-5.859,0.000
1578.000,-41.504,-196.289,-400.879,-58.105,0.000
1582.000,-21.973,169.922,-341.797,-59.570,0.000
1586.000,-17.578,-147.949,-463.379,2.930,0.000
1590.000,-41.504,-259.277,-384.766,8.789,0.000
1594.000,-37.109,212.891,-257.324,-47.852,0.000
1598.000,-16.113,181.152,-314.453,-65.430,0.000
1602.000,-21.973,4.395,-318.848,-25.879,0.000
1606.000,-33.691,254.883,-251.953,2.930,0.000
1610.000,-40.527,286.133,-288.574,-39.062,0.000
1613.000,-41.016,-267.578,-430.176,-66.406,0.000
1617.000,-31.250,-406.738,-346.680,-17.578,0.000
1621.000,-39.062,170.410,-210.938,14.160,0.000
1625.000,-56.152,409.180,-244.629,-21.973,0.000
1629.000,-48.828,-70.312,-439.941,-67.383,0.000
1633.000,-25.879,-707.031,-534.668,-43.457,0.000
1637.000,-28.320,-13.672,-266.602,11.719,0.000
1641.000,-56.152,363.770,-256.836,-10.742,0.000
1645.000,-55.664,-204.590,-448.730,-63.477,0.000
1649.000,-25.391,-298.828,-406.738,-49.805,0.000
1652.000,-16.113,163.574,-251.953,-13.672,0.000
1656.000,-29.785,156.250,-317.871,-14.648,0.000
1660.000,-43.945,-427.734,-500.000,-54.688,0.000
1664.000,-35.156,-594.238,-492.188,-76.660,0.000
1668.000,-27.344,-145.508,-303.711,-46.875,0.000
1672.000,-33.203,297.363,-251.953,-21.484,0.000
1676.000,-43.457,-310.059,-520.020,-56.152,0.000
1680.000,-37.109,-630.371,-470.703,-94.727,0.000
1684.000,-8.789,229.980,-212.402,-59.082,0.000
1688.000,-20.996,331.055,-281.738,-14.648,0.000
1692.000,-57.617,-129.395,-398.438,-52.246,0.000
1695.000,-57.617,-84.961,-364.258,-90.332,0.000
1699.000,-31.738,308.594,-251.953,-70.801,0.000
1703.000,-26.367,334.473,-254.395,-35.156,0.000
1707.000,-29.785,-267.578,-383.301,-35.156,0.000
1711.000,-25.391,-376.953,-438.477,-79.102,0.000
1715.000,-20.020,170.898,-323.730,-72.266,0.000
1719.000,-10.742,185.059,-340.332,-12.207,0.000
1723.000,-24.414,-556.641,-541.016,20.020,0.000
1727.000,-41.016,-219.238,-401.855,-21.973,0.000
1731.000,-25.879,230.469,-293.945,-66.895,0.000
1735.000,-7.812,101.074,-340.820,-21.484,0.000
1738.000,-18.555,144.531,-281.738,28.809,0.000
1742.000,-41.992,143.555,-296.387,-29.297,0.000
1746.000,-40.527,-144.043,-418.945,-81.543,0.000
1750.000,-14.648,-218.262,-390.137,-39.062,0.000
1754.000,-11.719,-108.887,-313.477,14.160,0.000
1758.000,-28.809,-177.246,-358.887,-10.254,0.000
1762.000,-15.625,-244.629,-419.922,-55.176,0.000
1766.000,-5.859,-457.520,-500.977,-42.969,0.000
1770.000,-13.672,-487.793,-340.332,5.371,0.000
1774.000,-26.367,263.672,-191.406,-9.277,0.000
1777.000,-33.203,271.484,-340.332,-64.941,0.000
1781.000,-12.207,-298.340,-535.645,-62.500,0.000
1785.000,0.000,103.516,-317.383,-20.996,0.000
1789.000,-14.648,531.738,-213.867,3.418,0.000
1793.000,-23.438,176.758,-370.605,-20.508,0.000
1797.000,-8.789,-234.863,-401.367,-54.199,0.000
1801.000,4.883,-143.555,-376.465,-17.090,0.000
1805.000,-7.812,12.207,-338.379,23.926,0.000
1809.000,-15.625,-250.000,-425.781,-7.324,0.000
1813.000,-23.438,-815.918,-640.137,-50.293,0.000
1817.000,-21.484,-224.121,-379.395,-28.809,0.000
1820.000,-15.137,509.277,-194.336,10.742,0.000
1824.000,-31.250,210.938,-361.816,-4.883,0.000
1828.000,-35.156,-7.324,-377.441,-50.781,0.000
1832.000,-16.113,258.301,-262.207,-28.809,0.000
1836.000,-6.348,427.734,-235.840,24.414,0.000
1840.000,-20.508,149.414,-348.145,20.508,0.000
1844.000,-27.832,-151.367,-383.789,-38.574,0.000
1848.000,-11.719,-269.531,-409.180,-53.223,0.000
1852.000,-0.488,-111.328,-366.211,-1.953,0.000
1856.000,-11.719,-318.848,-440.918,19.531,0.000
1860.000,-20.996,-590.820,-445.312,-25.879,0.000
1863.000,-14.648,52.734,-278.320,-52.246,0.000
1867.000,1.953,354.492,-249.512,2.441,0.000
1871.000,-10.742,38.086,-358.887,22.461,0.000
1875.000,-35.645,54.199,-329.102,-27.344,0.000
1879.000,-32.715,202.637,-310.547,-75.684,0.000
1883.000,-10.254,144.043,-329.590,-63.477,0.000
1887.000,-5.371,34.668,-286.621,-10.254,0.000
1891.000,-20.996,89.844,-319.336,-15.137,0.000
1895.000,-24.902,-169.434,-441.895,-70.312,0.000
1899.000,-13.184,-355.957,-461.914,-55.176,0.000
1902.000,-13.672,-707.031,-552.734,21.484,0.000
1906.000,-33.203,-353.516,-373.047,23.926,0.000
1910.000,-39.551,109.863,-330.078,-38.574,0.000
1914.000,-16.113,-184.082,-427.734,-42.480,0.000
1918.000,4.395,67.383,-279.785,7.324,0.000
1922.000,-0.977,450.684,-210.938,18.555,0.000
1926.000,-20.508,311.523,-315.430,-19.531,0.000
1930.000,-16.602,-86.426,-413.086,-46.387,0.000
1934.000,-2.441,99.609,-289.551,-11.719,0.000
1938.000,-17.578,316.406,-262.207,35.645,0.000
1942.000,-33.203,-40.039,-398.926,10.742,0.000
1945.000,-26.367,-533.203,-530.762,-48.340,0.000
1949.000,-16.113,-476.074,-405.762,-34.180,0.000
1953.000,-17.090,312.500,-202.148,24.414,0.000
1957.000,-29.297,350.586,-288.086,16.602,0.000
1961.000,-28.809,-182.129,-501.465,-41.504,0.000
1965.000,-13.672,-39.551,-379.883,-47.852,0.000
1969.000,-1.465,203.125,-262.207,4.395,0.000
1973.000,-11.230,207.520,-298.340,9.277,0.000
1977.000,-37.109,-50.293,-362.305,-50.293,0.000
1981.000,-38.086,46.387,-333.496,-67.871,0.000
1985.000,-17.090,376.953,-224.121,-18.555,0.000
1988.000,-24.414,38.086,-342.285,17.090,0.000
1992.000,-38.086,-759.277,-603.027,-16.602,0.000
1996.000,-28.320,-374.023,-430.664,-64.941,0.000
2000.000,-12.207,343.750,-227.051,-36.133,0.000
2004.000,-16.602,257.324,-293.945,20.508,0.000
2008.000,-31.738,62.012,-315.918,-7.812,0.000
2012.000,-30.762,97.656,-321.289,-66.406,0.000
2016.000,-18.066,212.402,-305.176,-45.410,0.000
2020.000,-15.137,114.258,-329.590,13.184,0.000
2024.000,-28.320,-149.414,-382.812,-3.906,0.000
2028.000,-42.480,-79.102,-351.074,-67.871,0.000
2031.000,-28.809,36.621,-330.078,-64.453,0.000
2035.000,-14.648,-147.461,-333.984,3.906,0.000
2039.000,-25.879,-312.012,-375.977,18.555,0.000
2043.000,-38.574,-255.371,-382.324,-30.762,0.000
2047.000,-30.273,99.609,-311.523,-52.734,0.000
2051.000,-16.113,-258.301,-454.102,-11.230,0.000
2055.000,-29.785,-464.355,-365.723,18.555,0.000
2059.000,-39.551,102.539,-253.418,-19.043,0.000
2063.000,-29.785,77.148,-375.977,-60.547,0.000
2067.000,-10.742,-85.449,-375.000,-37.109,0.000
2071.000,-12.695,260.742,-240.723,11.230,0.000
2074.000,-31.738,374.512,-250.000,-2.441,0.000
2078.000,-29.785,20.508,-364.258,-63.965,0.000
2082.000,-18.555,-317.383,-375.977,-59.082,0.000
2086.000,-16.602,-226.074,-333.984,-10.742,0.000
2090.000,-35.645,115.234,-246.582,-15.625,0.000
2094.000,-54.199,-22.949,-373.535,-64.941,0.000
2098.000,-42.969,-796.387,-604.980,-71.777,0.000
2102.000,-31.738,-171.387,-306.641,-28.809,0.000
2106.000,-47.852,497.070,-175.293,0.488,0.000
2110.000,-56.641,98.145,-353.516,-46.875,0.000
2114.000,-39.551,-130.859,-386.230,-92.285,0.000
2117.000,-21.484,61.035,-277.832,-51.270,0.000
2121.000,-32.715,361.328,-230.957,-2.441,0.000
2125.000,-47.363,20.020,-376.465,-28.809,0.000
2129.000,-39.551,-426.758,-472.168,-74.219,0.000
2133.000,-25.391,-324.707,-385.254,-47.363,0.000
2137.000,-24.902,27.344,-277.344,8.301,0.000
2141.000,-29.785,-282.715,-438.965,-4.395,0.000
2145.000,-22.461,-588.867,-447.266,-58.105,0.000
2149.000,-10.254,175.781,-227.051,-61.035,0.000
2153.000,-2.441,389.648,-248.047,-2.930,0.000
2156.000,-9.766,8.301,-398.438,20.508,0.000
2160.000,-26.367,28.809,-362.305,-28.320,0.000
2164.000,-31.738,196.777,-301.758,-46.875,0.000
2168.000,-31.738,211.426,-283.691,-0.977,0.000
2172.000,-50.293,-5.371,-297.852,23.438,0.000
2176.000,-58.594,-266.113,-410.645,-18.555,0.000
2180.000,-44.922,-155.273,-353.516,-58.594,0.000
2184.000,-25.391,101.562,-300.293,-32.227,0.000
2188.000,-26.855,-504.395,-516.602,9.766,0.000
2192.000,-46.875,-418.457,-442.871,-19.043,0.000
2195.000,-42.480,48.340,-326.660,-73.730,0.000
2199.000,-25.391,95.703,-347.656,-55.176,0.000
2203.000,-27.344,208.984,-264.648,-5.859,0.000
2207.000,-47.852,270.508,-264.160,-17.578,0.000
2211.000,-54.199,128.906,-351.074,-68.359,0.000
2215.000,-29.297,-25.391,-367.188,-69.824,0.000
2219.000,-17.578,41.016,-307.617,-10.254,0.000
2223.000,-37.598,-50.781,-346.191,19.043,0.000
2227.000,-52.734,-293.945,-440.918,-30.273,0.000
2231.000,-38.086,-527.832,-499.023,-67.871,0.000
2235.000,-21.484,-505.859,-374.023,-20.508,0.000
2238.000,-28.809,233.398,-220.215,15.137,0.000
2242.000,-39.062,285.156,-326.172,-21.484,0.000
2246.000,-37.598,-340.332,-511.719,-68.848,0.000
2250.000,-24.414,-200.195,-357.422,-41.992,0.000
2254.000,-26.367,424.805,-194.824,9.277,0.000
2258.000,-44.922,284.180,-331.055,-1.465,0.000
2262.000,-46.387,-197.754,-425.781,-51.270,0.000
2266.000,-22.461,17.090,-337.891,-37.598,0.000
2270.000,-13.672,178.711,-285.156,20.508,0.000
2274.000,-29.297,-137.695,-402.832,8.301,0.000
2278.000,-29.297,-764.648,-640.137,-41.992,0.000
2281.000,-10.742,-333.984,-408.203,-50.781,0.000
2285.000,0.488,431.152,-206.055,-5.859,0.000
2289.000,-31.250,261.719,-341.309,9.766,0.000
2293.000,-59.570,-39.551,-384.277,-41.992,0.000
2297.000,-42.480,121.582,-336.914,-70.312,0.000
2301.000,-27.832,260.742,-297.363,-26.367,0.000
2305.000,-29.297,17.578,-344.238,11.719,0.000
2309.000,-38.574,-10.742,-348.145,-20.020,0.000
2313.000,-28.809,92.773,-350.098,-62.500,0.000
2317.000,-12.207,-52.734,-370.605,-47.363,0.000
2321.000,-11.230,-320.312,-416.992,6.836,0.000
2324.000,-28.320,-445.312,-412.109,-3.906,0.000
2328.000,-40.039,-64.453,-337.402,-68.848,0.000
2332.000,-27.832,255.371,-296.387,-58.594,0.000
2336.000,-25.391,-28.809,-414.062,8.789,0.000
2340.000,-32.227,-41.992,-361.816,4.395,0.000
2344.000,-35.156,221.680,-298.828,-53.223,0.000
2348.000,-40.039,116.699,-356.934,-52.734,0.000
2352.000,-30.273,-113.770,-390.625,0.000,0.000
2356.000,-38.574,131.348,-302.246,14.648,0.000
2360.000,-44.922,120.605,-359.375,-30.273,0.000
2364.000,-28.809,-345.215,-489.258,-56.152,0.000
2367.000,-20.508,-709.961,-550.293,-8.301,0.000
2371.000,-34.668,-74.707,-319.824,26.855,0.000
2375.000,-47.852,319.336,-260.742,0.977,0.000
2379.000,-43.457,-59.570,-418.457,-42.969,0.000
2383.000,-17.090,-123.047,-329.102,-21.973,0.000
2387.000,-16.602,279.785,-201.660,26.855,0.000
2391.000,-41.992,374.512,-243.652,2.441,0.000
2395.000,-38.086,-81.543,-395.020,-47.852,0.000
2399.000,-13.672,-76.172,-329.102,-37.109,0.000
2403.000,-9.277,297.852,-214.355,23.438,0.000
2406.000,-24.902,159.180,-307.129,28.320,0.000
2410.000,-35.156,-416.992,-468.750,-31.738,0.000
2414.000,-23.926,-622.070,-448.242,-43.945,0.000
2418.000,-9.766,-289.551,-346.191,3.906,0.000
2422.000,-27.344,-10.742,-326.172,26.855,0.000
2426.000,-45.898,-314.453,-490.723,-7.324,0.000
2430.000,-30.273,-327.637,-436.035,-48.340,0.000
2434.000,-10.254,189.453,-234.863,-8.301,0.000
2438.000,-14.160,315.918,-253.418,44.434,0.000
2442.000,-40.527,-394.531,-541.504,3.418,0.000
2446.000,-41.992,-458.984,-470.215,-55.176,0.000
2449.000,-23.438,185.547,-267.578,-41.504,0.000
2453.000,-36.133,217.285,-279.785,16.602,0.000
2457.000,-48.340,-388.672,-399.902,15.625,0.000
2461.000,-44.922,-447.266,-406.250,-44.922,0.000
2465.000,-33.691,154.785,-272.949,-50.781,0.000
2469.000,-27.344,92.285,-326.172,0.488,0.000
2473.000,-39.062,-359.863,-404.785,11.230,0.000
2477.000,-49.316,-97.168,-358.398,-37.109,0.000
2481.000,-35.156,179.688,-332.031,-59.082,0.000
2485.000,-12.207,18.066,-365.234,-10.254,0.000
2489.000,-29.297,-285.156,-365.234,15.625,0.000
2492.000,-56.152,-36.133,-324.707,-24.414,0.000
2496.000,-45.898,116.699,-347.656,-62.988,0.000
2500.000,-21.973,-61.523,-342.285,-21.973,0.000
2504.000,-24.414,-230.957,-353.516,35.645,0.000
2508.000,-42.480,-247.559,-369.141,-4.883,0.000
2512.000,-37.598,-263.184,-422.852,-65.918,0.000
2516.000,-10.742,-271.973,-418.457,-36.621,0.000
2520.000,1.465,63.965,-273.438,15.137,0.000
2524.000,-31.250,274.414,-269.043,-14.648,0.000
2528.000,-50.781,-72.266,-431.152,-66.895,0.000
2532.000,-33.691,-531.250,-560.059,-63.477,0.000
2535.000,-19.043,-254.883,-357.422,-3.418,0.000
2539.000,-40.527,226.562,-246.582,20.020,0.000
2543.000,-62.988,45.410,-369.141,-32.227,0.000
2547.000,-44.434,-254.395,-378.418,-53.223,0.000
2551.000,-22.949,-211.426,-334.961,-29.785,0.000
2555.000,-31.250,122.559,-253.906,-1.465,0.000
2559.000,-42.969,49.805,-348.145,-27.344,0.000
2563.000,-38.086,-402.832,-410.156,-76.172,0.000
2567.000,-27.344,135.742,-229.492,-48.340,0.000
2571.000,-33.691,626.465,-191.406,3.418,0.000
2574.000,-49.316,152.832,-395.996,-15.137,0.000
2578.000,-49.316,-556.641,-526.855,-67.383,0.000
2582.000,-26.855,-107.910,-346.680,-51.758,0.000
2586.000,-18.555,258.789,-259.277,18.066,0.000
2590.000,-42.969,162.109,-322.754,21.484,0.000
2594.000,-45.410,5.859,-380.859,-43.457,0.000
2598.000,-26.855,-136.230,-388.672,-61.035,0.000
2602.000,-24.902,-80.078,-354.980,-12.695,0.000
2606.000,-39.062,-157.227,-358.398,2.930,0.000
2610.000,-54.199,-127.441,-328.125,-44.922,0.000
2613.000,-50.293,180.176,-274.902,-71.289,0.000
2617.000,-25.391,391.113,-223.633,-29.785,0.000
2621.000,-28.809,-48.828,-399.902,13.672,0.000
2625.000,-56.641,-231.934,-373.047,-23.438,0.000
2629.000,-48.340,180.176,-285.645,-68.359,0.000
2633.000,-18.555,248.535,-285.645,-33.691,0.000
2637.000,-19.043,63.965,-282.227,12.695,0.000
2641.000,-42.480,-89.355,-368.164,-13.672,0.000
2645.000,-52.734,-200.195,-406.250,-74.707,0.000
2649.000,-33.691,-273.438,-388.184,-62.500,0.000
2653.000,-36.621,-191.895,-303.223,-15.625,0.000
2656.000,-69.336,168.457,-247.559,-36.621,0.000
2660.000,-81.543,288.086,-306.152,-91.797,0.000
2664.000,-72.266,-53.711,-410.645,-98.633,0.000
2668.000,-72.754,-482.422,-432.129,-54.688,0.000
2672.000,-89.355,62.500,-264.160,-46.875,0.000
2676.000,-104.492,260.742,-300.293,-105.469,0.000
2680.000,-99.121,-92.773,-412.598,-148.926,0.000
2684.000,-89.844,106.445,-285.156,-117.188,0.000
2688.000,-106.934,336.914,-242.188,-79.590,0.000
2692.000,-127.930,-138.184,-402.344,-120.605,0.000
2696.000,-124.023,-519.043,-480.957,-164.062,0.000
2699.000,-113.281,-460.938,-394.043,-139.160,0.000
2703.000,-105.469,25.879,-234.863,-70.801,0.000
2707.000,-107.422,322.754,-284.180,-71.289,0.000
2711.000,-100.586,-338.379,-558.105,-129.395,0.000
2715.000,-87.891,-379.883,-423.828,-120.117,0.000
2719.000,-84.473,407.227,-198.730,-57.617,0.000
2723.000,-89.355,378.418,-290.039,-47.852,0.000
2727.000,-83.984,-162.598,-437.012,-83.984,0.000
2731.000,-62.012,-49.316,-372.070,-97.168,0.000
2735.000,-41.016,340.820,-263.672,-49.805,0.000
2739.000,-50.293,-61.035,-386.719,-16.113,0.000
2742.000,-67.871,-512.207,-461.914,-56.641,0.000
2746.000,-47.852,-149.414,-392.578,-80.078,0.000
2750.000,-24.902,101.562,-310.547,-38.086,0.000
2754.000,-26.367,-54.199,-321.777,0.000,0.000
2758.000,-45.410,-561.523,-469.727,-30.762,0.000
2762.000,-45.898,-133.789,-349.609,-78.613,0.000
2766.000,-19.531,391.113,-221.680,-44.434,0.000
2770.000,-12.695,217.285,-292.480,17.578,0.000
2774.000,-23.438,102.539,-307.617,17.090,0.000
2778.000,-20.020,193.359,-295.410,-23.926,0.000
2782.000,-0.488,143.555,-314.941,-29.297,0.000
2785.000,5.859,-95.703,-333.496,14.648,0.000
2789.000,-11.719,-215.820,-357.910,13.184,0.000
2793.000,-24.902,-185.547,-351.074,-32.227,0.000
2797.000,-18.066,139.160,-305.176,-51.270,0.000
2801.000,-1.953,-119.141,-407.227,-6.836,0.000
2805.000,2.930,-460.449,-381.348,42.480,0.000
2809.000,-16.113,-85.449,-312.988,18.066,0.000
2813.000,-11.230,59.570,-360.840,-25.391,0.000
2817.000,5.371,-20.020,-382.812,16.113,0.000
2821.000,-2.441,233.887,-263.184,53.223,0.000
2825.000,-21.484,352.539,-244.629,8.789,0.000
2828.000,-24.414,63.965,-376.953,-37.109,0.000
2832.000,-9.277,-527.832,-462.891,-30.762,0.000
2836.000,-5.371,-135.742,-269.043,18.555,0.000
2840.000,-21.973,462.402,-191.895,15.137,0.000
2844.000,-31.738,1.953,-403.320,-35.156,0.000
2848.000,-1.465,-784.668,-583.008,-29.297,0.000
2852.000,11.230,-176.758,-336.426,16.602,0.000
2856.000,-10.742,423.340,-236.328,18.555,0.000
2860.000,-28.320,-13.672,-400.879,-28.320,0.000
2864.000,-25.391,-271.973,-411.621,-55.176,0.000
2868.000,-15.625,137.695,-267.578,-20.508,0.000
2871.000,-27.832,457.520,-214.844,19.531,0.000
2875.000,-44.922,20.508,-362.793,-11.719,0.000
2879.000,-25.391,-432.129,-460.938,-64.941,0.000
2883.000,-2.441,-237.793,-348.633,-43.457,0.000
2887.000,-9.277,164.062,-228.516,6.836,0.000
2891.000,-22.461,-183.105,-412.598,4.883,0.000
2895.000,-27.832,-625.977,-483.398,-51.270,0.000
2899.000,-22.461,20.508,-282.227,-49.805,0.000
2903.000,-11.230,392.578,-236.328,15.625,0.000
2907.000,-19.043,49.805,-394.531,14.648,0.000
2910.000,-26.855,-6.836,-383.301,-36.621,0.000
2914.000,-20.020,223.633,-287.109,-44.434,0.000
2918.000,-10.254,211.426,-277.832,9.766,0.000
2922.000,-25.879,-31.738,-301.270,20.508,0.000
2926.000,-40.039,-281.250,-428.711,-32.715,0.000
2930.000,-26.367,-209.961,-396.484,-49.805,0.000
2934.000,-12.695,53.223,-311.035,-17.578,0.000
2938.000,-9.766,-581.543,-516.602,6.348,0.000
2942.000,-27.832,-285.645,-376.465,-17.578,0.000
2946.000,-23.438,281.738,-277.344,-58.105,0.000
2949.000,13.184,142.090,-343.262,-21.484,0.000
2953.000,7.812,174.805,-275.391,39.062,0.000
2957.000,-43.945,224.609,-281.738,2.930,0.000
2961.000,-55.664,-5.859,-364.258,-56.641,0.000
2965.000,-41.016,-35.645,-357.910,-44.434,0.000
2969.000,-38.086,124.512,-282.715,12.207,0.000
2973.000,-46.875,-78.125,-343.262,13.672,0.000
2977.000,-54.688,-273.438,-417.969,-44.434,0.000
2981.000,-44.922,-569.336,-503.906,-58.105,0.000
2985.000,-34.180,-520.996,-359.375,-6.348,0.000
2989.000,-37.109,300.293,-187.012,17.090,0.000
2992.000,-58.105,258.789,-324.707,-29.297,0.000
2996.000,-54.199,-179.199,-459.473,-64.941,0.000
3000.000,-27.344,150.879,-307.617,-19.043,0.000
3004.000,-31.250,523.926,-196.289,43.457,0.000
3008.000,-53.711,198.730,-295.410,6.348,0.000
3012.000,-49.805,-252.441,-384.766,-59.570,0.000
3016.000,-26.367,48.340,-322.266,-27.832,0.000
3020.000,-23.438,137.695,-297.852,29.297,0.000
3024.000,-43.457,-176.758,-379.883,4.395,0.000
3028.000,-38.574,-730.469,-617.188,-43.457,0.000
3032.000,-23.926,-471.191,-463.867,-40.039,0.000
3035.000,-21.973,268.555,-213.379,9.766,0.000
3039.000,-32.227,250.488,-308.594,19.531,0.000
3043.000,-34.180,-14.648,-359.863,-35.645,0.000
3047.000,-20.508,129.395,-291.016,-57.617,0.000
3051.000,-22.949,371.582,-247.559,-7.324,0.000
3055.000,-29.785,197.266,-323.242,27.344,0.000
3059.000,-35.645,20.508,-360.352,-20.508,0.000
3063.000,-32.227,-0.977,-390.137,-63.477,0.000
3067.000,-14.648,-155.273,-406.738,-24.902,0.000
3071.000,-19.043,-282.715,-395.996,29.297,0.000
3074.000,-33.203,-381.836,-398.926,3.418,0.000
3078.000,-26.855,2.930,-360.352,-51.270,0.000
3082.000,-8.301,279.297,-317.383,-31.250,0.000
3086.000,-5.371,-138.184,-405.762,23.438,0.000
3090.000,-22.461,-302.246,-401.855,10.742,0.000
3094.000,-18.555,137.207,-332.031,-41.992,0.000
3098.000,7.324,182.129,-335.449,-41.992,0.000
3102.000,0.977,-2.930,-350.586,6.836,0.000
3106.000,-23.438,184.570,-298.828,24.902,0.000
3110.000,-35.645,233.398,-323.730,-26.367,0.000
3114.000,-22.461,-253.418,-474.121,-57.617,0.000
3117.000,-12.207,-764.648,-572.266,-5.371,0.000
3121.000,-28.809,-214.844,-348.145,20.020,0.000
3125.000,-42.969,319.336,-250.488,-22.461,0.000
3129.000,-21.973,33.203,-387.695,-59.570,0.000
3133.000,-1.953,-38.574,-298.828,-26.855,0.000
3137.000,-9.766,340.332,-189.453,31.250,0.000
3141.000,-25.879,262.207,-295.410,11.230,0.000
3145.000,-26.367,-246.094,-422.363,-47.852,0.000
3149.000,-19.043,-144.531,-327.637,-48.340,0.000
3153.000,-24.902,389.648,-179.688,6.348,0.000
3157.000,-39.062,242.676,-302.246,9.766,0.000
3160.000,-38.086,-415.527,-461.426,-41.504,0.000
3164.000,-35.156,-504.395,-407.715,-53.711,0.000
3168.000,-23.438,-93.262,-281.250,-14.648,0.000
3172.000,-28.809,236.328,-224.121,0.977,0.000
3176.000,-48.340,-270.996,-471.680,-37.109,0.000
3180.000,-36.621,-613.281,-459.961,-53.223,0.000
3184.000,-19.531,195.312,-213.867,-23.926,0.000
3188.000,-32.227,358.887,-270.508,11.719,0.000
3192.000,-48.340,-165.527,-439.941,-11.719,0.000
3196.000,-35.645,-81.543,-401.367,-72.266,0.000
3200.000,-20.996,103.027,-332.031,-48.340,0.000
3203.000,-21.973,21.973,-320.312,2.441,0.000
3207.000,-31.250,-338.867,-390.625,-7.324,0.000
3211.000,-29.785,-322.266,-398.926,-47.363,0.000
3215.000,-14.160,211.914,-276.855,-46.875,0.000
3219.000,-21.973,231.445,-289.551,3.906,0.000
3223.000,-46.875,-480.957,-498.047,-1.465,0.000
3227.000,-54.688,-199.219,-390.137,-48.828,0.000
3231.000,-38.086,232.422,-285.645,-49.316,0.000
3235.000,-33.691,84.473,-358.887,-14.160,0.000
3239.000,-53.223,103.027,-323.730,11.230,0.000
3243.000,-58.105,179.688,-308.105,-17.578,0.000
3246.000,-39.062,152.344,-350.586,-59.082,0.000
3250.000,-17.578,-0.977,-376.465,-20.020,0.000
3254.000,-16.602,-175.781,-351.562,16.602,0.000
3258.000,-42.969,-263.672,-395.508,-19.531,0.000
3262.000,-60.547,-296.387,-430.664,-66.406,0.000
3266.000,-34.180,-477.051,-448.730,-42.969,0.000
3270.000,-26.855,-480.469,-329.590,16.602,0.000
3274.000,-58.105,160.645,-235.840,5.859,0.000
3278.000,-52.734,169.434,-358.398,-36.621,0.000
3282.000,-28.320,-151.367,-431.152,-34.180,0.000
3286.000,-23.926,176.758,-270.508,12.207,0.000
3289.000,-33.203,393.066,-230.957,18.066,0.000
3293.000,-42.480,112.305,-349.121,-30.273,0.000
3297.000,-32.715,-212.891,-371.094,-40.527,0.000
3301.000,-21.973,-222.656,-367.676,-7.324,0.000
3305.000,-33.203,48.340,-294.434,11.719,0.000
3309.000,-46.875,-15.137,-382.812,-23.926,0.000
3313.000,-39.551,-772.949,-663.086,-60.059,0.000
3317.000,-20.508,-225.586,-387.207,-22.461,0.000
3321.000,-22.949,484.863,-204.590,15.625,0.000
3325.000,-35.645,119.629,-386.230,-18.555,0.000
3328.000,-41.016,-146.973,-395.996,-76.660,0.000
3332.000,-28.320,189.941,-243.652,-60.547,0.000
3336.000,-19.531,441.406,-199.219,3.418,0.000
3340.000,-37.598,152.344,-316.406,-4.883,0.000
3344.000,-44.434,-168.945,-392.090,-65.918,0.000
3348.000,-24.414,-219.727,-345.703,-60.547,0.000
3352.000,-15.625,-34.668,-277.832,4.883,0.000
3356.000,-36.133,-273.438,-424.805,16.113,0.000
3360.000,-40.039,-592.773,-448.242,-33.691,0.000
3364.000,-19.043,6.836,-311.523,-58.105,0.000
3367.000,-7.812,163.574,-349.121,-8.301,0.000
3371.000,-24.902,-65.918,-402.344,34.668,0.000
3375.000,-46.875,160.156,-321.777,-7.812,0.000
3379.000,-30.273,265.137,-292.969,-49.805,0.000
3383.000,-0.977,-47.852,-353.516,-12.695,0.000
3387.000,-17.090,-88.867,-318.848,29.297,0.000
3391.000,-44.434,126.953,-308.105,0.000,0.000
3395.000,-38.574,-160.645,-401.367,-66.406,0.000
3399.000,-23.438,-294.922,-393.555,-50.293,0.000
3403.000,-24.902,-559.082,-490.234,23.438,0.000
3407.000,-38.086,-148.438,-324.219,5.371,0.000
3410.000,-37.598,344.727,-251.465,-57.617,0.000
3414.000,-19.043,108.887,-379.395,-57.129,0.000
3418.000,-12.207,173.828,-262.695,-4.883,0.000
3422.000,-31.250,253.418,-250.000,8.301,0.000
3426.000,-36.621,-6.836,-360.840,-39.062,0.000
3430.000,-29.785,-150.391,-411.133,-55.176,0.000
3434.000,-16.602,101.074,-279.785,-1.465,0.000
3438.000,-3.906,239.746,-260.742,46.387,0.000
3442.000,-20.508,-111.328,-390.625,10.254,0.000
3446.000,-25.391,-540.039,-507.812,-41.504,0.000
3450.000,-6.348,-532.227,-381.348,-13.672,0.000
3453.000,-6.348,259.277,-189.941,39.062,0.000
3457.000,-28.809,316.895,-296.387,17.090,0.000
3461.000,-34.668,-236.328,-486.328,-45.898,0.000
3465.000,-18.555,-34.668,-358.887,-41.504,0.000
3469.000,-13.672,423.828,-184.082,6.348,0.000
3473.000,-27.344,322.754,-271.484,9.766,0.000
3477.000,-32.227,-240.234,-479.980,-42.969,0.000
3481.000,-24.414,-287.109,-430.176,-58.105,0.000
3485.000,-15.137,230.469,-236.816,-4.883,0.000
3489.000,-16.113,15.137,-339.355,23.438,0.000
3493.000,-33.691,-798.828,-620.605,-18.066,0.000
3496.000,-36.133,-451.172,-456.055,-65.918,0.000
3500.000,-8.301,335.938,-207.031,-35.156,0.000
3504.000,-5.371,272.461,-290.039,13.672,0.000
3508.000,-39.062,-7.324,-343.262,-22.949,0.000
3512.000,-48.340,64.941,-340.820,-75.195,0.000
3516.000,-25.391,227.051,-286.133,-48.340,0.000
3520.000,-24.902,221.680,-280.762,3.906,0.000
3524.000,-46.387,88.379,-310.059,-11.230,0.000
3528.000,-49.316,108.398,-340.820,-62.988,0.000
3532.000,-26.855,84.473,-342.773,-50.293,0.000
3535.000,-19.043,-110.352,-336.426,-4.883,0.000
3539.000,-35.645,-251.465,-390.137,2.441,0.000
3543.000,-41.992,-336.426,-437.500,-41.016,0.000
3547.000,-31.250,-335.938,-433.594,-64.941,0.000
3551.000,-23.438,-304.199,-400.391,-20.020,0.000
3555.000,-24.902,-54.199,-313.477,13.184,0.000
3559.000,-44.434,184.082,-290.527,-26.855,0.000
3563.000,-43.945,160.645,-354.492,-60.059,0.000
3567.000,-12.695,-299.805,-532.227,-10.254,0.000
3571.000,-14.648,-201.660,-386.230,34.180,0.000
3575.000,-33.691,331.055,-265.137,-0.488,0.000
3578.000,-28.809,133.301,-385.254,-53.711,0.000
3582.000,-11.230,-355.957,-424.316,-32.227,0.000
3586.000,-18.066,-77.148,-291.992,14.648,0.000
3590.000,-43.457,210.449,-299.316,-5.371,0.000
3594.000,-44.922,-316.895,-487.793,-61.035,0.000
3598.000,-20.020,-449.219,-407.227,-58.105,0.000
3602.000,-14.160,173.828,-249.023,-8.789,0.000
3606.000,-33.691,412.109,-250.977,7.324,0.000
3610.000,-40.527,-98.145,-440.430,-37.598,0.000
3614.000,-26.855,-470.703,-433.594,-77.148,0.000
3618.000,-15.137,93.750,-262.207,-26.855,0.000
3621.000,-17.090,417.480,-265.137,12.207,0.000
3625.000,-29.297,-60.059,-391.113,-33.691,0.000
3629.000,-35.645,-445.801,-487.305,-69.824,0.000
3633.000,-19.531,-258.301,-393.555,-32.715,0.000
3637.000,-22.949,-33.691,-327.637,18.066,0.000
3641.000,-39.551,-199.707,-409.180,-3.906,0.000
3645.000,-36.133,-300.781,-437.012,-50.293,0.000
3649.000,-16.602,-108.398,-359.375,-33.203,0.000
3653.000,-7.324,218.750,-281.738,16.602,0.000
3657.000,-27.832,-172.363,-490.234,8.789,0.000
3661.000,-35.156,-394.043,-448.242,-51.758,0.000
3664.000,-15.625,176.758,-262.207,-55.664,0.000
3668.000,-13.184,361.816,-237.305,3.906,0.000
3672.000,-35.645,95.215,-292.969,15.137,0.000
3676.000,-45.410,-266.602,-435.059,-18.555,0.000
3680.000,-26.855,-174.805,-376.465,-37.109,0.000
3684.000,-12.695,90.820,-278.320,-14.160,0.000
3688.000,-19.531,-53.223,-267.090,20.020,0.000
3692.000,-29.785,104.492,-264.648,-6.836,0.000
3696.000,-28.320,275.391,-305.664,-53.711,0.000
3700.000,-19.043,55.664,-346.191,-35.156,0.000
3704.000,-24.902,-494.141,-422.363,18.555,0.000
3707.000,-47.363,-94.727,-296.387,0.977,0.000
3711.000,-45.410,237.305,-291.992,-49.805,0.000
3715.000,-23.926,53.223,-321.289,-28.809,0.000
3719.000,-16.113,38.086,-272.461,30.273,0.000
3723.000,-25.391,-65.918,-329.102,32.227,0.000
3727.000,-33.203,-280.273,-415.527,-40.527,0.000
3731.000,-31.738,-401.367,-424.316,-68.359,0.000
3735.000,-25.391,-40.039,-281.738,-20.508,0.000
3739.000,-34.180,325.195,-230.957,0.488,0.000
3743.000,-40.527,226.562,-307.129,-45.410,0.000
3746.000,-24.902,-346.191,-495.605,-76.660,0.000
3750.000,-12.695,-309.570,-349.121,-44.434,0.000
3754.000,-28.809,378.418,-177.246,-4.883,0.000
3758.000,-51.758,122.070,-352.539,-23.926,0.000
3762.000,-41.016,-351.074,-436.035,-77.637,0.000
3766.000,-14.648,53.711,-291.016,-61.035,0.000
3770.000,-16.602,187.988,-283.691,-2.441,0.000
3774.000,-33.203,-235.352,-401.367,-15.625,0.000
3778.000,-34.180,-531.250,-451.172,-60.547,0.000
3782.000,-23.926,-94.727,-336.426,-46.875,0.000
3785.000,-21.484,436.523,-197.754,-6.348,0.000
3789.000,-38.574,174.316,-329.590,-2.930,0.000
3793.000,-48.828,-645.996,-542.480,-34.180,0.000
3797.000,-34.180,-166.504,-340.332,-66.406,0.000
3801.000,-13.184,398.926,-228.027,-22.461,0.000
3805.000,-16.602,72.266,-331.543,16.602,0.000
3809.000,-36.133,-40.527,-313.477,-36.133,0.000
3813.000,-32.227,-5.859,-342.285,-74.219,0.000
3817.000,-11.230,-96.191,-380.371,-38.574,0.000
3821.000,-14.648,-211.914,-369.141,10.742,0.000
3825.000,-40.527,-410.645,-399.414,-18.066,0.000
3828.000,-33.691,-216.309,-345.703,-72.266,0.000
3832.000,-11.230,193.848,-280.762,-53.223,0.000
3836.000,-1.953,-48.828,-386.719,4.395,0.000
3840.000,-17.578,-211.426,-350.586,-0.977,0.000
3844.000,-28.809,182.617,-290.039,-54.688,0.000
3848.000,-16.602,175.781,-333.008,-45.410,0.000
3852.000,-11.230,-35.645,-363.770,3.906,0.000
3856.000,-31.250,238.770,-282.227,-2.441,0.000
3860.000,-30.273,294.922,-292.969,-50.293,0.000
3864.000,-16.113,-236.816,-424.316,-62.500,0.000
3868.000,-16.602,-404.785,-398.438,-14.160,0.000
3871.000,-24.902,-0.977,-303.223,21.973,0.000
3875.000,-38.086,185.547,-287.109,-14.648,0.000
3879.000,-30.273,4.395,-374.023,-59.570,0.000
3883.000,-13.672,-185.547,-334.473,-20.996,0.000
3887.000,-28.320,172.852,-229.492,16.113,0.000
3891.000,-39.062,357.910,-259.766,-24.902,0.000
3895.000,-20.508,-88.867,-436.035,-83.008,0.000
3899.000,-10.254,-534.180,-426.270,-64.453,0.000
3903.000,-27.344,185.547,-192.383,-4.883,0.000
3907.000,-44.922,310.547,-278.320,-8.301,0.000
3911.000,-45.898,-295.898,-440.918,-62.012,0.000
3914.000,-31.250,-443.848,-417.969,-63.965,0.000
3918.000,-28.809,-19.531,-265.137,-8.301,0.000
3922.000,-44.922,389.648,-234.863,9.277,0.000
3926.000,-54.688,-281.738,-484.375,-43.457,0.000
3930.000,-41.992,-624.023,-453.125,-75.684,0.000
3934.000,-24.414,248.535,-207.031,-38.574,0.000
3938.000,-32.715,493.164,-225.098,-7.324,0.000
3942.000,-41.504,-56.641,-433.105,-42.480,0.000
3946.000,-29.297,-64.941,-381.836,-78.613,0.000
3950.000,-10.742,350.098,-223.633,-40.039,0.000
3953.000,-14.648,380.371,-239.746,10.742,0.000
3957.000,-38.574,-285.645,-423.828,-13.184,0.000
3961.000,-41.992,-418.945,-455.078,-67.383,0.000
3965.000,-23.926,214.355,-292.969,-54.199,0.000
3969.000,-20.508,278.809,-300.293,9.766,0.000
3973.000,-40.039,-504.883,-525.391,15.625,0.000
3977.000,-40.039,-267.578,-440.430,-50.781,0.000
3981.000,-14.648,157.715,-320.312,-63.477,0.000
3985.000,-10.254,5.859,-353.027,-8.789,0.000
3989.000,-25.391,67.383,-312.012,9.766,0.000
3993.000,-38.086,170.410,-295.898,-41.504,0.000
3996.000,-37.109,138.184,-332.031,-77.148,0.000
4000.000,-21.973,-0.977,-315.918,-29.297,0.000
4004.000,-32.715,-117.676,-324.219,13.184,0.000
4008.000,-53.223,-236.816,-402.832,-27.344,0.000
4012.000,-46.387,-172.363,-410.156,-78.125,0.000
4016.000,-23.926,-292.969,-446.777,-47.852,0.000
4020.000,-26.855,-439.453,-341.797,12.695,0.000
4024.000,-48.828,207.031,-232.910,2.930,0.000
4028.000,-48.828,226.074,-370.605,-62.988,0.000
4032.000,-25.391,-145.996,-458.496,-63.477,0.000
4036.000,-17.578,112.305,-318.848,-7.324,0.000
4039.000,-39.551,159.180,-334.961,0.977,0.000
4043.000,-50.781,-93.262,-408.203,-51.758,0.000
4047.000,-32.227,-202.637,-399.414,-70.312,0.000
4051.000,-21.484,-172.852,-389.648,-12.207,0.000
4055.000,-38.574,-3.906,-317.871,7.812,0.000
4059.000,-52.246,9.277,-359.375,-39.062,0.000
4063.000,-41.992,-719.238,-612.305,-62.988,0.000
4067.000,-26.855,-241.699,-355.957,-28.320,0.000
4071.000,-26.367,503.418,-180.664,10.254,0.000
4075.000,-36.133,89.355,-389.648,-14.648,0.000
4079.000,-41.504,-142.578,-388.672,-60.547,0.000
4082.000,-25.391,171.387,-255.859,-33.203,0.000
4086.000,-21.973,442.383,-192.383,19.043,0.000
4090.000,-41.504,160.156,-307.617,-5.371,0.000
4094.000,-42.969,-188.965,-379.883,-66.895,0.000
4098.000,-30.273,-209.473,-344.238,-61.523,0.000
4102.000,-32.715,-74.219,-328.613,-10.742,0.000
4106.000,-48.828,-301.758,-409.180,-6.836,0.000
4110.000,-53.223,-524.902,-396.484,-44.434,0.000
4114.000,-33.691,40.527,-277.832,-59.570,0.000
4118.000,-14.160,368.164,-242.188,-20.020,0.000
4121.000,-25.879,36.133,-364.746,16.602,0.000
4125.000,-39.551,-48.340,-377.441,-29.785,0.000
4129.000,-30.273,119.629,-320.312,-67.383,0.000
4133.000,-13.672,153.320,-291.992,-12.695,0.000
4137.000,-20.996,74.707,-312.012,35.156,0.000
4141.000,-49.316,104.492,-323.730,-12.207,0.000
4145.000,-42.480,-148.926,-383.301,-68.848,0.000
4149.000,-14.648,-322.754,-392.090,-50.781,0.000
4153.000,-5.859,-636.719,-498.047,9.766,0.000
4157.000,-31.250,-279.785,-356.445,3.418,0.000
4161.000,-34.668,208.984,-285.156,-59.082,0.000
4164.000,-15.625,38.086,-365.234,-57.617,0.000
4168.000,-19.043,53.223,-253.906,-8.789,0.000
4172.000,-32.715,318.848,-217.773,-1.953,0.000
4176.000,-36.621,283.203,-304.199,-50.293,0.000
4180.000,-23.926,-44.434,-400.391,-73.242,0.000
4184.000,-7.324,49.805,-302.246,-26.367,0.000
4188.000,-17.090,208.008,-263.184,8.301,0.000
4192.000,-46.387,-120.605,-395.020,-26.855,0.000
4196.000,-40.039,-565.918,-496.582,-62.500,0.000
4200.000,-18.066,-487.305,-350.586,-22.461,0.000
4203.000,-30.762,257.324,-204.590,11.230,0.000
4207.000,-58.105,103.027,-351.074,-22.949,0.000
4211.000,-59.082,-387.207,-494.629,-57.129,0.000
4215.000,-41.992,-51.758,-342.773,-42.969,0.000
4219.000,-37.109,468.262,-180.664,-7.324,0.000
4223.000,-47.852,270.996,-299.316,-11.719,0.000
4227.000,-48.828,-267.578,-505.371,-57.129,0.000
4231.000,-22.949,-59.570,-401.855,-67.383,0.000
4235.000,-5.859,342.285,-252.441,-15.137,0.000
4239.000,-29.785,-29.297,-375.977,7.324,0.000
4243.000,-48.340,-787.598,-612.793,-31.738,0.000
4246.000,-31.250,-383.301,-437.012,-70.801,0.000
4250.000,-13.672,369.629,-233.398,-31.250,0.000
4254.000,-32.715,256.348,-326.660,15.137,0.000
4258.000,-54.688,-49.805,-363.770,-29.297,0.000
4262.000,-46.875,-132.812,-390.625,-80.078,0.000
4266.000,-16.113,19.531,-298.828,-47.363,0.000
4270.000,-20.508,184.570,-293.457,1.465,0.000
4274.000,-46.875,29.785,-348.145,-20.020,0.000
4278.000,-40.527,100.586,-331.543,-58.594,0.000
4282.000,-17.090,89.355,-354.492,-35.645,0.000
4286.000,-4.883,-113.281,-362.305,13.184,0.000
4289.000,-33.203,-259.277,-364.746,7.324,0.000
4293.000,-49.316,-181.152,-355.469,-45.898,0.000
4297.000,-36.133,149.414,-319.824,-57.617,0.000
4301.000,-27.344,-144.531,-417.969,-3.418,0.000
4305.000,-41.992,-466.797,-373.535,16.113,0.000
4309.000,-55.176,83.984,-281.738,-34.668,0.000
4313.000,-42.969,152.832,-364.258,-66.406,0.000
4317.000,-30.273,-205.078,-448.730,-26.367,0.000
4321.000,-36.133,-166.992,-383.301,8.301,0.000
4325.000,-52.246,124.023,-313.965,-18.555,0.000
4329.000,-42.969,58.594,-379.395,-59.570,0.000
4332.000,-18.555,-409.668,-462.891,-44.922,0.000
4336.000,-24.902,-230.469,-335.449,-0.488,0.000
4340.000,-36.621,317.871,-234.375,-19.531,0.000
4344.000,-28.809,70.312,-389.648,-63.965,0.000
4348.000,-25.391,-651.367,-583.008,-54.199,0.000
4352.000,-28.809,-66.895,-322.754,-9.277,0.000
4356.000,-37.598,421.387,-219.238,-0.977,0.000
4360.000,-44.922,-22.461,-403.320,-53.711,0.000
4364.000,-33.203,-100.586,-360.352,-76.660,0.000
4368.000,-22.949,327.148,-224.121,-31.250,0.000
4371.000,-41.504,372.070,-260.254,8.789,0.000
4375.000,-56.641,-131.836,-393.555,-15.137,0.000
4379.000,-41.504,-416.504,-446.289,-73.730,0.000
4383.000,-18.555,-239.746,-368.164,-39.551,0.000
4387.000,-12.207,-43.945,-322.754,22.949,0.000
4391.000,-28.809,-373.535,-465.820,-18.555,0.000
4395.000,-41.016,-629.883,-464.355,-78.125,0.000
4399.000,-30.762,78.613,-272.949,-46.387,0.000
4403.000,-17.578,415.039,-240.723,10.254,0.000
