timestamp,TP9,AF7,AF8,TP10,Right AUX
0.000,-32.227,-18.066,-0.488,-12.207,0.000
4.000,-34.180,-16.602,-9.277,-22.461,0.000
8.000,-20.508,-7.812,-14.648,-37.598,0.000
12.000,-34.180,-15.625,-16.113,-43.945,0.000
16.000,-53.223,-22.461,-17.090,-41.016,0.000
20.000,-74.219,-30.273,-21.973,-48.828,0.000
23.000,-74.219,-59.082,-28.809,-56.152,0.000
27.000,-64.941,-71.777,-41.016,-65.430,0.000
31.000,-78.125,-47.363,-41.016,-82.520,0.000
35.000,-86.426,-34.180,-29.785,-81.055,0.000
39.000,-82.031,-38.574,-25.879,-77.637,0.000
43.000,-81.543,-38.086,-24.414,-76.660,0.000
47.000,-75.195,-59.082,-9.277,-64.941,0.000
51.000,-87.402,-59.082,-18.555,-72.754,0.000
55.000,-96.191,-26.367,-32.715,-82.520,0.000
59.000,-87.891,-45.898,-29.297,-72.266,0.000
62.000,-81.055,-62.012,-31.250,-74.219,0.000
66.000,-77.148,-31.250,-33.203,-77.148,0.000
70.000,-78.125,-21.484,-41.016,-82.520,0.000
74.000,-62.500,-31.250,-23.926,-74.707,0.000
78.000,-58.594,-23.926,-6.348,-67.383,0.000
82.000,-61.035,-25.391,-21.973,-67.871,0.000
86.000,-51.270,-34.180,-23.926,-71.777,0.000
90.000,-48.828,-19.531,-3.906,-67.871,0.000
94.000,-67.383,-25.391,-3.906,-57.617,0.000
98.000,-83.984,-43.945,-14.648,-64.941,0.000
102.000,-88.867,-36.133,-18.066,-70.312,0.000
105.000,-74.219,-15.137,-9.766,-50.781,0.000
109.000,-49.316,-31.738,-4.883,-35.645,0.000
113.000,-52.734,-38.574,-14.160,-40.527,0.000
117.000,-74.219,-14.160,-9.277,-49.805,0.000
121.000,-67.871,-12.207,-5.371,-37.109,0.000
125.000,-45.410,-17.090,-12.695,-22.461,0.000
129.000,-41.504,-15.137,-3.418,-18.066,0.000
133.000,-43.945,-13.672,5.371,-16.602,0.000
137.000,-48.340,-24.414,-3.418,-25.879,0.000
141.000,-35.156,-31.250,-10.742,-27.344,0.000
145.000,-20.996,-21.484,-12.207,-22.949,0.000
148.000,-24.902,-12.207,-11.230,-20.020,0.000
152.000,-26.855,-14.648,-13.184,-23.438,0.000
156.000,-20.996,-9.277,-12.695,-19.531,0.000
160.000,-19.043,0.488,-10.742,-11.230,0.000
164.000,-18.555,-5.371,-9.277,-11.230,0.000
168.000,-15.625,-5.371,-14.160,-15.137,0.000
172.000,-20.996,-0.977,-20.020,-20.508,0.000
176.000,-16.113,-3.418,-21.973,-26.855,0.000
180.000,-25.391,-8.789,-25.879,-33.691,0.000
184.000,-24.902,-13.672,-27.832,-41.016,0.000
187.000,-9.277,-10.254,-29.785,-42.480,0.000
191.000,-19.531,-16.602,-31.738,-31.250,0.000
195.000,-42.969,-30.273,-36.133,-30.762,0.000
199.000,-44.922,-26.855,-35.645,-39.062,0.000
203.000,-34.180,-25.391,-31.738,-37.109,0.000
207.000,-38.574,-24.902,-24.414,-35.645,0.000
211.000,-27.344,-23.438,-23.438,-34.180,0.000
215.000,-37.109,-32.715,-31.250,-30.762,0.000
219.000,-54.688,-39.551,-32.227,-35.156,0.000
223.000,-50.293,-35.645,-28.809,-30.273,0.000
227.000,-59.082,-40.039,-24.902,-22.949,0.000
230.000,-63.477,-42.480,-26.367,-23.926,0.000
234.000,-60.547,-41.992,-26.367,-24.414,0.000
238.000,-53.711,-38.574,-23.438,-20.996,0.000
242.000,-32.227,-30.273,-20.020,-14.160,0.000
246.000,-20.020,-34.180,-17.090,-15.137,0.000
250.000,-14.648,-27.832,-11.719,-6.348,0.000
254.000,5.371,-29.297,1.953,5.371,0.000
258.000,10.254,-28.809,0.977,3.418,0.000
262.000,-24.902,-28.320,-10.742,-2.930,0.000
266.000,-38.574,-30.762,-6.836,-3.906,0.000
270.000,-22.949,-23.926,0.000,2.441,0.000
273.000,-13.184,-31.250,0.488,7.324,0.000
277.000,-8.301,-37.598,-0.488,5.859,0.000
281.000,-10.742,-34.180,-2.441,0.488,0.000
285.000,-8.789,-36.621,-3.906,-2.441,0.000
289.000,-4.395,-41.992,-6.836,-3.906,0.000
293.000,-1.465,-31.738,-3.906,-4.395,0.000
297.000,-6.348,-15.137,0.000,-7.812,0.000
301.000,-7.324,-11.719,4.395,-3.418,0.000
305.000,-6.348,-12.207,6.348,2.930,0.000
309.000,-3.906,-15.625,4.395,-4.883,0.000
312.000,-4.395,-21.973,1.465,3.906,0.000
316.000,-10.254,-16.113,2.930,10.254,0.000
320.000,0.977,-8.301,0.000,-2.441,0.000
324.000,-8.789,-8.789,-4.395,-6.836,0.000
328.000,-27.344,-6.836,-1.953,-3.418,0.000
332.000,-22.949,-12.695,-3.418,-7.812,0.000
336.000,-25.391,-20.508,-3.906,-11.230,0.000
340.000,-22.461,-12.695,-0.488,-14.648,0.000
344.000,-25.391,-16.113,-10.254,-30.273,0.000
348.000,-41.992,-22.461,-21.484,-38.574,0.000
352.000,-48.340,-28.320,-24.414,-44.922,0.000
355.000,-54.688,-28.809,-28.809,-50.781,0.000
359.000,-56.641,-29.785,-27.832,-44.434,0.000
363.000,-57.617,-31.738,-30.273,-40.527,0.000
367.000,-63.477,-34.668,-33.203,-45.410,0.000
371.000,-62.012,-36.621,-32.227,-52.734,0.000
375.000,-51.270,-33.203,-37.598,-59.082,0.000
379.000,-33.203,-27.344,-35.156,-54.688,0.000
383.000,-37.109,-30.762,-29.297,-57.617,0.000
387.000,-33.203,-36.133,-29.297,-62.500,0.000
391.000,-12.207,-34.668,-32.227,-48.340,0.000
395.000,2.441,-32.227,-29.297,-13.672,0.000
398.000,-8.789,-33.691,-26.855,-13.184,0.000
402.000,-42.969,-37.109,-31.738,-52.246,0.000
406.000,-41.504,-35.645,-28.320,-42.969,0.000
410.000,-51.758,-35.156,-24.414,-28.809,0.000
414.000,-56.641,-32.715,-21.973,-27.832,0.000
418.000,-45.410,-32.227,-21.484,-25.879,0.000
422.000,-43.945,-35.645,-24.902,-27.832,0.000
426.000,-23.926,-34.668,-32.715,-19.043,0.000
430.000,-9.766,-33.203,-32.227,-3.906,0.000
434.000,-6.348,-32.715,-25.391,1.953,0.000
438.000,-0.977,-30.273,-24.414,-4.883,0.000
441.000,8.789,-20.508,-16.602,2.930,0.000
445.000,8.301,-19.043,-11.230,5.371,0.000
449.000,-6.348,-21.973,-19.043,7.324,0.000
453.000,-9.277,-21.973,-24.414,10.254,0.000
457.000,-1.953,-21.484,-23.926,2.441,0.000
461.000,-1.953,-15.625,-22.949,2.441,0.000
465.000,2.441,-12.695,-20.508,7.324,0.000
469.000,4.395,-14.648,-18.555,-1.953,0.000
473.000,-4.883,-22.461,-25.391,-10.254,0.000
477.000,3.906,-22.461,-24.414,-5.859,0.000
480.000,3.906,-17.578,-18.555,-7.812,0.000
484.000,-12.207,-20.996,-23.926,-13.672,0.000
488.000,-13.672,-20.996,-23.438,-20.508,0.000
492.000,-4.883,-20.996,-20.996,-28.320,0.000
496.000,-16.602,-19.043,-21.973,-32.227,0.000
500.000,-22.461,-15.625,-25.879,-35.156,0.000
504.000,-17.578,-21.484,-25.391,-35.156,0.000
508.000,-24.902,-29.297,-22.949,-29.785,0.000
512.000,-28.809,-25.879,-26.855,-31.738,0.000
516.000,-20.996,-21.484,-26.367,-28.809,0.000
520.000,-11.719,-26.367,-24.414,-28.809,0.000
523.000,-9.277,-26.855,-24.414,-35.645,0.000
527.000,-2.930,-25.879,-22.461,-31.250,0.000
531.000,-25.879,-28.809,-22.949,-26.367,0.000
535.000,-35.156,-29.785,-20.020,-32.227,0.000
539.000,-20.508,-29.297,-15.625,-26.855,0.000
543.000,-14.160,-24.902,-17.090,-17.578,0.000
547.000,-21.484,-25.391,-19.531,-19.531,0.000
551.000,-39.062,-31.738,-15.137,-17.578,0.000
555.000,-31.738,-31.738,-10.254,-14.160,0.000
559.000,-29.785,-27.344,-12.695,-8.789,0.000
563.000,-32.227,-27.344,-16.113,-9.277,0.000
566.000,-29.297,-21.484,-14.160,-19.531,0.000
570.000,-19.531,-14.648,-10.254,-17.090,0.000
574.000,-13.184,-21.484,-8.301,-8.789,0.000
578.000,-18.066,-24.414,-4.883,-11.230,0.000
582.000,-7.812,-17.090,-3.906,-16.113,0.000
586.000,-3.418,-14.160,-5.859,-12.207,0.000
590.000,-4.883,-19.043,-10.254,-12.207,0.000
594.000,-12.207,-23.926,-10.742,-11.719,0.000
598.000,-20.996,-28.320,-6.836,-14.648,0.000
602.000,-12.695,-30.762,-5.859,-25.391,0.000
605.000,-11.230,-29.297,-12.207,-22.949,0.000
609.000,-24.902,-25.879,-18.066,-18.555,0.000
613.000,-28.809,-20.996,-14.648,-19.531,0.000
617.000,-30.273,-16.113,-10.742,-16.602,0.000
621.000,-28.809,-17.090,-11.719,-11.230,0.000
625.000,-21.484,-17.090,-6.836,-11.230,0.000
629.000,-30.273,-13.184,-10.254,-15.625,0.000
633.000,-39.551,-15.625,-19.531,-13.184,0.000
637.000,-41.504,-16.602,-21.484,-22.461,0.000
641.000,-39.062,-14.648,-20.996,-27.344,0.000
645.000,-25.391,-17.578,-22.949,-31.738,0.000
648.000,-30.762,-19.043,-23.926,-34.180,0.000
652.000,-29.297,-13.184,-19.043,-25.391,0.000
656.000,-23.438,-16.602,-27.344,-32.227,0.000
660.000,-25.391,-18.066,-33.203,-25.391,0.000
664.000,-23.926,-20.508,-29.785,-28.320,0.000
668.000,-27.832,-21.973,-31.250,-42.480,0.000
672.000,-30.762,-19.531,-30.762,-38.086,0.000
676.000,-25.391,-26.367,-28.320,-42.969,0.000
680.000,-48.340,-37.109,-32.715,-44.434,0.000
684.000,-66.406,-36.621,-30.273,-39.551,0.000
687.000,-50.293,-34.180,-25.391,-39.062,0.000
691.000,-32.227,-38.574,-27.832,-38.086,0.000
695.000,-25.879,-37.109,-28.809,-34.668,0.000
699.000,-35.156,-37.598,-22.949,-24.414,0.000
703.000,-53.711,-41.504,-22.949,-28.320,0.000
707.000,-57.129,-41.016,-24.414,-33.203,0.000
711.000,-43.457,-40.039,-21.484,-28.320,0.000
715.000,-49.805,-32.227,-20.508,-34.668,0.000
719.000,-54.199,-29.297,-20.996,-39.551,0.000
723.000,-30.762,-25.391,-16.113,-31.250,0.000
727.000,-21.973,-21.484,-13.672,-29.785,0.000
730.000,-23.438,-26.855,-20.020,-36.621,0.000
734.000,-11.230,-25.391,-21.484,-30.273,0.000
738.000,3.418,-24.902,-20.996,-27.344,0.000
742.000,5.371,-23.926,-20.020,-23.926,0.000
746.000,-11.719,-19.531,-14.160,-26.855,0.000
750.000,-13.184,-17.578,-10.254,-16.602,0.000
754.000,1.953,-15.137,-6.836,-0.488,0.000
758.000,-1.465,-19.531,-13.184,-14.160,0.000
762.000,-16.113,-28.320,-16.113,-13.672,0.000
766.000,-23.438,-29.297,-15.137,-4.395,0.000
770.000,-27.344,-26.855,-16.113,-2.441,0.000
773.000,-13.672,-34.180,-14.160,2.930,0.000
777.000,0.000,-25.391,-18.555,8.301,0.000
781.000,-6.836,-10.742,-20.508,9.766,0.000
785.000,-0.977,-11.230,-23.438,12.207,0.000
789.000,13.184,-8.301,-21.484,16.113,0.000
793.000,-7.812,-6.836,-13.672,-7.324,0.000
797.000,-16.113,-24.902,-11.230,-24.902,0.000
801.000,-13.672,-44.922,-15.625,-29.785,0.000
805.000,-17.578,-38.574,-20.996,-36.621,0.000
809.000,-27.344,-33.691,-13.672,-46.875,0.000
813.000,-48.828,-22.461,-3.418,-58.594,0.000
816.000,-49.316,-45.410,-13.184,-57.129,0.000
820.000,-29.297,-71.289,-19.531,-50.781,0.000
824.000,-32.227,-56.152,-36.621,-58.105,0.000
828.000,-57.617,-26.855,-53.711,-81.543,0.000
832.000,-44.434,0.488,-11.719,-68.848,0.000
836.000,-42.480,-40.039,0.488,-59.570,0.000
840.000,-81.055,-50.293,-32.715,-83.496,0.000
844.000,-94.238,-15.625,-19.531,-81.055,0.000
848.000,-85.449,-37.109,4.883,-65.430,0.000
852.000,-94.727,-37.109,-25.879,-89.355,0.000
855.000,-84.961,-15.137,-44.434,-91.797,0.000
859.000,-58.105,-9.766,-26.367,-58.594,0.000
863.000,-64.941,-27.832,-20.996,-56.152,0.000
867.000,-82.031,-28.320,-25.879,-66.895,0.000
871.000,-79.590,-23.438,-30.273,-64.453,0.000
875.000,-66.406,-24.902,-26.855,-58.594,0.000
879.000,-46.387,-10.254,-20.508,-53.223,0.000
883.000,-37.598,-26.367,-14.648,-63.477,0.000
887.000,-28.809,-24.902,-10.254,-61.523,0.000
891.000,-19.043,-22.461,-10.742,-57.617,0.000
895.000,-46.387,-43.945,-20.508,-62.012,0.000
898.000,-62.988,-25.391,-19.531,-41.504,0.000
902.000,-57.129,-19.043,-18.066,-41.016,0.000
906.000,-42.480,-27.832,-25.391,-56.641,0.000
910.000,-13.184,-20.508,-22.461,-47.852,0.000
914.000,-19.531,-23.438,-14.648,-37.109,0.000
918.000,-49.316,-25.879,-15.625,-34.668,0.000
922.000,-41.992,-22.461,-25.391,-32.715,0.000
926.000,-25.879,-17.578,-21.973,-21.973,0.000
930.000,-31.738,-5.859,-12.207,-17.578,0.000
934.000,-34.668,-0.977,-11.719,-20.508,0.000
938.000,-30.762,0.000,-13.184,-28.320,0.000
941.000,-25.391,-1.953,-11.230,-33.691,0.000
945.000,-18.555,-15.137,-12.695,-27.344,0.000
949.000,-17.578,-18.066,-22.461,-33.691,0.000
953.000,-13.184,-10.254,-27.832,-44.434,0.000
957.000,-29.785,-8.301,-27.832,-43.945,0.000
961.000,-48.340,-14.648,-35.156,-49.805,0.000
965.000,-47.363,-30.273,-38.086,-47.852,0.000
969.000,-44.434,-39.062,-37.598,-41.016,0.000
973.000,-39.062,-18.555,-35.645,-39.551,0.000
977.000,-26.855,-14.160,-24.902,-31.250,0.000
980.000,-32.715,-30.762,-29.297,-34.180,0.000
984.000,-53.223,-27.832,-39.551,-47.363,0.000
988.000,-49.316,-29.297,-36.133,-42.480,0.000
992.000,-33.691,-37.109,-29.297,-27.344,0.000
996.000,-25.879,-30.273,-29.785,-21.484,0.000
1000.000,-41.504,-21.973,-33.691,-18.066,0.000
1004.000,-40.527,-16.602,-32.227,-18.555,0.000
1008.000,-44.434,-15.137,-32.227,-27.832,0.000
1012.000,-55.664,-20.996,-31.250,-35.645,0.000
1016.000,-58.105,-25.391,-30.273,-41.504,0.000
1020.000,-62.988,-29.785,-30.762,-45.410,0.000
1023.000,-46.875,-29.785,-25.391,-48.340,0.000
1027.000,-29.785,-39.551,-33.203,-61.035,0.000
1031.000,-19.043,-41.992,-32.227,-62.500,0.000
1035.000,-22.461,-48.340,-21.973,-49.805,0.000
1039.000,-41.992,-49.805,-33.691,-60.547,0.000
1043.000,-38.086,-32.227,-32.715,-78.125,0.000
1047.000,-29.297,-41.016,-24.414,-72.266,0.000
1051.000,-26.855,-50.293,-27.832,-63.965,0.000
1055.000,-17.578,-21.484,-21.484,-55.664,0.000
1059.000,-28.809,-5.859,-16.602,-50.781,0.000
1063.000,-49.805,-30.273,-24.902,-62.988,0.000
1066.000,-55.664,-42.480,-32.715,-73.242,0.000
1070.000,-36.621,-26.855,-38.086,-76.660,0.000
1074.000,-14.648,-20.020,-33.203,-74.707,0.000
1078.000,4.395,-15.137,-22.461,-69.824,0.000
1082.000,-2.930,-9.766,-33.203,-71.289,0.000
1086.000,-38.086,-24.414,-43.945,-68.848,0.000
1090.000,-48.828,-36.621,-38.086,-62.012,0.000
1094.000,-36.621,-29.785,-31.738,-59.082,0.000
1098.000,-28.809,-24.414,-28.320,-52.734,0.000
1102.000,-20.996,-27.344,-24.414,-50.293,0.000
1105.000,-22.461,-25.391,-24.902,-59.082,0.000
1109.000,-27.832,-19.531,-22.461,-52.246,0.000
1113.000,-49.316,-25.879,-27.832,-42.969,0.000
1117.000,-75.195,-28.809,-29.297,-44.922,0.000
1121.000,-54.688,-26.855,-22.949,-27.344,0.000
1125.000,-32.227,-21.973,-22.461,-30.273,0.000
1129.000,-36.621,-14.160,-23.926,-43.457,0.000
1133.000,-52.734,-20.508,-20.020,-37.598,0.000
1137.000,-58.105,-17.090,-21.973,-35.156,0.000
1141.000,-34.668,-12.207,-28.320,-26.855,0.000
1145.000,-29.297,-22.949,-26.855,-30.762,0.000
1148.000,-38.086,-21.973,-29.785,-44.922,0.000
1152.000,-24.902,-14.648,-27.344,-42.969,0.000
1156.000,-16.602,-25.879,-22.949,-38.086,0.000
1160.000,-26.855,-40.039,-25.391,-37.598,0.000
1164.000,-42.480,-30.762,-18.066,-31.250,0.000
1168.000,-42.480,-30.273,-17.090,-30.273,0.000
1172.000,-42.969,-37.109,-36.621,-44.434,0.000
1176.000,-43.945,-34.668,-44.922,-50.293,0.000
1180.000,-43.457,-34.668,-32.715,-41.504,0.000
1184.000,-45.410,-23.438,-27.832,-32.715,0.000
1188.000,-41.504,-17.578,-28.809,-29.785,0.000
1191.000,-20.996,-23.438,-27.832,-25.879,0.000
1195.000,-19.531,-26.855,-25.391,-27.344,0.000
1199.000,-12.207,-32.227,-22.461,-17.090,0.000
1203.000,9.766,-29.297,-20.508,-0.488,0.000
1207.000,-30.273,-20.020,-26.367,-25.391,0.000
1211.000,-39.551,-18.555,-28.320,-36.133,0.000
1215.000,-12.695,-18.066,-22.461,-17.578,0.000
1219.000,-23.438,-25.879,-21.484,-6.348,0.000
1223.000,-23.438,-28.320,-20.508,-4.395,0.000
1227.000,-11.230,-28.809,-17.578,-5.371,0.000
1230.000,-23.926,-33.691,-18.066,-0.977,0.000
1234.000,-13.184,-31.738,-16.602,11.230,0.000
1238.000,16.113,-27.344,-14.648,10.254,0.000
1242.000,21.973,-22.949,-19.531,9.766,0.000
1246.000,21.973,-22.461,-23.926,14.648,0.000
1250.000,18.066,-23.926,-27.832,1.953,0.000
1254.000,14.160,-27.344,-28.320,-8.301,0.000
1258.000,10.742,-30.762,-28.809,-6.348,0.000
1262.000,8.301,-21.973,-22.949,12.695,0.000
1266.000,3.418,-20.996,-11.719,18.555,0.000
1270.000,15.625,-25.391,-9.766,9.277,0.000
1273.000,38.086,-20.996,-12.207,13.184,0.000
1277.000,28.320,-17.090,-8.789,17.090,0.000
1281.000,-9.766,-20.020,-5.859,5.371,0.000
1285.000,-24.414,-24.902,-8.301,-2.930,0.000
1289.000,-6.348,-21.973,-4.883,6.348,0.000
1293.000,6.836,-23.438,-6.836,6.348,0.000
1297.000,-13.184,-32.715,-16.113,-13.184,0.000
1301.000,-23.438,-35.156,-14.648,-19.043,0.000
1305.000,-25.879,-33.691,-13.672,-17.578,0.000
1309.000,-35.156,-29.785,-23.438,-26.367,0.000
1313.000,-32.227,-37.598,-21.973,-24.902,0.000
1316.000,-21.973,-37.598,-17.090,-21.484,0.000
1320.000,-24.902,-27.344,-23.438,-19.531,0.000
1324.000,-36.133,-26.855,-28.809,-25.879,0.000
1328.000,-46.875,-30.273,-28.320,-33.691,0.000
1332.000,-54.199,-32.715,-30.762,-38.574,0.000
1336.000,-40.527,-39.062,-31.738,-37.109,0.000
1340.000,-31.738,-38.086,-30.273,-34.668,0.000
1344.000,-31.738,-26.855,-32.715,-41.504,0.000
1348.000,-45.410,-33.203,-34.180,-46.875,0.000
1352.000,-54.688,-35.645,-29.785,-42.969,0.000
1355.000,-35.645,-30.273,-27.832,-28.320,0.000
1359.000,-17.578,-24.414,-27.832,-30.762,0.000
1363.000,-21.484,-22.949,-28.320,-35.645,0.000
1367.000,-34.180,-28.320,-29.785,-31.738,0.000
1371.000,-43.457,-29.297,-30.762,-33.691,0.000
1375.000,-28.809,-20.996,-25.391,-28.320,0.000
1379.000,-4.395,-16.602,-17.090,-15.625,0.000
1383.000,-6.348,-16.602,-12.207,-8.301,0.000
1387.000,-7.324,-16.113,-12.207,-19.531,0.000
1391.000,1.953,-15.625,-14.160,-24.902,0.000
1395.000,9.277,-14.648,-10.254,-14.648,0.000
1398.000,1.953,-15.137,-12.695,-15.137,0.000
1402.000,-19.043,-22.949,-16.113,-24.414,0.000
1406.000,-22.461,-19.043,-7.812,-23.926,0.000
1410.000,-25.391,-10.254,-9.766,-14.160,0.000
1414.000,-32.227,-19.043,-16.113,-10.254,0.000
1418.000,-25.391,-12.207,-10.742,-10.742,0.000
1422.000,-22.949,-5.371,-11.230,-20.508,0.000
1426.000,-43.945,-24.902,-20.020,-37.109,0.000
1430.000,-51.758,-36.133,-20.020,-38.086,0.000
1434.000,-46.875,-32.715,-21.973,-41.016,0.000
1438.000,-26.367,-26.855,-21.973,-31.738,0.000
1441.000,-16.113,-21.484,-14.648,-20.020,0.000
1445.000,-31.250,-33.203,-16.602,-31.250,0.000
1449.000,-39.551,-39.551,-19.043,-27.832,0.000
1453.000,-33.203,-29.785,-15.137,-23.926,0.000
1457.000,-23.438,-26.855,-14.648,-29.297,0.000
1461.000,-20.020,-27.344,-13.184,-29.297,0.000
1465.000,-31.738,-29.785,-17.090,-30.762,0.000
1469.000,-42.480,-29.297,-19.043,-33.203,0.000
1473.000,-42.969,-23.438,-13.184,-28.809,0.000
1477.000,-41.016,-21.973,-16.113,-35.645,0.000
1480.000,-36.621,-23.926,-21.484,-43.945,0.000
1484.000,-35.645,-23.438,-19.043,-37.598,0.000
1488.000,-42.969,-22.949,-18.555,-40.039,0.000
1492.000,-57.129,-31.738,-22.461,-49.316,0.000
1496.000,-60.547,-34.180,-20.996,-44.922,0.000
1500.000,-53.711,-30.273,-20.020,-46.875,0.000
1504.000,-47.852,-33.691,-21.484,-55.176,0.000
1508.000,-30.762,-25.391,-18.066,-49.316,0.000
1512.000,-24.414,-28.320,-18.066,-38.086,0.000
1516.000,-25.879,-40.039,-16.602,-32.227,0.000
1520.000,-26.367,-36.621,-11.719,-30.273,0.000
1523.000,-21.484,-27.344,-13.672,-31.738,0.000
1527.000,-11.719,-22.949,-12.695,-27.344,0.000
1531.000,-22.949,-23.926,-5.859,-16.113,0.000
1535.000,-34.180,-27.832,-6.836,-16.113,0.000
1539.000,-11.230,-22.461,-1.953,-16.602,0.000
1543.000,15.137,-18.066,1.465,-6.836,0.000
1547.000,11.719,-22.949,-4.395,-5.371,0.000
1551.000,-4.883,-21.973,-3.418,0.000,0.000
1555.000,-10.254,-22.949,-6.348,6.836,0.000
1559.000,-5.859,-23.438,-9.766,11.230,0.000
1563.000,-4.395,-17.578,-5.859,21.484,0.000
1566.000,-1.465,-16.113,-4.883,27.344,0.000
1570.000,9.277,-14.160,-4.883,31.738,0.000
1574.000,24.414,-5.859,-0.977,44.434,0.000
1578.000,33.691,2.930,-3.906,49.805,0.000
1582.000,24.902,-9.766,-8.301,40.527,0.000
1586.000,26.855,-22.949,-5.371,35.156,0.000
1590.000,20.996,-10.742,-5.371,33.691,0.000
1594.000,-17.578,-10.742,-13.184,4.395,0.000
1598.000,-26.855,-15.625,-19.531,-21.973,0.000
1602.000,-19.531,-12.207,-23.926,-28.320,0.000
1605.000,-32.715,-31.250,-33.691,-47.852,0.000
1609.000,-35.645,-40.039,-34.180,-71.289,0.000
1613.000,-48.340,-34.668,-34.180,-82.520,0.000
1617.000,-62.500,-41.992,-35.156,-80.566,0.000
1621.000,-67.383,-38.086,-45.410,-80.078,0.000
1625.000,-72.754,-33.203,-53.223,-83.496,0.000
1629.000,-88.867,-31.738,-54.688,-75.195,0.000
1633.000,-94.238,-54.688,-53.711,-74.219,0.000
1637.000,-90.332,-77.148,-40.039,-79.102,0.000
1641.000,-74.219,-92.285,-8.789,-72.266,0.000
1645.000,-52.246,-72.266,28.320,-42.480,0.000
1648.000,-68.848,-14.160,-1.465,-37.598,0.000
1652.000,-102.051,-32.715,-53.223,-77.148,0.000
1656.000,-101.562,-92.285,-24.902,-90.820,0.000
1660.000,-84.961,-101.074,-42.969,-79.102,0.000
1664.000,-98.145,-41.992,-48.340,-77.148,0.000
1668.000,-131.348,0.977,8.789,-96.680,0.000
1672.000,-109.863,3.906,-1.465,-89.844,0.000
1676.000,-72.266,-3.418,-20.508,-81.543,0.000
1680.000,-104.492,-15.625,-29.785,-107.422,0.000
1684.000,-114.746,-22.461,-21.973,-99.121,0.000
1688.000,-110.840,-39.551,-15.625,-86.426,0.000
1691.000,-109.863,-40.039,-38.574,-92.773,0.000
1695.000,-98.145,-15.625,-52.734,-95.703,0.000
1699.000,-95.703,-9.277,-42.480,-88.379,0.000
1703.000,-92.773,-66.406,-44.922,-83.496,0.000
1707.000,-93.750,-58.594,-53.223,-83.496,0.000
1711.000,-108.887,3.418,-51.758,-83.008,0.000
1715.000,-105.957,-25.879,-49.316,-73.242,0.000
1719.000,-93.262,-29.297,-42.969,-70.312,0.000
1723.000,-75.195,20.020,-54.688,-72.266,0.000
1727.000,-58.594,16.113,-55.176,-62.988,0.000
1730.000,-82.520,-28.320,-51.758,-79.102,0.000
1734.000,-109.375,-22.949,-61.523,-104.980,0.000
1738.000,-87.891,-5.859,-54.199,-82.031,0.000
1742.000,-76.660,-12.695,-47.363,-67.383,0.000
1746.000,-83.496,-30.273,-47.852,-71.289,0.000
1750.000,-91.797,-41.016,-50.293,-69.824,0.000
1754.000,-77.637,-18.555,-45.898,-66.406,0.000
1758.000,-57.617,-5.371,-42.480,-59.570,0.000
1762.000,-79.590,-19.043,-63.477,-80.078,0.000
1766.000,-102.539,-7.324,-62.500,-80.078,0.000
1770.000,-90.820,-14.648,-28.320,-62.500,0.000
1773.000,-97.656,-26.367,-41.504,-81.543,0.000
1777.000,-124.512,-12.695,-72.754,-104.980,0.000
1781.000,-127.441,-41.992,-67.871,-108.887,0.000
1785.000,-106.934,-40.039,-60.059,-95.703,0.000
1789.000,-94.727,-31.250,-54.688,-84.961,0.000
1793.000,-89.355,-55.664,-50.293,-88.379,0.000
1797.000,-110.352,-40.527,-57.129,-98.633,0.000
1801.000,-111.328,-25.391,-58.594,-91.309,0.000
1805.000,-84.961,-21.973,-52.734,-83.008,0.000
1809.000,-74.707,-37.109,-49.805,-88.867,0.000
1813.000,-65.918,-44.434,-54.199,-75.684,0.000
1816.000,-85.938,-56.152,-53.711,-84.473,0.000
1820.000,-92.773,-47.363,-50.293,-88.867,0.000
1824.000,-79.102,-32.715,-55.664,-74.219,0.000
1828.000,-77.637,-46.387,-62.012,-70.312,0.000
1832.000,-84.961,-64.941,-57.617,-72.754,0.000
1836.000,-79.102,-69.336,-40.527,-68.359,0.000
1840.000,-52.246,-36.621,-35.156,-62.012,0.000
1844.000,-48.828,-19.043,-50.781,-58.105,0.000
1848.000,-63.477,-31.738,-47.852,-52.246,0.000
1852.000,-61.523,-63.965,-24.414,-53.711,0.000
1855.000,-59.570,-73.730,-27.344,-60.059,0.000
1859.000,-54.688,-43.945,-35.645,-50.293,0.000
1863.000,-68.848,-31.738,-31.738,-41.504,0.000
1867.000,-79.102,-53.711,-33.203,-47.852,0.000
1871.000,-73.730,-68.359,-33.203,-48.340,0.000
1875.000,-62.012,-41.016,-25.879,-37.598,0.000
1879.000,-44.434,-14.160,-13.184,-20.508,0.000
1883.000,-55.664,-44.922,-16.602,-33.691,0.000
1887.000,-49.316,-54.199,-25.879,-30.273,0.000
1891.000,-37.109,-30.762,-20.996,-19.531,0.000
1895.000,-52.734,-28.320,-18.066,-32.715,0.000
1898.000,-61.523,-17.578,-4.395,-33.691,0.000
1902.000,-58.105,-13.672,-0.488,-30.273,0.000
1906.000,-40.527,-14.648,1.953,-23.438,0.000
1910.000,-21.484,-15.137,-9.277,-16.602,0.000
1914.000,-28.320,-15.137,-10.742,-26.855,0.000
1918.000,-34.180,-28.809,12.207,-36.621,0.000
1922.000,-20.020,-24.414,7.812,-19.531,0.000
1926.000,-18.555,-20.508,-12.207,-23.438,0.000
1930.000,-18.555,-24.902,-9.277,-25.391,0.000
1934.000,-8.301,-17.090,-2.930,-16.113,0.000
1938.000,-8.301,-16.602,-13.184,-32.715,0.000
1941.000,-9.766,-6.348,-13.184,-29.297,0.000
1945.000,-9.766,-14.648,-17.578,-27.832,0.000
1949.000,-19.531,-30.273,-32.227,-40.039,0.000
1953.000,-32.227,-13.184,-39.062,-48.828,0.000
1957.000,-38.086,-12.695,-32.227,-41.504,0.000
1961.000,-40.039,-25.879,-34.668,-37.598,0.000
1965.000,-41.504,-46.875,-38.574,-39.551,0.000
1969.000,-52.734,-34.668,-29.785,-39.551,0.000
1973.000,-56.152,-4.395,-34.668,-49.805,0.000
1977.000,-41.016,-14.160,-36.133,-43.945,0.000
1980.000,-30.762,-14.648,-20.508,-27.344,0.000
1984.000,-43.945,-4.883,-14.648,-40.527,0.000
1988.000,-45.898,-25.391,-26.855,-62.988,0.000
1992.000,-37.109,-33.203,-38.574,-59.570,0.000
1996.000,-35.156,-26.367,-31.738,-42.969,0.000
2000.000,-32.715,-43.457,-22.461,-43.457,0.000
2004.000,-19.043,-26.855,-19.531,-48.340,0.000
2008.000,-1.465,-11.719,-14.160,-38.086,0.000
2012.000,-16.113,-36.133,-20.020,-41.504,0.000
2016.000,-35.156,-39.062,-26.855,-39.551,0.000
2020.000,-29.297,-21.973,-25.391,-34.180,0.000
2023.000,-30.273,-8.789,-17.578,-40.039,0.000
2027.000,-32.227,-15.137,-16.602,-45.410,0.000
2031.000,-52.246,-22.949,-20.508,-50.781,0.000
2035.000,-88.867,-29.785,-21.484,-48.828,0.000
2039.000,-67.871,-25.879,-16.602,-32.715,0.000
2043.000,-49.805,-5.859,-5.371,-36.133,0.000
2047.000,-77.637,-7.324,-17.090,-83.984,0.000
2051.000,-87.891,-13.184,-15.625,-96.680,0.000
2055.000,-85.938,-6.348,-7.324,-83.496,0.000
2059.000,-102.539,-22.949,-13.184,-89.355,0.000
2063.000,-108.887,-39.062,-11.719,-87.891,0.000
2066.000,-98.145,-14.648,-6.836,-82.520,0.000
2070.000,-106.445,-8.301,-7.324,-92.285,0.000
2074.000,-95.703,-10.254,-14.160,-84.961,0.000
2078.000,-66.895,-9.277,-14.648,-62.500,0.000
2082.000,-60.059,-30.273,-16.602,-58.105,0.000
2086.000,-33.203,-12.207,-10.742,-43.945,0.000
2090.000,-9.277,-4.395,-3.906,-29.785,0.000
2094.000,-17.090,-29.785,-15.137,-36.621,0.000
2098.000,-29.297,-17.090,-25.391,-46.875,0.000
2102.000,-17.090,-4.395,-23.438,-29.297,0.000
2105.000,13.184,-15.137,-18.555,-1.465,0.000
2109.000,35.156,-17.090,-18.555,11.719,0.000
2113.000,36.621,-27.832,-20.996,9.277,0.000
2117.000,25.391,-37.598,-29.297,-0.488,0.000
2121.000,38.086,-21.973,-37.598,6.348,0.000
2125.000,42.480,-22.949,-31.738,22.461,0.000
2129.000,24.902,-24.414,-26.855,39.062,0.000
2133.000,27.832,-18.555,-30.762,39.062,0.000
2137.000,20.508,-24.414,-34.668,24.414,0.000
2141.000,24.902,-29.785,-31.738,35.645,0.000
2145.000,52.734,-22.949,-24.414,61.035,0.000
2148.000,52.246,-19.043,-29.785,64.941,0.000
2152.000,48.340,-20.996,-35.645,59.082,0.000
2156.000,55.664,-22.949,-32.227,59.082,0.000
2160.000,66.895,-24.902,-26.855,60.547,0.000
2164.000,48.828,-27.832,-29.785,64.941,0.000
2168.000,34.668,-21.484,-33.203,70.801,0.000
2172.000,43.945,-24.414,-32.715,61.035,0.000
2176.000,48.340,-30.273,-30.762,48.828,0.000
2180.000,45.410,-27.832,-29.785,48.340,0.000
2184.000,48.340,-25.391,-25.879,58.105,0.000
2188.000,58.105,-18.066,-18.555,65.430,0.000
2191.000,67.871,-13.184,-21.484,65.918,0.000
2195.000,63.965,-15.625,-26.855,65.430,0.000
2199.000,47.363,-20.508,-22.461,50.781,0.000
2203.000,45.410,-9.766,-19.043,42.480,0.000
2207.000,53.223,-10.254,-19.531,48.340,0.000
2211.000,59.082,-15.625,-17.578,49.805,0.000
2215.000,41.016,-5.371,-19.531,41.992,0.000
2219.000,27.832,-3.418,-24.414,35.645,0.000
2223.000,46.387,-0.977,-20.996,37.109,0.000
2227.000,55.176,3.906,-13.672,41.016,0.000
2230.000,50.293,4.883,-10.742,34.668,0.000
2234.000,54.199,4.883,-8.301,23.926,0.000
2238.000,48.828,-2.930,-12.207,30.762,0.000
2242.000,19.531,-10.254,-18.066,31.738,0.000
2246.000,3.418,-6.348,-8.789,34.180,0.000
2250.000,27.344,10.742,10.742,51.758,0.000
2254.000,42.969,13.672,13.672,54.199,0.000
2258.000,36.621,1.465,0.000,41.016,0.000
2262.000,35.156,-0.488,-7.812,29.785,0.000
2266.000,27.832,3.906,-10.742,24.902,0.000
2270.000,21.484,8.301,-10.742,25.391,0.000
2273.000,24.414,5.859,-7.324,21.484,0.000
2277.000,28.809,2.441,-6.836,20.020,0.000
2281.000,30.273,4.395,-12.207,21.973,0.000
2285.000,18.066,0.488,-20.508,20.020,0.000
2289.000,15.625,-7.324,-22.461,21.973,0.000
2293.000,21.484,-5.371,-17.090,19.043,0.000
2297.000,11.719,-1.953,-18.066,6.836,0.000
2301.000,11.230,-0.488,-25.879,-0.488,0.000
2305.000,15.137,-3.906,-27.832,5.371,0.000
2309.000,14.160,-7.812,-24.414,14.648,0.000
2313.000,6.836,-10.742,-22.949,13.672,0.000
2316.000,-9.277,-17.090,-18.555,2.930,0.000
2320.000,-11.230,-20.020,-17.090,-4.883,0.000
2324.000,17.578,-16.113,-20.020,2.930,0.000
2328.000,25.879,-17.578,-15.625,19.531,0.000
2332.000,-0.488,-25.391,-13.184,20.508,0.000
2336.000,-2.441,-26.367,-16.602,8.789,0.000
2340.000,-14.648,-30.762,-16.602,1.953,0.000
2344.000,-27.832,-26.855,-7.812,6.348,0.000
2348.000,-19.531,-20.508,-9.277,5.371,0.000
2352.000,-6.348,-25.391,-16.113,5.371,0.000
2355.000,5.371,-25.879,-13.184,14.648,0.000
2359.000,1.465,-26.855,-12.207,6.836,0.000
2363.000,-8.789,-30.762,-7.324,-0.977,0.000
2367.000,-19.531,-28.320,-2.441,0.977,0.000
2371.000,-8.301,-20.996,5.859,16.113,0.000
2375.000,0.977,-18.555,-0.488,14.160,0.000
2379.000,-12.695,-5.371,-12.695,0.000,0.000
2383.000,-21.973,-1.465,-2.441,2.930,0.000
2387.000,-19.043,-8.301,-0.488,-1.953,0.000
2391.000,-20.996,-15.137,-9.277,-9.277,0.000
2395.000,-11.719,-24.902,-11.230,-15.625,0.000
2398.000,-8.789,-18.066,-14.648,-11.230,0.000
2402.000,-22.949,-18.555,-19.531,0.488,0.000
2406.000,-12.207,-27.832,-17.090,-1.465,0.000
2410.000,1.465,-20.020,-13.672,-4.395,0.000
2414.000,-11.719,-14.160,-17.578,-0.977,0.000
2418.000,-14.160,-12.695,-15.625,-0.977,0.000
2422.000,2.441,-15.625,-16.113,-11.719,0.000
2426.000,6.836,-15.137,-19.043,-2.930,0.000
2430.000,3.418,-20.996,-15.625,15.625,0.000
2434.000,-18.066,-25.391,-15.625,-2.930,0.000
2438.000,-39.062,-28.320,-15.625,-20.020,0.000
2441.000,-31.250,-29.785,-12.207,-19.531,0.000
2445.000,-20.020,-20.508,-0.488,-16.602,0.000
2449.000,-28.320,-13.672,0.977,-17.090,0.000
2453.000,-43.457,-15.625,-8.301,-29.785,0.000
2457.000,-48.340,-15.137,-12.207,-40.527,0.000
2461.000,-50.293,-18.555,-23.438,-45.410,0.000
2465.000,-51.270,-47.852,-18.555,-46.875,0.000
2469.000,-52.246,-52.246,-8.301,-54.199,0.000
2473.000,-55.664,-34.668,-18.066,-54.199,0.000
2477.000,-64.941,-43.945,-44.434,-68.848,0.000
2480.000,-82.520,-13.672,-50.293,-89.844,0.000
2484.000,-87.891,1.465,-35.645,-82.031,0.000
2488.000,-72.754,-17.090,-36.133,-81.055,0.000
2492.000,-55.664,-34.668,-7.324,-74.707,0.000
2496.000,-77.637,-14.648,-5.859,-82.520,0.000
2500.000,-101.074,36.133,-31.250,-109.375,0.000
2504.000,-107.910,-34.180,-31.250,-120.117,0.000
2508.000,-92.285,-101.562,-31.738,-125.000,0.000
2512.000,-62.500,-29.785,-40.527,-124.512,0.000
2516.000,-44.922,-22.949,-31.250,-109.375,0.000
2520.000,-69.336,-12.207,-16.602,-97.656,0.000
2523.000,-121.094,20.508,-20.020,-109.863,0.000
2527.000,-118.164,-5.371,-12.695,-109.375,0.000
2531.000,-100.586,-23.926,8.301,-98.145,0.000
2535.000,-104.004,-16.602,0.977,-106.445,0.000
2539.000,-106.445,20.020,-28.320,-121.094,0.000
2543.000,-99.609,21.484,-44.922,-119.141,0.000
2547.000,-87.402,-9.277,-42.969,-99.121,0.000
2551.000,-89.355,-26.855,-24.902,-91.309,0.000
2555.000,-85.938,-16.113,-24.902,-88.867,0.000
2559.000,-83.984,1.465,-33.203,-86.426,0.000
2563.000,-83.008,-10.254,-37.109,-78.613,0.000
2566.000,-76.660,-21.973,-30.762,-70.312,0.000
2570.000,-76.172,-17.090,-26.855,-83.496,0.000
2574.000,-63.965,2.930,-27.832,-81.055,0.000
2578.000,-53.711,8.789,-24.414,-57.617,0.000
2582.000,-63.477,-7.812,-35.156,-67.383,0.000
2586.000,-65.918,-14.160,-44.434,-76.172,0.000
2590.000,-53.223,-4.883,-37.109,-59.082,0.000
2594.000,-50.293,0.977,-27.344,-59.570,0.000
2598.000,-65.918,-5.371,-33.203,-71.289,0.000
2602.000,-84.961,-13.672,-43.457,-76.660,0.000
2605.000,-79.102,-14.648,-45.410,-79.102,0.000
2609.000,-59.570,-25.879,-41.504,-80.078,0.000
2613.000,-45.898,-32.715,-41.504,-70.312,0.000
2617.000,-54.199,-25.391,-44.434,-68.848,0.000
2621.000,-55.664,-25.391,-39.551,-63.477,0.000
2625.000,-70.312,-33.691,-41.992,-65.918,0.000
2629.000,-75.195,-45.898,-45.898,-73.730,0.000
2633.000,-62.012,-25.391,-37.109,-61.035,0.000
2637.000,-66.406,-13.672,-32.715,-53.711,0.000
2641.000,-54.688,-30.273,-36.621,-47.852,0.000
2645.000,-63.965,-39.551,-38.574,-51.758,0.000
2648.000,-73.730,-41.016,-40.039,-56.641,0.000
2652.000,-72.266,-27.832,-34.668,-43.457,0.000
2656.000,-74.707,-21.973,-26.855,-41.016,0.000
2660.000,-67.871,-25.879,-24.414,-57.129,0.000
2664.000,-70.312,-19.531,-22.949,-64.453,0.000
2668.000,-65.430,-13.184,-23.926,-56.152,0.000
2672.000,-58.105,-21.973,-32.715,-61.523,0.000
2676.000,-54.688,-41.504,-37.109,-65.918,0.000
2680.000,-61.035,-26.855,-33.203,-59.082,0.000
2684.000,-52.734,-9.766,-15.137,-47.363,0.000
2688.000,-43.457,-17.578,-4.883,-45.898,0.000
2691.000,-60.547,-32.227,-22.461,-60.547,0.000
2695.000,-76.172,-34.180,-39.062,-68.359,0.000
2699.000,-69.824,-20.020,-37.109,-65.918,0.000
2703.000,-52.246,-38.574,-21.973,-51.758,0.000
2707.000,-33.203,-47.852,-16.602,-41.992,0.000
2711.000,-21.484,-22.461,-19.531,-42.969,0.000
2715.000,-22.949,2.441,-18.555,-40.039,0.000
2719.000,-33.691,4.883,-17.090,-36.133,0.000
2723.000,-11.230,-1.953,-16.113,-36.621,0.000
2727.000,7.812,0.977,-13.184,-27.344,0.000
2730.000,-14.160,-1.465,1.953,-6.348,0.000
2734.000,-17.578,3.906,9.277,0.977,0.000
2738.000,-10.254,0.977,1.465,-4.883,0.000
2742.000,-11.719,-19.043,-13.672,-22.949,0.000
2746.000,-3.418,-19.531,-20.020,-26.367,0.000
2750.000,-6.836,-23.438,-12.695,-21.484,0.000
2754.000,-20.508,-20.996,-8.301,-20.020,0.000
2758.000,-20.996,-6.836,-14.160,-11.719,0.000
2762.000,-20.020,-11.230,-14.160,-4.395,0.000
2766.000,-18.555,-9.277,-7.812,-0.977,0.000
2770.000,-10.254,-10.742,-13.184,-6.836,0.000
2773.000,7.812,-11.230,-16.113,0.000,0.000
2777.000,4.395,-22.949,-13.184,-9.766,0.000
2781.000,-29.297,-24.902,-7.324,-32.227,0.000
2785.000,-44.922,-4.883,-0.488,-22.461,0.000
2789.000,-24.414,-4.883,-6.836,-10.742,0.000
2793.000,-9.277,-22.461,-18.066,-10.254,0.000
2797.000,-28.320,-41.016,-21.484,-19.531,0.000
2801.000,-43.945,-36.621,-25.879,-36.621,0.000
2805.000,-37.598,-22.949,-28.320,-35.645,0.000
2809.000,-37.109,-15.625,-25.879,-21.484,0.000
2813.000,-30.273,-12.695,-23.438,-14.648,0.000
2816.000,-11.719,-12.695,-16.602,-10.254,0.000
2820.000,-13.184,-24.902,-15.625,-0.488,0.000
2824.000,-16.602,-23.926,-20.996,-1.953,0.000
2828.000,-8.301,-10.742,-24.414,-13.184,0.000
2832.000,-2.930,-12.207,-21.973,-10.742,0.000
2836.000,3.418,7.812,-4.395,8.301,0.000
2840.000,-3.906,8.301,-3.418,5.859,0.000
2844.000,-18.555,-7.324,-24.414,-21.973,0.000
2848.000,-24.414,-5.371,-29.297,-34.668,0.000
2852.000,-27.832,-6.348,-23.438,-35.645,0.000
2855.000,-18.555,-19.531,-22.949,-19.043,0.000
2859.000,-9.277,-21.973,-25.391,-17.578,0.000
2863.000,-8.301,-4.395,-25.391,-4.395,0.000
2867.000,-15.137,-9.277,-23.926,1.953,0.000
2871.000,-38.574,-19.531,-22.461,-31.250,0.000
2875.000,-29.297,-22.461,-23.438,-39.062,0.000
2879.000,-9.277,-24.414,-30.762,-29.297,0.000
2883.000,-10.742,-29.785,-34.668,-32.715,0.000
2887.000,-20.996,-31.250,-32.715,-41.016,0.000
2891.000,-18.555,-30.762,-32.227,-35.156,0.000
2895.000,-21.484,-39.551,-33.203,-32.715,0.000
2898.000,-20.996,-34.180,-30.762,-35.645,0.000
2902.000,-6.348,-29.785,-32.227,-33.203,0.000
2906.000,11.719,-34.180,-35.645,-26.367,0.000
2910.000,18.555,-28.809,-33.691,-14.160,0.000
2914.000,0.977,-29.297,-37.109,-8.789,0.000
2918.000,-16.602,-36.133,-34.180,-19.531,0.000
2922.000,-1.953,-39.062,-25.391,-6.348,0.000
2926.000,16.113,-30.762,-21.973,6.836,0.000
2930.000,12.695,-24.902,-20.020,3.418,0.000
2934.000,7.812,-27.832,-17.090,3.418,0.000
2938.000,18.066,-23.926,-13.184,12.207,0.000
2941.000,20.020,-24.902,-19.531,13.672,0.000
2945.000,25.391,-29.785,-24.414,12.695,0.000
2949.000,25.879,-30.273,-17.090,20.508,0.000
2953.000,14.648,-31.738,-13.672,15.625,0.000
2957.000,21.484,-32.715,-15.137,5.371,0.000
2961.000,24.902,-34.180,-21.973,7.812,0.000
2965.000,3.418,-35.156,-21.973,3.906,0.000
2969.000,-4.883,-25.391,-14.160,1.465,0.000
2973.000,6.836,-26.367,-13.184,5.859,0.000
2977.000,8.789,-35.645,-15.137,2.441,0.000
2980.000,4.883,-24.902,-12.207,10.254,0.000
2984.000,-0.488,-31.738,-9.277,6.836,0.000
2988.000,7.324,-47.363,-12.207,-2.930,0.000
2992.000,23.926,-35.645,-17.578,1.953,0.000
2996.000,27.344,-35.156,-20.020,-1.953,0.000
3000.000,20.508,-34.668,-19.531,-4.883,0.000
3004.000,1.465,-23.438,-14.648,5.371,0.000
3008.000,-13.672,-20.508,-12.695,3.418,0.000
3012.000,-10.742,-24.902,-14.160,-3.418,0.000
3016.000,-4.395,-20.508,-10.742,0.488,0.000
3020.000,-4.395,-18.066,-8.789,2.441,0.000
3023.000,-5.859,-25.879,-13.672,0.000,0.000
3027.000,-3.906,-29.785,-14.648,-4.883,0.000
3031.000,-7.324,-26.855,-11.230,-8.789,0.000
3035.000,-5.859,-20.508,-13.672,-8.301,0.000
3039.000,9.277,-14.648,-9.277,-2.930,0.000
3043.000,24.414,-19.531,-3.418,4.395,0.000
3047.000,23.438,-20.508,-13.672,0.488,0.000
3051.000,3.418,-13.672,-28.320,-14.160,0.000
3055.000,-14.160,-17.578,-30.762,-19.531,0.000
3059.000,-8.789,-22.461,-20.508,-14.648,0.000
3063.000,-5.859,-23.926,-14.648,-12.207,0.000
3066.000,-8.789,-23.926,-12.207,-10.742,0.000
3070.000,3.418,-25.391,-10.254,-14.160,0.000
3074.000,25.391,-22.461,-13.184,-15.625,0.000
3078.000,32.715,-20.508,-17.090,-11.230,0.000
3082.000,14.648,-20.020,-17.578,-10.254,0.000
3086.000,-11.230,-27.832,-15.137,-5.371,0.000
3090.000,-12.695,-32.227,-18.555,-1.953,0.000
3094.000,-10.742,-25.879,-20.996,0.488,0.000
3098.000,-14.648,-24.902,-15.137,3.418,0.000
3102.000,-15.625,-24.414,-8.301,2.441,0.000
3106.000,-1.465,-30.273,-10.742,-0.488,0.000
3109.000,7.812,-36.133,-19.531,-4.395,0.000
3113.000,-6.348,-29.785,-26.367,-2.441,0.000
3117.000,-24.902,-25.391,-25.879,-4.395,0.000
3121.000,-28.320,-24.902,-18.555,-6.836,0.000
3125.000,-12.695,-22.461,-17.578,-4.883,0.000
3129.000,13.672,-16.602,-14.648,11.230,0.000
3133.000,-1.953,-16.113,-10.742,0.488,0.000
3137.000,-43.457,-20.996,-16.113,-33.203,0.000
3141.000,-30.273,-25.879,-15.137,-32.715,0.000
3145.000,-20.020,-26.367,-13.184,-27.344,0.000
3148.000,-32.715,-38.086,-14.160,-35.645,0.000
3152.000,-55.664,-63.477,-13.672,-51.758,0.000
3156.000,-60.547,-54.688,-8.789,-51.270,0.000
3160.000,-38.574,-25.879,-13.184,-46.875,0.000
3164.000,-50.781,-32.227,-26.367,-65.918,0.000
3168.000,-76.172,-36.133,-35.645,-87.402,0.000
3172.000,-59.082,-20.020,-20.996,-77.148,0.000
3176.000,-44.434,-20.020,-7.324,-63.965,0.000
3180.000,-64.941,-31.250,-22.461,-66.895,0.000
3184.000,-81.055,-38.574,-40.039,-73.242,0.000
3188.000,-72.754,-46.387,-43.457,-83.496,0.000
3191.000,-58.594,-53.223,-39.062,-74.707,0.000
3195.000,-76.660,-41.504,-22.949,-69.824,0.000
3199.000,-75.684,-42.480,4.395,-59.082,0.000
3203.000,-65.918,-39.551,-1.465,-59.082,0.000
3207.000,-67.871,-17.090,-16.602,-73.242,0.000
3211.000,-69.336,-20.020,-23.438,-74.219,0.000
3215.000,-77.637,-23.926,-17.578,-64.453,0.000
3219.000,-68.359,-31.250,-3.906,-58.594,0.000
3223.000,-63.477,-41.992,-0.977,-70.801,0.000
3227.000,-78.613,-29.297,-13.184,-80.078,0.000
3230.000,-90.332,-19.043,-21.973,-82.520,0.000
3234.000,-79.590,-21.484,-18.555,-75.684,0.000
3238.000,-64.941,-21.484,-23.438,-64.941,0.000
3242.000,-45.898,-11.230,-20.996,-64.453,0.000
3246.000,-43.945,-5.859,-16.113,-65.430,0.000
3250.000,-58.594,-8.301,-20.508,-56.152,0.000
3254.000,-62.012,-8.789,-20.996,-50.293,0.000
3258.000,-60.547,-17.578,-17.090,-51.270,0.000
3262.000,-62.012,-26.855,-20.020,-57.617,0.000
3266.000,-68.359,-31.250,-25.391,-65.918,0.000
3270.000,-56.152,-25.879,-22.461,-57.617,0.000
3273.000,-44.434,-11.230,-16.602,-47.363,0.000
3277.000,-47.363,-19.531,-16.113,-43.457,0.000
3281.000,-38.086,-21.973,-25.391,-45.898,0.000
3285.000,-37.598,-16.602,-39.062,-56.152,0.000
3289.000,-45.410,-24.902,-27.344,-55.664,0.000
3293.000,-34.668,-31.738,-14.160,-45.410,0.000
3297.000,-31.250,-32.715,-18.555,-38.574,0.000
3301.000,-35.645,-25.391,-11.230,-30.762,0.000
3305.000,-26.855,-21.484,-7.324,-24.902,0.000
3309.000,-20.508,-24.902,-12.695,-26.855,0.000
3313.000,-27.832,-15.137,-10.742,-22.949,0.000
3316.000,-28.809,-10.254,-5.859,-13.672,0.000
3320.000,-27.344,-23.926,-12.695,-18.555,0.000
3324.000,-23.926,-16.113,-19.043,-20.508,0.000
3328.000,-18.066,-19.043,-12.207,-12.695,0.000
3332.000,-8.301,-16.602,-5.371,-18.066,0.000
3336.000,0.488,-5.371,-14.648,-20.020,0.000
3340.000,-3.906,-6.836,-18.066,-8.301,0.000
3344.000,-18.555,-18.555,-10.742,-4.883,0.000
3348.000,-25.879,-43.945,-19.043,-18.555,0.000
3352.000,-25.391,-53.711,-27.344,-16.602,0.000
3356.000,-15.137,-17.578,-28.809,-13.184,0.000
3359.000,-3.906,10.254,-22.949,-10.254,0.000
3363.000,-3.906,-2.930,-20.020,-11.230,0.000
3367.000,-8.301,1.953,-15.625,-17.578,0.000
3371.000,-18.066,-6.348,-8.301,-14.648,0.000
3375.000,0.488,0.977,-2.930,-3.906,0.000
3379.000,7.324,-12.695,-11.719,-11.719,0.000
3383.000,-36.621,-31.738,-29.785,-31.250,0.000
3387.000,-48.340,-30.762,-38.086,-32.715,0.000
3391.000,-26.367,-29.785,-36.621,-26.855,0.000
3395.000,-5.371,-6.836,-23.926,-16.602,0.000
3398.000,-9.277,-8.301,-15.137,-24.902,0.000
3402.000,-39.551,-42.969,-21.973,-50.781,0.000
3406.000,-47.363,-54.688,-29.297,-55.176,0.000
3410.000,-27.344,-25.391,-35.645,-47.363,0.000
3414.000,-16.113,4.883,-26.855,-34.180,0.000
3418.000,-43.457,-16.602,-26.855,-46.387,0.000
3422.000,-49.805,-46.387,-39.062,-45.410,0.000
3426.000,-28.320,-34.668,-42.480,-29.297,0.000
3430.000,-27.344,-15.137,-25.879,-43.945,0.000
3434.000,-40.527,2.441,-25.391,-43.457,0.000
3438.000,-50.293,-26.367,-37.598,-36.621,0.000
3441.000,-33.691,-40.527,-12.695,-27.832,0.000
3445.000,-35.156,-9.277,-15.625,-42.969,0.000
3449.000,-54.199,1.953,-27.344,-53.223,0.000
3453.000,-56.641,-7.812,-20.996,-47.363,0.000
3457.000,-47.363,-19.531,-19.043,-45.410,0.000
3461.000,-30.273,0.000,-14.648,-49.805,0.000
3465.000,-32.227,0.488,-23.926,-60.059,0.000
3469.000,-44.434,-23.438,-21.973,-63.965,0.000
3473.000,-41.504,-2.930,-18.066,-70.801,0.000
3477.000,-10.742,7.812,-15.625,-44.922,0.000
3481.000,-13.184,-33.691,-15.625,-42.480,0.000
3484.000,-42.480,-32.227,-31.738,-69.336,0.000
3488.000,-63.477,-12.695,-35.645,-69.824,0.000
3492.000,-54.199,-11.719,-23.438,-61.035,0.000
3496.000,-39.551,-20.508,-12.695,-43.945,0.000
3500.000,-52.246,-36.133,-16.113,-46.875,0.000
3504.000,-58.105,-14.648,-22.461,-53.223,0.000
3508.000,-58.594,5.859,-25.391,-43.945,0.000
3512.000,-35.156,-6.836,-17.090,-34.668,0.000
3516.000,-20.508,-14.160,-6.348,-29.785,0.000
3520.000,-33.203,-11.230,-15.137,-35.645,0.000
3523.000,-35.645,-20.508,-21.484,-37.598,0.000
3527.000,-30.762,-23.926,-24.414,-30.762,0.000
3531.000,-28.320,-20.508,-22.949,-22.461,0.000
3535.000,-23.926,-15.625,-13.184,-17.090,0.000
3539.000,-18.555,-20.996,-20.996,-23.438,0.000
3543.000,-24.414,-23.438,-32.227,-29.297,0.000
3547.000,-33.203,-30.762,-29.297,-36.133,0.000
3551.000,-26.367,-51.758,-24.902,-39.062,0.000
3555.000,-20.020,-27.832,-30.762,-47.363,0.000
3559.000,-29.297,-8.301,-26.367,-50.293,0.000
3563.000,-34.180,-14.160,-21.973,-48.828,0.000
3566.000,-28.809,-6.348,-20.508,-47.363,0.000
3570.000,-28.320,-29.785,-17.090,-41.504,0.000
3574.000,-21.484,-49.316,-29.785,-38.086,0.000
3578.000,-4.395,-3.418,-32.227,-36.133,0.000
3582.000,-8.789,-2.930,-22.949,-45.410,0.000
3586.000,-29.785,-28.320,-23.926,-45.410,0.000
3590.000,-39.062,-27.344,-24.902,-52.246,0.000
3594.000,-38.574,-29.785,-29.297,-58.594,0.000
3598.000,-37.109,-25.879,-27.832,-49.316,0.000
3602.000,-31.250,-33.691,-23.438,-43.457,0.000
3605.000,-13.184,-27.344,-19.043,-34.180,0.000
3609.000,-29.785,-33.691,-20.996,-37.598,0.000
3613.000,-56.641,-36.621,-30.762,-44.434,0.000
3617.000,-47.363,-30.762,-29.785,-39.551,0.000
3621.000,-36.621,-36.133,-14.648,-33.203,0.000
3625.000,-25.879,-26.367,-19.043,-27.832,0.000
3629.000,-15.625,-32.715,-14.648,-19.531,0.000
3633.000,-16.113,-24.902,-0.977,-15.625,0.000
3637.000,-26.855,-13.184,-17.090,-25.391,0.000
3641.000,-25.391,-34.668,-30.762,-39.551,0.000
3645.000,-24.414,-35.156,-30.762,-35.156,0.000
3648.000,-32.715,-21.484,-30.273,-25.879,0.000
3652.000,-32.715,-23.926,-30.762,-30.762,0.000
3656.000,-8.301,-18.555,-17.578,-19.043,0.000
3660.000,-4.395,-13.672,-10.742,-9.766,0.000
3664.000,-31.738,-30.273,-21.484,-27.344,0.000
3668.000,-36.133,-32.715,-12.695,-26.855,0.000
3672.000,-15.137,-29.785,2.930,-7.812,0.000
3676.000,-19.531,-37.109,-12.207,-17.578,0.000
3680.000,-32.227,-21.973,-29.297,-32.227,0.000
3684.000,-31.738,-24.902,-23.438,-26.855,0.000
3688.000,-25.391,-20.508,-23.926,-18.555,0.000
3691.000,-23.926,-14.648,-35.645,-20.996,0.000
3695.000,1.953,-15.625,-33.691,-4.883,0.000
3699.000,17.090,-9.277,-22.461,16.602,0.000
3703.000,-16.602,-32.227,-22.461,-16.113,0.000
3707.000,-20.508,-43.457,-32.227,-43.945,0.000
3711.000,7.812,-25.391,-35.156,-29.785,0.000
3715.000,5.371,-21.973,-33.203,-9.766,0.000
3719.000,6.348,-30.273,-25.391,2.930,0.000
3723.000,22.461,-16.113,-33.203,-5.859,0.000
3727.000,15.137,-3.418,-46.875,-15.137,0.000
3731.000,0.977,-12.207,-48.340,-5.859,0.000
3734.000,-4.395,-21.973,-43.457,-3.418,0.000
3738.000,-5.371,-20.020,-30.762,9.277,0.000
3742.000,-5.371,-25.391,-32.715,10.254,0.000
3746.000,1.465,-34.668,-41.504,5.371,0.000
3750.000,0.977,-28.809,-35.156,13.184,0.000
3754.000,10.254,-27.832,-29.297,15.625,0.000
3758.000,22.461,-34.180,-27.832,19.531,0.000
3762.000,29.785,-28.320,-23.438,20.020,0.000
3766.000,12.695,-32.227,-23.926,16.113,0.000
3770.000,-1.953,-39.062,-24.902,17.090,0.000
3773.000,3.906,-40.039,-27.832,14.648,0.000
3777.000,12.695,-41.016,-29.785,14.648,0.000
3781.000,21.484,-41.992,-23.438,25.879,0.000
3785.000,27.832,-43.457,-26.855,22.949,0.000
3789.000,37.598,-44.434,-28.320,15.137,0.000
3793.000,18.555,-47.363,-23.926,21.484,0.000
3797.000,-3.906,-53.223,-22.949,23.438,0.000
3801.000,-0.488,-46.387,-24.902,12.695,0.000
3805.000,13.672,-32.227,-18.555,21.973,0.000
3809.000,28.809,-41.016,-10.254,26.367,0.000
3813.000,7.324,-46.387,-16.602,8.301,0.000
3816.000,-14.648,-32.227,-22.949,-1.465,0.000
3820.000,-11.719,-25.879,-20.996,-3.418,0.000
3824.000,-1.953,-25.391,-17.090,-1.953,0.000
3828.000,0.488,-25.391,-19.043,0.000,0.000
3832.000,-5.859,-23.926,-18.066,-1.465,0.000
3836.000,-11.230,-32.715,-9.766,-2.441,0.000
3840.000,-13.672,-38.086,-13.184,-9.277,0.000
3844.000,-7.324,-28.809,-21.973,-13.672,0.000
3848.000,-15.625,-24.414,-21.484,-12.207,0.000
3852.000,-24.414,-26.367,-16.113,-14.648,0.000
3856.000,-17.090,-28.320,-7.812,-20.508,0.000
3859.000,4.395,-18.066,-2.930,-6.836,0.000
3863.000,15.137,-13.672,-1.465,7.812,0.000
3867.000,3.418,-25.391,-7.812,0.000,0.000
3871.000,13.184,-21.973,-8.301,12.695,0.000
3875.000,47.363,-2.441,6.836,41.016,0.000
3879.000,60.547,1.953,0.977,45.410,0.000
3883.000,32.715,-6.348,-12.207,9.766,0.000
3887.000,2.930,-26.855,-17.090,-17.578,0.000
3891.000,17.090,-32.715,-15.137,4.883,0.000
3895.000,16.113,-24.414,-8.789,22.949,0.000
3898.000,-10.254,-30.273,-12.207,9.766,0.000
3902.000,-15.137,-29.785,-11.719,9.766,0.000
3906.000,-16.602,-35.645,-8.301,25.879,0.000
3910.000,-7.324,-36.133,5.859,39.551,0.000
3914.000,0.488,-33.691,8.789,41.016,0.000
3918.000,-2.441,-33.691,-7.324,26.855,0.000
3922.000,13.672,-24.902,-7.812,20.996,0.000
3926.000,17.090,-25.879,-5.859,21.973,0.000
3930.000,-5.371,-33.691,-10.742,12.207,0.000
3934.000,-21.973,-33.691,-12.207,1.953,0.000
3938.000,-17.090,-42.480,-12.207,7.324,0.000
3941.000,4.395,-46.387,-9.766,10.254,0.000
3945.000,22.461,-11.719,-5.371,8.789,0.000
3949.000,8.301,-6.836,-5.859,1.953,0.000
3953.000,-14.160,-19.043,-8.301,2.441,0.000
3957.000,-13.672,-16.602,-7.812,14.648,0.000
3961.000,-13.184,-23.438,-9.766,18.555,0.000
3965.000,-12.207,-26.367,-13.672,11.719,0.000
3969.000,-6.348,-35.156,-13.184,5.371,0.000
3973.000,-4.395,-36.133,-14.648,12.695,0.000
3977.000,5.371,-25.391,-17.090,21.484,0.000
3981.000,7.812,-22.461,-20.508,15.625,0.000
3984.000,5.859,-25.879,-20.020,11.719,0.000
3988.000,4.395,-25.879,-14.160,20.020,0.000
3992.000,6.836,-20.996,-16.113,20.996,0.000
3996.000,5.371,-19.531,-17.578,11.230,0.000
4000.000,-2.930,-26.367,-18.555,0.000,0.000
4004.000,-4.883,-26.855,-15.137,10.254,0.000
4008.000,5.859,-20.996,-13.672,16.602,0.000
4012.000,-6.836,-23.438,-11.719,8.301,0.000
4016.000,-33.203,-25.391,-10.742,10.254,0.000
4020.000,-21.973,-26.367,-10.742,3.418,0.000
4023.000,-3.906,-27.832,-12.695,-7.324,0.000
4027.000,-3.906,-31.738,-21.484,-11.719,0.000
4031.000,-17.578,-32.227,-21.484,-6.348,0.000
4035.000,-17.578,-25.391,-17.578,-6.348,0.000
4039.000,-2.441,-18.066,-16.602,-5.859,0.000
4043.000,3.906,-14.160,-13.184,-1.465,0.000
4047.000,-9.277,-20.020,-16.113,3.906,0.000
4051.000,-14.648,-25.391,-22.461,-7.324,0.000
4055.000,-3.418,-17.578,-22.949,-15.137,0.000
4059.000,0.977,-25.879,-27.832,-11.719,0.000
4063.000,1.953,-38.086,-27.344,-13.672,0.000
4066.000,9.277,-24.414,-17.090,-13.184,0.000
4070.000,7.324,-17.578,-18.555,-16.602,0.000
4074.000,9.277,-14.160,-19.531,-19.531,0.000
4078.000,11.230,-21.973,-15.137,-14.160,0.000
4082.000,-22.461,-25.879,-9.766,-4.883,0.000
4086.000,-39.062,-14.648,-5.859,-0.977,0.000
4090.000,-15.137,-20.996,-9.766,-0.977,0.000
4094.000,20.508,-31.250,-6.348,21.973,0.000
4098.000,19.043,-10.254,-8.789,8.301,0.000
4102.000,-35.645,-6.836,-22.461,-37.598,0.000
4106.000,-55.176,-26.367,-30.762,-39.551,0.000
4109.000,-42.480,-17.090,-36.133,-32.715,0.000
4113.000,-53.223,-2.930,-37.598,-39.551,0.000
4117.000,-66.895,-14.160,-33.691,-53.223,0.000
4121.000,-70.312,-31.250,-27.832,-58.594,0.000
4125.000,-45.410,-21.973,-15.625,-50.293,0.000
4129.000,-19.531,-13.672,-7.324,-40.527,0.000
4133.000,-52.734,-17.090,-21.484,-62.988,0.000
4137.000,-89.844,-14.648,-28.320,-83.496,0.000
4141.000,-84.961,-20.508,-22.461,-80.078,0.000
4145.000,-75.684,-23.438,-25.391,-82.520,0.000
4148.000,-76.172,-16.602,-31.738,-83.984,0.000
4152.000,-88.379,-11.719,-25.391,-81.055,0.000
4156.000,-97.168,-11.230,-13.672,-81.543,0.000
4160.000,-95.703,-13.184,-8.789,-97.168,0.000
4164.000,-102.051,-13.672,-9.766,-103.027,0.000
4168.000,-123.535,-22.949,-14.648,-111.328,0.000
4172.000,-119.141,-21.973,-7.324,-115.234,0.000
4176.000,-108.887,-22.949,0.977,-108.887,0.000
4180.000,-122.559,-27.832,-9.277,-118.164,0.000
4184.000,-139.648,-35.645,-11.719,-134.766,0.000
4188.000,-130.371,-12.207,-4.883,-138.672,0.000
4191.000,-107.910,4.395,-13.184,-127.441,0.000
4195.000,-123.535,-28.809,-25.391,-143.066,0.000
4199.000,-139.648,-36.621,-17.090,-150.879,0.000
4203.000,-136.719,-25.879,-17.090,-137.695,0.000
4207.000,-128.418,-19.043,-24.902,-121.582,0.000
4211.000,-110.840,-20.020,-13.184,-104.004,0.000
4215.000,-104.004,-34.668,-1.465,-100.586,0.000
4219.000,-114.258,-37.109,-15.137,-103.516,0.000
4223.000,-100.586,-31.738,-14.160,-97.168,0.000
4227.000,-72.266,0.977,-0.488,-72.754,0.000
4231.000,-63.965,13.672,-15.137,-65.918,0.000
4234.000,-78.125,2.441,-32.715,-83.496,0.000
4238.000,-75.684,7.324,-36.133,-91.309,0.000
4242.000,-50.781,-9.277,-27.832,-72.754,0.000
4246.000,-39.551,-23.438,-9.277,-50.781,0.000
4250.000,-44.434,-2.930,-4.883,-47.363,0.000
4254.000,-56.641,-5.859,-19.043,-55.176,0.000
4258.000,-44.922,-52.734,-24.902,-52.246,0.000
4262.000,-29.785,-39.551,-22.461,-41.016,0.000
4266.000,-24.902,8.301,-22.461,-32.715,0.000
4270.000,-16.602,10.742,-21.973,-30.762,0.000
4273.000,-24.414,-2.930,-38.574,-39.551,0.000
4277.000,-20.996,-9.277,-47.852,-45.898,0.000
4281.000,-18.555,-15.625,-38.574,-44.434,0.000
4285.000,-20.508,-32.227,-39.062,-48.828,0.000
4289.000,-18.066,-33.203,-29.297,-48.828,0.000
4293.000,-10.254,-15.625,-13.672,-31.250,0.000
4297.000,-21.484,-23.926,-21.484,-31.738,0.000
4301.000,-59.570,-21.484,-36.621,-45.410,0.000
4305.000,-48.828,-23.926,-38.086,-36.621,0.000
4309.000,-27.832,-15.137,-30.273,-32.715,0.000
4313.000,-24.902,-0.488,-23.926,-41.992,0.000
4316.000,-17.090,-8.789,-28.320,-40.039,0.000
4320.000,-7.324,-11.719,-25.879,-31.250,0.000
4324.000,0.000,-17.578,-21.973,-33.691,0.000
4328.000,-27.344,-25.391,-35.156,-49.805,0.000
4332.000,-58.594,-26.367,-41.504,-64.941,0.000
4336.000,-62.500,-32.715,-38.086,-60.059,0.000
4340.000,-37.598,-39.062,-35.156,-54.688,0.000
4344.000,-10.254,-28.809,-27.344,-50.293,0.000
4348.000,-19.043,-30.273,-30.273,-48.828,0.000
4352.000,-29.785,-45.410,-37.109,-53.711,0.000
4356.000,-25.391,-40.039,-36.133,-53.223,0.000
4359.000,-16.113,-13.672,-34.180,-49.316,0.000
4363.000,-7.324,-12.695,-29.297,-39.062,0.000
4367.000,-18.066,-30.762,-24.902,-35.156,0.000
4371.000,-15.625,-23.926,-18.555,-37.598,0.000
4375.000,-4.395,-4.395,-10.742,-36.621,0.000
4379.000,-5.371,-31.738,-17.090,-41.504,0.000
4383.000,-11.719,-49.316,-27.344,-44.922,0.000
4387.000,-13.184,-21.484,-23.926,-37.109,0.000
4391.000,-12.695,-9.277,-26.367,-26.855,0.000
4395.000,-13.184,-22.461,-17.578,-11.719,0.000
4398.000,-9.277,-24.414,-5.371,-5.371,0.000
4402.000,-21.973,-19.531,-16.602,-24.414,0.000
4406.000,-17.090,-11.719,-17.090,-22.949,0.000
4410.000,-11.230,-24.902,-16.113,-22.949,0.000
4414.000,-17.578,-22.949,-10.742,-18.555,0.000
4418.000,-11.230,-5.859,-8.301,-6.836,0.000
4422.000,-9.766,-24.902,-17.578,-5.371,0.000
4426.000,-16.113,-47.363,-20.508,-3.418,0.000
4430.000,-23.926,-36.621,-21.484,-14.160,0.000
4434.000,-19.531,-13.672,-20.996,-21.973,0.000
4438.000,-16.602,-3.418,-16.113,-21.484,0.000
4441.000,-14.648,-15.137,-20.020,-20.508,0.000
4445.000,-6.836,-12.695,-10.742,-7.812,0.000
4449.000,-23.926,-10.254,-18.066,-21.484,0.000
4453.000,-44.922,-34.668,-34.180,-41.016,0.000
4457.000,-30.762,-31.738,-38.574,-36.133,0.000
4461.000,-20.996,-37.109,-34.668,-32.715,0.000
4465.000,-24.414,-53.223,-30.762,-40.039,0.000
4469.000,-23.438,-40.527,-41.016,-48.340,0.000
4473.000,-33.691,-20.996,-34.668,-38.086,0.000
4477.000,-47.363,-23.438,-29.785,-31.250,0.000
4481.000,-42.480,-51.758,-38.574,-43.945,0.000
4484.000,-40.039,-50.781,-42.480,-47.852,0.000
4488.000,-22.949,-24.414,-36.621,-29.785,0.000
4492.000,-15.625,-13.184,-26.855,-26.855,0.000
4496.000,-35.645,-11.719,-32.715,-41.504,0.000
4500.000,-30.762,-20.020,-22.949,-40.527,0.000
4504.000,-36.133,-32.715,-24.902,-46.875,0.000
4508.000,-38.086,-37.109,-39.551,-49.316,0.000
4512.000,-31.738,-35.645,-33.691,-38.086,0.000
4516.000,-41.504,-33.203,-26.367,-34.668,0.000
4520.000,-47.852,-25.391,-26.367,-34.668,0.000
4523.000,-40.039,-23.438,-26.855,-28.809,0.000
4527.000,-31.738,-28.809,-26.367,-30.273,0.000
4531.000,-29.785,-32.227,-26.367,-31.738,0.000
4535.000,-22.461,-36.133,-24.414,-30.273,0.000
4539.000,-5.371,-51.758,-16.602,-23.438,0.000
4543.000,-7.812,-39.551,-20.508,-28.809,0.000
4547.000,-17.090,-37.109,-27.832,-39.062,0.000
4551.000,-37.109,-32.227,-26.367,-33.691,0.000
4555.000,-52.246,-10.742,-19.531,-32.227,0.000
4559.000,-35.645,-10.254,-16.602,-33.203,0.000
4563.000,-30.762,-7.812,-19.043,-32.227,0.000
4566.000,-26.855,-17.090,-19.531,-32.227,0.000
4570.000,-13.184,-20.020,-20.996,-33.691,0.000
4574.000,-10.254,-23.438,-21.973,-25.391,0.000
4578.000,-8.789,-29.785,-24.414,-12.207,0.000
4582.000,12.207,-21.973,-24.414,6.836,0.000
4586.000,10.742,-23.926,-20.996,12.207,0.000
4590.000,-24.902,-25.391,-20.996,-9.766,0.000
4594.000,-24.414,-19.531,-24.902,-26.855,0.000
4598.000,-17.090,-25.879,-32.227,-35.156,0.000
4602.000,-18.555,-23.926,-35.156,-37.598,0.000
4606.000,-23.926,-21.973,-35.645,-39.062,0.000
4609.000,-30.273,-38.086,-37.109,-31.250,0.000
4613.000,-29.297,-35.645,-31.738,-27.344,0.000
4617.000,-27.344,-24.414,-23.926,-27.832,0.000
4621.000,-11.719,-25.879,-21.973,-21.484,0.000
4625.000,1.953,-30.762,-29.785,-19.043,0.000
4629.000,-14.160,-33.691,-33.203,-23.438,0.000
4633.000,-43.457,-40.527,-35.156,-24.414,0.000
4637.000,-43.945,-44.434,-34.180,-20.020,0.000
4641.000,-28.320,-47.363,-41.992,-19.043,0.000
4645.000,-23.926,-46.875,-44.434,-15.137,0.000
4648.000,-18.066,-47.363,-36.133,-10.742,0.000
4652.000,-2.930,-43.457,-30.762,-2.930,0.000
4656.000,27.832,-37.109,-32.227,5.859,0.000
4660.000,44.434,-37.598,-32.715,0.000,0.000
4664.000,13.184,-42.969,-29.785,5.371,0.000
4668.000,-14.648,-46.875,-23.438,12.695,0.000
4672.000,-0.488,-44.922,-22.949,4.883,0.000
4676.000,6.348,-47.363,-24.414,7.324,0.000
4680.000,10.742,-42.969,-19.531,15.137,0.000
4684.000,13.672,-40.527,-18.066,9.766,0.000
4688.000,24.902,-40.527,-20.996,12.695,0.000
4691.000,38.086,-36.621,-21.973,20.996,0.000
4695.000,12.695,-46.387,-13.184,19.531,0.000
4699.000,-5.859,-69.336,-14.648,4.883,0.000
4703.000,11.719,-61.523,-16.113,13.184,0.000
4707.000,25.391,-41.016,-18.555,27.832,0.000
4711.000,27.832,-29.297,-26.367,9.766,0.000
4715.000,16.113,-34.668,-33.691,-2.441,0.000
4719.000,2.441,-45.410,-30.762,0.977,0.000
4723.000,12.695,-41.504,-24.414,-0.977,0.000
4727.000,32.715,-41.504,-23.438,4.395,0.000
4731.000,42.480,-33.691,-17.578,9.277,0.000
4734.000,26.855,-27.344,-14.160,13.672,0.000
4738.000,4.883,-30.273,-14.160,14.160,0.000
4742.000,-7.324,-26.367,-12.695,11.230,0.000
4746.000,-18.555,-29.297,-13.184,7.324,0.000
4750.000,-15.625,-33.203,-13.672,3.418,0.000
4754.000,-0.977,-24.902,-13.184,8.789,0.000
4758.000,13.672,-26.367,-16.602,9.766,0.000
4762.000,6.836,-33.203,-16.113,5.371,0.000
4766.000,-7.324,-35.645,-14.160,-0.977,0.000
4770.000,-6.348,-39.062,-14.648,0.000,0.000
4773.000,3.418,-30.762,-14.648,-0.488,0.000
4777.000,8.789,-28.320,-18.555,-12.207,0.000
4781.000,-0.488,-28.809,-19.043,-12.207,0.000
4785.000,-10.254,-32.227,-16.602,-6.348,0.000
4789.000,-6.836,-38.086,-18.066,-5.859,0.000
4793.000,-1.953,-33.691,-21.484,-3.906,0.000
4797.000,9.766,-22.949,-22.461,-9.277,0.000
4801.000,8.789,-21.973,-27.344,-19.531,0.000
4805.000,1.465,-21.973,-36.621,-25.879,0.000
4809.000,3.906,-28.809,-38.086,-29.297,0.000
4813.000,5.371,-31.250,-29.785,-21.484,0.000
4816.000,18.555,-20.020,-24.902,-9.766,0.000
4820.000,-18.555,-25.879,-23.438,-9.766,0.000
4824.000,-47.363,-38.086,-30.273,-21.973,0.000
4828.000,-23.438,-33.691,-33.691,-22.461,0.000
4832.000,-9.766,-24.414,-25.391,-17.578,0.000
4836.000,-3.906,-24.902,-22.949,-16.602,0.000
4840.000,-4.883,-25.879,-20.996,-9.277,0.000
4844.000,-0.488,-26.367,-16.602,-0.488,0.000
4848.000,6.348,-27.344,-20.020,5.371,0.000
4852.000,0.488,-21.973,-20.996,7.812,0.000
4856.000,6.836,-19.531,-21.973,4.395,0.000
4859.000,12.695,-26.367,-25.879,2.930,0.000
4863.000,12.207,-23.438,-23.438,9.277,0.000
4867.000,2.930,-19.531,-21.973,7.324,0.000
4871.000,0.488,-19.043,-22.461,1.465,0.000
4875.000,11.719,-16.602,-20.508,3.418,0.000
4879.000,16.113,-23.438,-23.438,-3.418,0.000
4883.000,11.230,-24.414,-22.461,-5.859,0.000
4887.000,14.648,-25.879,-16.113,5.859,0.000
4891.000,2.441,-20.996,-16.113,-7.324,0.000
4895.000,-14.160,-20.020,-17.090,-22.949,0.000
4898.000,-19.531,-35.156,-20.020,-34.180,0.000
4902.000,-26.855,-33.691,-16.602,-47.363,0.000
4906.000,-16.113,-24.902,-5.371,-30.762,0.000
4910.000,-17.090,-40.039,-14.160,-40.527,0.000
4914.000,-42.969,-34.180,-29.785,-75.195,0.000
4918.000,-65.430,-21.484,-27.832,-83.984,0.000
4922.000,-55.664,-22.461,-20.508,-64.453,0.000
4926.000,-35.645,-27.832,-34.180,-48.340,0.000
4930.000,-45.898,-25.391,-35.645,-55.176,0.000
4934.000,-67.383,-23.926,-20.020,-72.754,0.000
4938.000,-87.891,-31.250,-16.602,-94.238,0.000
4941.000,-78.613,-32.227,-20.508,-90.332,0.000
4945.000,-66.895,-21.973,-19.531,-92.773,0.000
4949.000,-84.473,-19.043,-13.672,-114.258,0.000
4953.000,-91.309,-23.926,-20.508,-105.957,0.000
4957.000,-83.008,-4.883,-25.879,-83.008,0.000
4961.000,-77.637,-15.137,-10.742,-82.031,0.000
4965.000,-90.332,-42.969,-9.277,-104.980,0.000
4969.000,-98.633,-41.016,-24.902,-113.281,0.000
4973.000,-77.637,-26.855,-22.461,-91.797,0.000
4977.000,-62.012,-21.973,-14.648,-72.266,0.000
4981.000,-86.914,-27.344,-25.391,-85.938,0.000
4984.000,-111.328,-20.508,-32.715,-110.840,0.000
4988.000,-95.703,-26.367,-16.602,-105.957,0.000
4992.000,-78.125,-20.020,-18.066,-92.773,0.000
4996.000,-79.102,6.348,-22.949,-90.332,0.000
5000.000,-71.777,9.277,-9.277,-87.402,0.000
5004.000,-82.031,-10.742,-20.020,-108.887,0.000
5008.000,-80.566,-39.551,-39.551,-113.281,0.000
5012.000,-54.199,-30.273,-29.785,-85.938,0.000
5016.000,-79.102,-23.438,-28.809,-102.539,0.000
5020.000,-91.797,-29.785,-33.691,-120.117,0.000
5023.000,-62.012,-37.109,-34.180,-102.051,0.000
5027.000,-49.316,-36.133,-36.621,-87.402,0.000
5031.000,-66.895,-9.277,-35.156,-86.914,0.000
5035.000,-77.637,1.953,-39.551,-84.473,0.000
5039.000,-73.242,-4.395,-30.762,-84.473,0.000
5043.000,-82.520,-6.348,-5.371,-79.590,0.000
5047.000,-74.219,-15.625,3.906,-76.172,0.000
5051.000,-34.668,-51.270,3.418,-62.988,0.000
5055.000,-25.879,-36.133,-1.465,-61.035,0.000
5059.000,-46.875,-7.812,-13.672,-79.590,0.000
5063.000,-63.477,-15.137,-21.484,-83.496,0.000
5066.000,-56.641,-15.625,-15.625,-77.148,0.000
5070.000,-58.594,-19.531,-18.066,-77.148,0.000
5074.000,-66.895,-30.273,-28.320,-78.613,0.000
5078.000,-54.688,-34.180,-26.367,-69.824,0.000
5082.000,-46.875,-23.438,-28.320,-66.895,0.000
5086.000,-45.410,-22.461,-21.484,-59.082,0.000
5090.000,-44.434,-24.902,-19.531,-58.105,0.000
5094.000,-46.875,-27.344,-20.020,-66.895,0.000
5098.000,-40.039,-41.992,-14.648,-53.711,0.000
5102.000,-37.598,-49.805,-18.066,-49.316,0.000
5106.000,-33.203,-17.090,-19.531,-44.434,0.000
5109.000,-24.414,0.000,-16.113,-42.480,0.000
5113.000,-17.578,-15.625,-20.508,-51.270,0.000
5117.000,-28.809,-21.484,-26.367,-45.410,0.000
5121.000,-23.926,-20.020,-12.695,-24.414,0.000
5125.000,-4.883,-35.156,-1.953,-16.602,0.000
5129.000,-20.996,-36.133,-9.766,-21.484,0.000
5133.000,-27.344,-21.973,-8.789,-18.066,0.000
5137.000,-21.973,-24.902,-17.578,-19.043,0.000
5141.000,-24.902,-32.715,-18.555,-23.438,0.000
5145.000,-21.484,-18.066,-5.371,-10.742,0.000
5148.000,-31.250,-16.113,-4.883,-8.301,0.000
5152.000,-37.598,-33.203,-11.719,-22.949,0.000
5156.000,-26.367,-44.434,-15.625,-22.949,0.000
5160.000,-16.602,-32.227,-15.137,-19.531,0.000
5164.000,-23.926,-11.230,-18.066,-30.273,0.000
5168.000,-24.902,-11.719,-18.555,-35.645,0.000
5172.000,-10.742,-13.672,-13.672,-27.832,0.000
5176.000,10.254,-13.672,4.395,-8.301,0.000
5180.000,-1.465,-16.113,-5.859,-15.137,0.000
5184.000,-23.438,-36.133,-33.203,-41.016,0.000
5188.000,-16.113,-37.598,-24.902,-34.668,0.000
5191.000,-1.465,-21.973,-13.672,-21.973,0.000
5195.000,-2.441,-17.578,-14.648,-20.996,0.000
5199.000,-20.020,-20.996,-14.160,-20.508,0.000
5203.000,-20.996,-20.020,-18.555,-24.902,0.000
5207.000,-3.906,-19.043,-21.973,-33.203,0.000
5211.000,5.371,-31.250,-22.461,-40.527,0.000
5215.000,-7.324,-20.996,-27.832,-34.668,0.000
5219.000,-36.133,-27.832,-19.531,-23.438,0.000
5223.000,-31.250,-28.809,-4.883,-14.648,0.000
5227.000,0.488,15.625,1.953,0.488,0.000
5231.000,-12.695,6.836,-10.742,-12.695,0.000
5234.000,-35.645,-21.973,-28.320,-41.016,0.000
5238.000,-27.344,-32.227,-23.926,-36.133,0.000
5242.000,-4.883,-23.926,-28.809,-19.043,0.000
5246.000,-3.418,-9.277,-32.227,-20.996,0.000
5250.000,-21.973,-19.043,-14.160,-28.809,0.000
5254.000,-35.645,-26.855,-25.391,-38.086,0.000
5258.000,-23.926,-28.320,-35.156,-38.574,0.000
5262.000,-15.137,-23.438,-20.996,-30.273,0.000
5266.000,-23.438,-14.160,-12.207,-26.855,0.000
5270.000,-32.227,-17.090,-10.742,-21.484,0.000
5273.000,-28.320,-16.602,-7.324,-27.344,0.000
5277.000,-12.207,0.977,-5.371,-21.973,0.000
5281.000,3.418,3.418,-4.395,1.465,0.000
5285.000,24.902,-16.602,-11.230,7.812,0.000
5289.000,-10.254,-27.832,-34.668,-27.832,0.000
5293.000,-49.316,-29.297,-47.852,-58.105,0.000
5297.000,-38.574,-29.297,-41.992,-39.062,0.000
5301.000,-41.504,-41.992,-39.551,-26.855,0.000
5305.000,-29.297,-26.855,-43.457,-20.020,0.000
5309.000,-16.602,-2.930,-49.316,-10.742,0.000
5313.000,-16.113,-14.160,-54.688,-6.348,0.000
5316.000,-17.090,-18.066,-55.664,-4.395,0.000
5320.000,-9.277,-12.207,-55.664,-5.859,0.000
5324.000,10.254,-13.672,-50.293,1.953,0.000
5328.000,10.742,-17.578,-48.828,8.789,0.000
5332.000,12.207,-28.320,-47.363,14.648,0.000
5336.000,38.086,-5.859,-29.785,25.879,0.000
5340.000,41.016,0.977,-31.738,28.320,0.000
5344.000,17.090,-17.578,-55.176,11.719,0.000
5348.000,-1.465,-16.602,-63.477,-2.930,0.000
5352.000,0.488,-19.043,-58.105,-5.371,0.000
5356.000,22.949,-17.578,-45.898,3.906,0.000
5359.000,32.227,-20.508,-35.645,6.836,0.000
5363.000,22.461,-9.766,-37.109,-2.441,0.000
5367.000,6.348,-2.441,-40.527,-7.324,0.000
5371.000,3.418,-8.301,-40.039,-3.418,0.000
5375.000,21.973,-16.113,-44.922,4.395,0.000
5379.000,34.180,-17.578,-36.133,6.348,0.000
5383.000,10.742,-10.254,-29.785,2.441,0.000
5387.000,-10.254,-11.719,-41.016,-0.977,0.000
5391.000,-8.789,-13.672,-38.574,-1.465,0.000
5395.000,4.395,-7.812,-34.668,-6.836,0.000
5398.000,2.930,-12.207,-39.551,-11.230,0.000
5402.000,-8.789,-15.625,-39.551,-5.859,0.000
5406.000,-6.348,-15.625,-39.062,-1.465,0.000
5410.000,-9.277,-26.367,-40.527,-3.906,0.000
5414.000,-6.836,-16.113,-27.344,3.418,0.000
5418.000,15.625,0.977,-14.160,5.371,0.000
5422.000,9.766,-12.207,-27.832,-15.625,0.000
5426.000,-20.996,-32.227,-36.133,-31.738,0.000
5430.000,-23.438,-33.203,-33.691,-31.250,0.000
5434.000,-32.715,-27.832,-29.297,-30.273,0.000
5438.000,-50.293,-25.879,-27.832,-28.809,0.000
5441.000,-37.109,-20.508,-31.250,-24.414,0.000
5445.000,-25.391,-19.043,-27.832,-28.320,0.000
5449.000,-22.949,-14.648,-20.996,-27.832,0.000
5453.000,-20.996,-15.625,-27.344,-22.949,0.000
5457.000,-9.766,-18.555,-23.926,-14.160,0.000
5461.000,-7.812,-9.766,-21.973,-10.254,0.000
5465.000,-17.578,-5.371,-31.250,-1.465,0.000
5469.000,-20.020,-3.418,-26.367,-2.441,0.000
5473.000,-26.855,-10.742,-19.043,-17.090,0.000
5477.000,-31.738,-15.625,-23.438,-27.344,0.000
5481.000,-31.250,-16.113,-21.484,-20.020,0.000
5484.000,-22.949,-16.602,-20.508,-15.137,0.000
5488.000,-20.996,-24.414,-27.344,-17.090,0.000
5492.000,-17.578,-26.855,-22.949,-4.395,0.000
5496.000,-15.625,-27.832,-25.879,-11.719,0.000
5500.000,-11.719,-36.621,-35.156,-26.367,0.000
5504.000,13.184,-33.203,-29.785,-21.484,0.000
5508.000,10.742,-28.809,-26.367,-12.695,0.000
5512.000,-8.789,-31.250,-27.344,-6.836,0.000
5516.000,-12.207,-29.785,-25.391,-16.602,0.000
5520.000,-12.207,-28.809,-24.902,-19.043,0.000
5523.000,-6.348,-25.391,-19.531,-10.742,0.000
5527.000,0.488,-30.762,-16.602,-8.301,0.000
5531.000,-5.371,-43.945,-20.996,-10.254,0.000
5535.000,-19.043,-36.133,-19.531,-9.766,0.000
5539.000,-17.090,-23.438,-14.648,-6.348,0.000
5543.000,0.000,-20.020,-18.555,-4.883,0.000
5547.000,14.648,-18.555,-21.484,7.324,0.000
5551.000,5.859,-18.555,-15.625,7.324,0.000
5555.000,-1.953,-13.184,-4.395,11.230,0.000
5559.000,7.812,5.371,2.441,17.090,0.000
5563.000,0.488,-19.043,-6.836,4.395,0.000
5566.000,-15.625,-46.387,-23.438,2.930,0.000
5570.000,-20.020,-36.133,-17.578,8.301,0.000
5574.000,-12.695,-37.109,-2.930,3.418,0.000
5578.000,-5.859,-36.133,-1.465,-1.465,0.000
5582.000,-13.184,-18.066,-0.488,-2.930,0.000
5586.000,-16.113,-25.391,-1.465,-3.418,0.000
5590.000,-16.113,-29.785,-0.977,-4.395,0.000
5594.000,10.742,-3.906,9.277,-4.395,0.000
5598.000,30.762,-4.395,10.254,2.441,0.000
5602.000,3.906,-15.625,-13.672,-11.719,0.000
5606.000,-13.184,-11.719,-29.785,-24.414,0.000
5609.000,-19.043,-20.020,-16.113,-9.766,0.000
5613.000,-36.621,-25.391,-12.207,-0.977,0.000
5617.000,-49.316,-12.695,-17.090,-5.859,0.000
5621.000,-27.832,-20.020,-9.766,-1.465,0.000
5625.000,1.465,-29.785,-9.277,0.000,0.000
5629.000,9.766,-12.207,-8.301,1.465,0.000
5633.000,14.648,-1.465,2.441,4.883,0.000
5637.000,-12.207,-6.348,-4.883,-0.488,0.000
5641.000,-36.133,-8.301,-16.602,-1.465,0.000
5645.000,-15.137,-13.672,-10.742,4.883,0.000
5648.000,-10.254,-12.695,-6.348,1.465,0.000
5652.000,-14.648,-9.766,-13.184,-0.488,0.000
5656.000,-13.184,-14.648,-18.555,8.789,0.000
5660.000,-1.953,-17.090,-16.602,7.324,0.000
5664.000,8.789,-13.184,-18.555,-0.977,0.000
5668.000,-2.930,-15.137,-17.578,8.789,0.000
5672.000,-1.465,-23.438,-19.531,6.348,0.000
5676.000,8.789,-21.973,-23.926,1.953,0.000
5680.000,12.695,-21.484,-22.461,3.906,0.000
5684.000,5.859,-24.902,-23.438,-5.371,0.000
5688.000,-3.418,-22.949,-21.973,-8.301,0.000
5691.000,-0.977,-26.855,-20.508,-5.371,0.000
5695.000,-0.977,-39.062,-25.879,-4.395,0.000
5699.000,-2.930,-42.969,-24.902,1.465,0.000
5703.000,-17.090,-40.039,-18.555,0.000,0.000
5707.000,-3.418,-33.691,-18.555,-7.812,0.000
5711.000,12.207,-27.344,-20.996,-9.766,0.000
5715.000,2.441,-27.344,-26.367,-18.066,0.000
5719.000,-1.465,-26.855,-24.414,-16.602,0.000
5723.000,-5.859,-25.391,-19.043,-3.418,0.000
5727.000,-2.930,-29.785,-17.578,1.465,0.000
5731.000,5.371,-31.738,-18.066,-13.184,0.000
5734.000,-3.418,-24.902,-17.578,-19.531,0.000
5738.000,-17.578,-25.391,-17.090,-9.277,0.000
5742.000,-7.812,-30.762,-18.555,-6.836,0.000
5746.000,1.953,-36.133,-19.043,-8.789,0.000
5750.000,-3.906,-41.992,-24.902,-8.789,0.000
5754.000,-10.742,-35.645,-26.367,-5.371,0.000
5758.000,-1.953,-22.949,-25.879,-5.371,0.000
5762.000,0.977,-24.902,-26.855,-10.742,0.000
5766.000,-13.672,-29.785,-30.762,-12.207,0.000
5770.000,-21.973,-30.273,-32.715,-9.277,0.000
5773.000,-13.672,-30.273,-20.996,-4.883,0.000
5777.000,-5.859,-23.926,-16.602,-7.324,0.000
5781.000,-7.812,-21.484,-21.973,-13.672,0.000
5785.000,0.488,-27.344,-22.461,2.930,0.000
5789.000,15.625,-14.648,-18.066,27.832,0.000
5793.000,4.395,-9.277,-18.066,4.883,0.000
5797.000,-6.836,-15.137,-13.672,-19.043,0.000
5801.000,-14.160,-12.207,-7.812,-21.484,0.000
5805.000,-26.367,-27.344,-14.160,-35.645,0.000
5809.000,-21.484,-33.691,-20.020,-36.621,0.000
5813.000,-36.133,-23.438,-19.043,-49.316,0.000
5816.000,-76.172,-43.945,-27.344,-63.477,0.000
5820.000,-85.449,-47.363,-29.785,-64.453,0.000
5824.000,-63.965,-24.902,-13.672,-58.594,0.000
5828.000,-62.500,-22.461,-14.648,-77.637,0.000
5832.000,-74.707,-23.926,-30.762,-109.863,0.000
5836.000,-89.355,-17.090,-32.715,-102.051,0.000
5840.000,-83.496,-32.227,-29.785,-77.148,0.000
5844.000,-84.961,-49.316,-26.367,-78.125,0.000
5848.000,-116.211,-28.320,-22.949,-99.121,0.000
5852.000,-121.582,-21.484,-20.508,-108.887,0.000
5856.000,-105.957,-18.066,-20.020,-98.145,0.000
5859.000,-100.098,-18.555,-26.855,-96.191,0.000
5863.000,-114.746,-21.484,-24.902,-105.957,0.000
5867.000,-112.305,-24.902,-15.137,-96.191,0.000
5871.000,-97.656,-35.645,-8.789,-86.914,0.000
5875.000,-96.191,-37.598,-18.555,-109.863,0.000
5879.000,-99.121,-52.246,-28.320,-128.418,0.000
5883.000,-100.586,-39.551,-32.227,-121.582,0.000
5887.000,-90.820,-9.766,-27.344,-121.094,0.000
5891.000,-79.102,-27.832,-24.414,-122.070,0.000
5895.000,-60.547,-32.227,-7.812,-99.609,0.000
5898.000,-68.848,-21.484,-9.766,-92.285,0.000
5902.000,-94.238,-20.508,-25.391,-94.238,0.000
5906.000,-91.309,-21.484,-24.902,-83.984,0.000
5910.000,-87.402,-14.648,-31.250,-80.078,0.000
5914.000,-91.797,-17.578,-28.320,-78.125,0.000
5918.000,-104.980,-43.457,-24.902,-85.449,0.000
5922.000,-101.074,-48.828,-32.227,-76.172,0.000
5926.000,-80.078,-44.922,-38.086,-65.430,0.000
5930.000,-81.055,-49.805,-22.949,-74.707,0.000
5934.000,-76.172,-61.035,-6.348,-67.383,0.000
5938.000,-60.059,-48.828,-2.930,-48.340,0.000
5941.000,-40.527,-9.277,-16.602,-37.598,0.000
5945.000,-43.457,3.906,-19.531,-44.922,0.000
5949.000,-62.500,-14.160,-10.254,-61.035,0.000
5953.000,-50.293,-25.391,-8.301,-48.340,0.000
5957.000,-34.180,-16.113,-4.883,-33.691,0.000
5961.000,-22.461,-8.301,5.859,-34.668,0.000
5965.000,-30.762,-18.555,0.000,-44.434,0.000
5969.000,-54.199,-29.785,-13.672,-54.199,0.000
5973.000,-47.852,-35.645,-11.230,-50.781,0.000
5977.000,-42.480,-34.668,-15.625,-60.059,0.000
5981.000,-47.852,-33.691,-15.137,-64.453,0.000
5984.000,-46.387,-31.738,1.953,-55.176,0.000
5988.000,-47.363,-28.320,1.465,-50.293,0.000
5992.000,-36.133,-24.414,-2.930,-49.316,0.000
5996.000,-35.156,-15.625,-4.883,-48.340,0.000
6000.000,-49.316,-19.043,-5.371,-49.316,0.000
6004.000,-60.547,-38.574,2.441,-54.199,0.000
6008.000,-50.293,-28.320,10.742,-50.781,0.000
6012.000,-43.945,-18.066,0.488,-57.129,0.000
6016.000,-57.617,-20.508,-15.625,-66.895,0.000
6020.000,-75.684,-14.160,-20.508,-57.617,0.000
6023.000,-88.867,-20.020,-14.160,-57.617,0.000
6027.000,-76.660,-33.203,-4.883,-57.129,0.000
6031.000,-68.359,-51.758,-2.930,-47.852,0.000
6035.000,-74.707,-40.039,0.488,-57.129,0.000
6039.000,-72.266,0.000,1.465,-64.941,0.000
6043.000,-65.430,-12.695,-0.977,-59.570,0.000
6047.000,-60.059,-30.762,2.441,-55.664,0.000
6051.000,-51.270,-6.348,-4.395,-47.363,0.000
6055.000,-38.086,-2.441,-5.859,-38.574,0.000
6059.000,-28.809,-10.254,-6.836,-36.133,0.000
6063.000,-31.738,-21.973,-12.695,-39.062,0.000
6066.000,-51.758,-32.715,-15.625,-45.410,0.000
6070.000,-43.457,-28.320,-20.020,-44.434,0.000
6074.000,-28.809,-16.113,-22.949,-42.480,0.000
6078.000,-32.715,-14.648,-23.926,-36.621,0.000
6082.000,-22.461,-29.297,-11.230,-26.855,0.000
6086.000,-10.742,-31.250,-6.836,-28.320,0.000
6090.000,-18.555,-14.648,-14.648,-37.598,0.000
6094.000,-46.875,-18.066,-20.508,-44.434,0.000
6098.000,-41.504,-26.855,-17.090,-32.227,0.000
6102.000,-23.926,-15.137,-21.973,-31.738,0.000
6106.000,-23.438,-11.719,-27.832,-39.551,0.000
6109.000,-20.996,-26.855,-23.438,-34.668,0.000
6113.000,-30.762,-30.273,-14.648,-33.691,0.000
6117.000,-47.363,-22.949,-18.555,-40.527,0.000
6121.000,-39.551,-20.508,-31.738,-37.109,0.000
6125.000,-24.902,-37.598,-27.344,-24.414,0.000
6129.000,-15.137,-54.688,-19.531,-29.785,0.000
6133.000,-20.996,-32.227,-32.227,-45.898,0.000
6137.000,-37.109,-18.066,-36.621,-45.410,0.000
6141.000,-35.645,-19.531,-30.762,-36.621,0.000
6145.000,-39.062,-20.996,-32.227,-44.434,0.000
6148.000,-43.945,-38.086,-35.645,-46.387,0.000
6152.000,-37.598,-53.223,-31.738,-34.668,0.000
6156.000,-28.809,-32.715,-27.344,-32.715,0.000
6160.000,-13.672,-15.625,-32.715,-31.738,0.000
6164.000,-14.160,-16.602,-26.367,-26.367,0.000
6168.000,-14.160,-9.766,-11.719,-19.043,0.000
6172.000,-12.695,-32.715,-15.137,-27.344,0.000
6176.000,-10.742,-52.246,-23.926,-37.598,0.000
6180.000,-17.578,-30.273,-29.785,-42.969,0.000
6184.000,-39.551,-15.625,-31.250,-39.551,0.000
6188.000,-32.715,-14.160,-21.973,-29.297,0.000
6191.000,-20.508,-17.578,-19.043,-29.785,0.000
6195.000,-8.301,-21.973,-17.090,-28.809,0.000
6199.000,-5.371,-30.762,-20.020,-31.250,0.000
6203.000,-14.648,-27.832,-18.066,-20.508,0.000
6207.000,-15.625,-28.320,-10.254,-10.254,0.000
6211.000,-13.184,-34.668,-17.578,-23.926,0.000
6215.000,-21.484,-28.809,-26.855,-29.785,0.000
6219.000,-27.832,-4.395,-14.160,-18.066,0.000
6223.000,-16.113,12.207,-2.441,5.859,0.000
6227.000,-5.859,4.395,-16.602,10.254,0.000
6231.000,4.395,1.465,-25.391,11.719,0.000
6234.000,21.973,11.230,-18.555,23.438,0.000
6238.000,15.137,17.090,-16.602,0.488,0.000
6242.000,0.977,-16.113,-19.531,-28.809,0.000
6246.000,-14.160,-26.855,-31.738,-30.762,0.000
6250.000,-22.461,-1.465,-37.109,-16.113,0.000
6254.000,-17.578,-11.230,-38.086,-16.602,0.000
6258.000,-9.766,-20.996,-46.875,-21.484,0.000
6262.000,-16.113,-17.090,-43.457,-12.207,0.000
6266.000,-27.344,-10.742,-36.621,2.441,0.000
6270.000,-13.672,-10.254,-39.551,4.395,0.000
6273.000,8.789,-25.391,-46.875,2.930,0.000
6277.000,14.648,-26.855,-47.363,13.184,0.000
6281.000,14.648,-19.043,-40.527,19.531,0.000
6285.000,13.672,-17.578,-37.109,23.438,0.000
6289.000,13.184,-16.113,-41.016,21.484,0.000
6293.000,20.996,-16.602,-40.039,19.531,0.000
6297.000,23.438,-19.531,-36.621,16.113,0.000
6301.000,18.066,-22.461,-34.668,12.207,0.000
6305.000,27.344,-14.160,-32.715,14.160,0.000
6309.000,53.223,-6.348,-23.438,25.391,0.000
6313.000,51.758,-9.766,-18.555,29.785,0.000
6316.000,31.738,-12.695,-27.344,25.879,0.000
6320.000,24.902,-17.090,-31.738,20.508,0.000
6324.000,31.738,-16.602,-29.785,6.836,0.000
6328.000,24.414,-18.066,-34.180,-5.859,0.000
6332.000,5.371,-25.391,-39.551,-12.695,0.000
6336.000,9.766,-27.344,-36.621,-5.859,0.000
6340.000,28.809,-24.414,-25.879,5.371,0.000
6344.000,35.156,-9.766,-16.602,9.277,0.000
6348.000,18.555,-4.395,-22.949,0.000,0.000
6352.000,-1.465,-16.113,-29.297,-2.930,0.000
6356.000,-3.906,-24.414,-30.762,-1.465,0.000
6359.000,-0.977,-21.484,-31.738,-6.836,0.000
6363.000,-6.348,-22.949,-31.250,-8.301,0.000
6367.000,-14.160,-21.973,-31.738,-9.766,0.000
6371.000,2.930,-14.160,-27.344,-1.465,0.000
6375.000,48.828,-2.930,-17.090,28.809,0.000
6379.000,43.457,-11.719,-26.855,16.113,0.000
6383.000,-17.090,-24.902,-35.156,-32.227,0.000
6387.000,-32.715,-16.602,-25.879,-34.668,0.000
6391.000,-24.902,-28.320,-24.902,-21.973,0.000
6395.000,-24.414,-39.062,-32.227,-16.602,0.000
6398.000,-20.508,-26.855,-33.203,-12.695,0.000
6402.000,-16.602,-24.414,-28.320,-16.113,0.000
6406.000,-7.324,-33.203,-25.391,-19.043,0.000
6410.000,4.395,-36.621,-21.973,-4.395,0.000
6414.000,13.672,-24.902,-23.438,-0.977,0.000
6418.000,8.301,-16.602,-18.066,0.488,0.000
6422.000,-7.812,-17.090,-11.719,4.883,0.000
6426.000,-0.488,-19.043,-11.719,5.859,0.000
6430.000,7.324,-24.414,-9.766,14.160,0.000
6434.000,-5.371,-26.855,-11.230,7.324,0.000
6438.000,-7.324,-21.484,-10.742,0.488,0.000
6441.000,-12.695,-18.066,-2.930,-7.324,0.000
6445.000,-21.484,-19.043,-3.418,-12.695,0.000
6449.000,-21.973,-20.020,-0.977,-9.766,0.000
6453.000,-16.113,-24.414,4.883,-6.836,0.000
6457.000,-12.695,-23.438,-1.953,-8.301,0.000
6461.000,-2.930,-22.949,-7.324,-15.137,0.000
6465.000,-5.371,-26.855,-7.324,-11.719,0.000
6469.000,-24.902,-23.926,-9.277,-13.184,0.000
6473.000,-21.973,-25.879,-10.742,-21.973,0.000
6477.000,-12.207,-31.250,-11.230,-18.555,0.000
6481.000,-31.250,-33.691,-11.230,-18.555,0.000
6484.000,-41.504,-27.344,-12.207,-21.484,0.000
6488.000,-27.344,-31.738,-14.648,-24.414,0.000
6492.000,-8.301,-30.273,-9.277,-15.625,0.000
6496.000,1.465,-17.578,-9.766,-14.648,0.000
6500.000,-11.719,-28.320,-20.996,-33.203,0.000
6504.000,-16.113,-32.715,-14.648,-29.785,0.000
6508.000,-20.020,-29.297,-5.859,-17.578,0.000
6512.000,-22.949,-31.250,-4.883,-19.531,0.000
6516.000,-31.250,-31.250,-4.395,-24.902,0.000
6520.000,-37.109,-22.949,-7.812,-20.996,0.000
6523.000,-39.062,-21.973,-14.160,-12.695,0.000
6527.000,-38.574,-24.414,-20.508,-9.277,0.000
6531.000,-30.273,-20.020,-23.926,-9.766,0.000
6535.000,-27.832,-20.996,-24.902,-19.531,0.000
6539.000,-15.137,-22.949,-26.855,-29.785,0.000
6543.000,9.277,-25.391,-29.785,-25.391,0.000
6547.000,6.836,-28.809,-36.621,-23.438,0.000
6551.000,-9.766,-27.344,-40.039,-33.203,0.000
6555.000,-5.859,-18.066,-32.227,-29.785,0.000
6559.000,4.395,-13.184,-26.855,-20.020,0.000
6563.000,5.371,-16.113,-26.367,-24.902,0.000
6566.000,-6.836,-20.508,-23.926,-29.785,0.000
6570.000,-16.602,-21.973,-21.484,-26.367,0.000
6574.000,-10.742,-25.391,-23.926,-25.879,0.000
6578.000,-4.395,-29.297,-22.949,-30.762,0.000
6582.000,-8.789,-33.691,-20.508,-36.133,0.000
6586.000,-24.902,-33.691,-20.020,-37.598,0.000
6590.000,-17.578,-26.367,-22.461,-35.156,0.000
6594.000,3.418,-27.344,-23.438,-31.250,0.000
6598.000,-20.508,-31.738,-18.555,-26.367,0.000
6602.000,-51.270,-17.090,-12.207,-16.113,0.000
6606.000,-39.062,-20.020,-16.113,-17.578,0.000
6609.000,-23.438,-34.668,-19.043,-27.832,0.000
6613.000,-12.695,-27.832,-20.020,-17.578,0.000
6617.000,-10.254,-20.996,-17.578,-8.301,0.000
6621.000,-22.949,-23.926,-11.230,-7.812,0.000
6625.000,-27.344,-26.855,-14.648,-7.812,0.000
6629.000,-17.090,-22.949,-16.113,-7.324,0.000
6633.000,-16.602,-20.508,-15.625,-8.789,0.000
6637.000,-15.625,-22.949,-15.137,-14.648,0.000
6641.000,-1.465,-28.809,-17.578,-18.066,0.000
6645.000,6.348,-21.973,-13.672,-13.672,0.000
6648.000,11.719,-14.160,-12.207,-12.695,0.000
6652.000,1.953,-17.578,-15.137,-19.043,0.000
6656.000,-5.371,-15.137,-18.066,-19.531,0.000
6660.000,12.695,-10.742,-18.066,-13.184,0.000
6664.000,19.531,-16.602,-11.719,-0.488,0.000
6668.000,6.348,-25.391,-10.254,-0.977,0.000
6672.000,-16.113,-27.832,-13.184,-25.879,0.000
6676.000,-28.809,-27.832,-12.695,-34.668,0.000
6680.000,-18.555,-10.254,-11.230,-30.273,0.000
6684.000,-11.230,-15.137,-9.766,-19.531,0.000
6688.000,-32.227,-23.438,-13.672,-36.133,0.000
6691.000,-31.738,-6.348,-15.625,-45.410,0.000
6695.000,-21.484,-2.441,-12.207,-40.527,0.000
6699.000,-38.574,-20.020,-18.066,-59.082,0.000
6703.000,-53.223,-23.926,-25.879,-83.008,0.000
6707.000,-58.594,-27.344,-22.949,-80.078,0.000
6711.000,-54.688,-8.301,-17.578,-68.359,0.000
6715.000,-71.777,-5.859,-33.203,-93.750,0.000
6719.000,-95.703,-18.066,-34.668,-97.656,0.000
6723.000,-83.496,-8.301,-19.531,-88.379,0.000
6727.000,-62.988,-8.789,-20.508,-94.727,0.000
6731.000,-75.195,-14.160,-17.578,-95.215,0.000
6734.000,-95.215,-41.992,-7.812,-93.262,0.000
6738.000,-91.797,-41.016,-5.859,-93.750,0.000
6742.000,-81.055,-23.438,-11.719,-93.262,0.000
6746.000,-91.309,-36.133,-21.484,-99.121,0.000
6750.000,-99.609,-41.504,-27.344,-99.121,0.000
6754.000,-117.188,-24.902,-25.391,-94.238,0.000
6758.000,-114.258,-2.441,-18.555,-91.309,0.000
6762.000,-92.285,-18.066,-16.113,-89.844,0.000
6766.000,-97.168,-42.969,-19.531,-101.562,0.000
6770.000,-113.281,-44.434,-22.949,-117.676,0.000
6773.000,-110.840,-28.320,-27.832,-126.465,0.000
6777.000,-104.004,-8.789,-25.391,-128.418,0.000
6781.000,-112.793,-16.113,-26.367,-133.301,0.000
6785.000,-118.164,-18.555,-17.578,-133.301,0.000
6789.000,-114.746,-15.625,-10.254,-130.371,0.000
6793.000,-110.352,-19.531,-17.090,-129.395,0.000
6797.000,-125.977,-17.090,-21.484,-138.672,0.000
6801.000,-121.094,-19.531,-7.812,-131.836,0.000
6805.000,-107.910,-38.086,-2.930,-118.652,0.000
6809.000,-95.215,-31.738,-1.465,-116.211,0.000
6813.000,-78.613,-8.789,-5.859,-120.117,0.000
6816.000,-97.168,-22.461,-18.066,-120.117,0.000
6820.000,-103.027,-41.992,-17.578,-104.980,0.000
6824.000,-78.613,-24.414,-19.043,-92.773,0.000
6828.000,-57.617,-1.953,-18.066,-82.031,0.000
6832.000,-54.199,-10.742,-19.043,-80.078,0.000
6836.000,-51.758,-8.789,-24.902,-70.312,0.000
6840.000,-43.945,2.930,-13.184,-44.434,0.000
6844.000,-48.828,-2.441,-14.160,-42.969,0.000
6848.000,-52.246,-19.043,-28.320,-45.410,0.000
6852.000,-56.641,-32.227,-34.180,-39.062,0.000
6856.000,-40.039,-6.836,-24.414,-35.645,0.000
6859.000,-17.578,2.930,-15.137,-33.203,0.000
6863.000,-21.484,-28.320,-22.949,-34.668,0.000
6867.000,-43.945,-21.973,-26.855,-24.902,0.000
6871.000,-41.504,-8.301,-20.508,-15.137,0.000
6875.000,-17.090,-11.719,-19.043,-4.395,0.000
6879.000,-12.695,-14.160,-14.160,-11.719,0.000
6883.000,-21.973,-13.672,-10.742,-21.484,0.000
6887.000,-26.855,-19.531,-17.090,-12.695,0.000
6891.000,-10.742,-17.578,-17.090,-5.859,0.000
6895.000,-6.836,-13.184,-17.090,-5.371,0.000
6898.000,-14.648,-18.066,-21.484,-6.836,0.000
6902.000,-18.066,-23.438,-24.902,-12.695,0.000
6906.000,-22.949,-17.090,-24.414,-16.602,0.000
6910.000,-11.230,-4.395,-30.273,-12.695,0.000
6914.000,-19.531,-13.672,-39.062,-15.137,0.000
6918.000,-38.574,-26.855,-34.180,-19.531,0.000
6922.000,-25.879,-22.949,-23.926,-9.277,0.000
6926.000,-20.508,-12.207,-21.973,0.488,0.000
6930.000,-37.598,-8.789,-20.508,-12.207,0.000
6934.000,-30.762,-1.953,-13.672,-14.160,0.000
6938.000,-20.020,-1.953,-11.719,1.465,0.000
6941.000,-15.625,-6.836,-7.324,10.742,0.000
6945.000,-12.695,-9.277,-0.488,16.113,0.000
6949.000,-31.738,-20.508,-10.254,7.324,0.000
6953.000,-32.227,-25.879,-26.367,-3.906,0.000
6957.000,-23.438,-15.137,-20.020,-6.348,0.000
6961.000,-7.812,-19.043,-10.742,4.883,0.000
6965.000,-7.324,-20.020,-22.949,10.742,0.000
6969.000,-23.438,-14.160,-20.508,-2.441,0.000
6973.000,-16.113,-30.762,-18.555,-3.418,0.000
6977.000,-3.906,-35.156,-30.273,1.465,0.000
6981.000,-2.930,-13.184,-23.438,5.371,0.000
6984.000,-11.719,2.441,-16.602,10.742,0.000
6988.000,-17.090,-14.648,-17.578,12.695,0.000
6992.000,-6.348,-14.648,-17.578,13.184,0.000
6996.000,5.859,-1.465,-14.160,8.301,0.000
7000.000,4.883,-7.324,-11.719,8.301,0.000
7004.000,6.348,-11.719,-18.555,17.090,0.000
7008.000,8.789,-11.230,-16.113,10.254,0.000
7012.000,-17.090,-7.812,-20.508,-5.371,0.000
7016.000,-30.273,-7.812,-26.367,-15.625,0.000
7020.000,-19.531,-2.930,-11.230,-4.883,0.000
7023.000,-17.578,-17.578,-5.859,5.859,0.000
7027.000,-8.789,-36.621,-11.230,10.254,0.000
7031.000,-8.301,-22.949,-4.883,12.695,0.000
7035.000,-19.043,-29.297,-8.301,4.883,0.000
7039.000,-14.648,-30.273,-11.719,11.230,0.000
7043.000,-0.488,-12.695,-12.207,16.113,0.000
7047.000,10.742,-13.672,-9.766,7.812,0.000
7051.000,18.555,-18.555,-5.371,7.324,0.000
7055.000,10.742,-15.625,-14.648,-6.348,0.000
7059.000,16.602,-20.996,-19.043,-13.672,0.000
7063.000,21.973,-11.719,-12.207,-3.906,0.000
7066.000,3.418,0.977,-9.277,3.906,0.000
7070.000,-15.625,-1.465,-7.324,0.000,0.000
7074.000,-22.461,-3.906,-12.695,-10.742,0.000
7078.000,-16.113,-24.414,-18.066,-26.855,0.000
7082.000,-18.555,-18.066,-20.996,-36.621,0.000
7086.000,-25.391,-20.996,-26.367,-37.598,0.000
7090.000,-27.344,-50.293,-24.414,-37.109,0.000
7094.000,-27.832,-29.785,-27.344,-22.461,0.000
7098.000,-35.156,-1.953,-26.855,-23.926,0.000
7102.000,-48.828,0.977,-25.391,-35.645,0.000
7106.000,-42.969,-8.789,-28.320,-29.785,0.000
7109.000,-32.715,-20.996,-28.809,-27.344,0.000
7113.000,-23.438,-24.902,-27.344,-21.484,0.000
7117.000,-30.273,-33.691,-27.344,-31.250,0.000
7121.000,-37.109,-27.344,-20.996,-36.133,0.000
7125.000,-25.391,-13.184,-10.254,-17.578,0.000
7129.000,-12.207,-19.043,-8.789,-14.648,0.000
7133.000,-25.391,-30.762,-25.879,-35.645,0.000
7137.000,-44.922,-50.293,-37.598,-51.270,0.000
7141.000,-32.715,-39.551,-26.855,-38.086,0.000
7145.000,-17.090,-9.277,-21.484,-23.926,0.000
7148.000,-19.531,-19.531,-29.297,-25.391,0.000
7152.000,-33.691,-14.648,-30.273,-31.738,0.000
7156.000,-32.715,-0.488,-28.320,-28.320,0.000
7160.000,-26.855,-13.672,-25.879,-28.809,0.000
7164.000,-25.879,-20.020,-22.949,-29.297,0.000
7168.000,-18.066,-21.484,-25.391,-20.020,0.000
7172.000,4.883,-24.414,-23.926,-13.184,0.000
7176.000,36.621,-6.348,-13.672,4.395,0.000
7180.000,6.836,-9.277,-19.531,-9.766,0.000
7184.000,-36.133,-33.203,-36.621,-40.527,0.000
7188.000,-41.016,-40.039,-40.039,-37.109,0.000
7191.000,-21.973,-38.086,-30.762,-21.484,0.000
7195.000,2.441,-32.715,-31.250,-10.254,0.000
7199.000,0.488,-29.297,-33.691,-3.906,0.000
7203.000,-4.883,-38.086,-36.133,0.488,0.000
7207.000,1.465,-47.363,-49.805,5.859,0.000
7211.000,20.508,-38.574,-45.410,21.484,0.000
7215.000,31.250,-37.598,-39.062,28.320,0.000
7219.000,34.180,-43.945,-43.945,26.855,0.000
7223.000,34.180,-45.898,-41.016,29.785,0.000
7227.000,21.973,-43.457,-35.645,44.434,0.000
7231.000,9.766,-45.410,-31.738,48.340,0.000
7234.000,3.906,-49.316,-29.297,37.109,0.000
7238.000,21.484,-37.598,-22.461,46.875,0.000
7242.000,36.621,-34.180,-19.531,46.387,0.000
7246.000,13.672,-43.945,-34.668,31.738,0.000
7250.000,-4.883,-48.340,-44.922,21.484,0.000
7254.000,9.766,-46.387,-38.086,15.137,0.000
7258.000,37.598,-40.527,-31.250,26.367,0.000
7262.000,43.457,-35.156,-31.738,21.973,0.000
7266.000,20.996,-36.621,-25.391,11.719,0.000
7270.000,-11.230,-40.039,-22.949,19.043,0.000
7273.000,-15.625,-43.457,-28.809,20.020,0.000
7277.000,-4.883,-51.270,-31.738,8.301,0.000
7281.000,-4.395,-49.316,-30.273,5.859,0.000
7285.000,5.859,-42.480,-24.902,16.113,0.000
7289.000,13.184,-43.945,-26.855,7.812,0.000
7293.000,17.578,-44.434,-34.180,-3.418,0.000
7297.000,33.203,-38.086,-30.762,1.953,0.000
7301.000,27.344,-27.832,-28.320,2.930,0.000
7305.000,13.184,-26.367,-31.250,-5.859,0.000
7309.000,12.695,-35.156,-31.738,-1.953,0.000
7313.000,1.953,-41.992,-29.785,2.441,0.000
7316.000,-0.488,-37.109,-28.320,-0.977,0.000
7320.000,0.977,-32.227,-26.855,-0.977,0.000
7324.000,-6.348,-28.809,-21.973,1.953,0.000
7328.000,-20.508,-28.320,-23.438,-4.395,0.000
7332.000,-23.926,-27.344,-27.832,-12.207,0.000
7336.000,-1.465,-17.578,-17.090,1.465,0.000
7340.000,2.441,-35.156,-21.973,2.930,0.000
7344.000,-19.043,-40.527,-41.504,-11.230,0.000
7348.000,-22.949,-32.715,-30.273,-11.230,0.000
7352.000,-16.602,-30.762,-15.137,-7.324,0.000
7356.000,-9.277,-32.715,-18.555,-5.859,0.000
7359.000,-3.418,-30.273,-18.555,-3.418,0.000
7363.000,-0.977,-13.184,-23.438,-2.930,0.000
7367.000,-15.137,-19.043,-27.344,-10.742,0.000
7371.000,-23.438,-28.320,-22.949,-14.648,0.000
7375.000,10.742,-19.043,-20.020,6.836,0.000
7379.000,8.301,-18.555,-15.625,2.441,0.000
7383.000,-35.645,-38.086,-15.625,-27.832,0.000
7387.000,-26.855,-35.156,-10.254,-15.625,0.000
7391.000,-9.277,-21.484,8.301,-2.930,0.000
7395.000,-17.090,-27.344,1.465,-19.043,0.000
7398.000,-17.090,-36.621,-12.207,-20.996,0.000
7402.000,-34.668,-33.203,-10.254,-10.742,0.000
