timestamp,TP9,AF7,AF8,TP10,Right AUX
0.000,-15.625,-22.461,-13.184,-20.508,0.000
4.000,-17.578,-29.785,-17.578,-12.695,0.000
8.000,-42.480,-32.227,-21.973,-16.602,0.000
12.000,-43.457,-23.926,-17.578,-23.438,0.000
16.000,-13.672,-22.949,-18.555,-11.719,0.000
20.000,1.465,-22.949,-24.414,-11.230,0.000
23.000,-23.438,-26.367,-23.926,-12.695,0.000
27.000,-34.668,-30.273,-20.508,-11.719,0.000
31.000,-18.555,-34.180,-20.996,-17.090,0.000
35.000,-11.719,-30.273,-24.414,-22.949,0.000
39.000,-18.555,-27.832,-31.250,-20.020,0.000
43.000,-4.395,-20.996,-31.738,-6.348,0.000
47.000,-1.465,-15.625,-27.344,2.930,0.000
51.000,0.488,-25.879,-33.203,-6.348,0.000
55.000,15.625,-23.926,-34.668,-18.066,0.000
59.000,-10.742,-17.578,-29.297,-7.812,0.000
62.000,-36.133,-20.508,-26.855,-8.301,0.000
66.000,-15.137,-20.508,-24.902,-22.949,0.000
70.000,14.648,-20.508,-22.461,-8.301,0.000
74.000,27.344,-27.344,-18.555,14.648,0.000
78.000,-0.977,-25.391,-15.137,0.488,0.000
82.000,-16.113,-23.926,-17.578,-13.672,0.000
86.000,-13.672,-33.691,-17.090,-14.160,0.000
90.000,-31.250,-43.945,-20.020,-21.973,0.000
94.000,-23.438,-40.039,-21.484,-22.461,0.000
98.000,-17.578,-30.762,-16.113,-14.160,0.000
102.000,-48.828,-30.762,-13.184,-19.043,0.000
105.000,-48.828,-26.855,-9.766,-17.090,0.000
109.000,-24.414,-20.996,-10.742,-18.066,0.000
113.000,-36.133,-19.531,-17.578,-25.879,0.000
117.000,-47.852,-23.926,-21.973,-27.832,0.000
121.000,-48.828,-29.297,-19.043,-30.273,0.000
125.000,-67.871,-41.504,-18.555,-36.133,0.000
129.000,-63.477,-39.062,-23.438,-28.809,0.000
133.000,-44.434,-41.992,-20.508,-31.738,0.000
137.000,-39.551,-45.898,-15.625,-47.852,0.000
141.000,-39.551,-19.531,-24.414,-50.781,0.000
145.000,-24.902,-9.277,-27.344,-52.734,0.000
148.000,-15.625,-20.020,-25.879,-70.312,0.000
152.000,-31.250,-21.484,-31.250,-79.102,0.000
156.000,-46.387,-19.043,-33.203,-64.453,0.000
160.000,-46.875,-14.648,-26.367,-54.688,0.000
164.000,-42.969,-12.207,-20.020,-60.547,0.000
168.000,-33.203,-17.578,-21.973,-60.547,0.000
172.000,-67.871,-25.879,-23.926,-42.480,0.000
176.000,-114.258,-27.344,-24.414,-31.738,0.000
180.000,-74.219,-23.438,-25.879,-31.250,0.000
184.000,-25.391,-19.043,-23.926,-33.691,0.000
187.000,-22.949,-18.066,-25.391,-41.016,0.000
191.000,-36.621,-20.020,-27.832,-27.832,0.000
195.000,-58.594,-21.973,-25.879,-13.184,0.000
199.000,-65.430,-22.461,-25.391,-20.020,0.000
203.000,-51.270,-26.367,-21.484,-20.020,0.000
207.000,-44.922,-24.902,-20.020,-17.578,0.000
211.000,-43.457,-22.461,-20.020,-28.320,0.000
215.000,-37.598,-20.996,-20.020,-39.062,0.000
219.000,-32.227,-19.043,-20.020,-37.109,0.000
223.000,-26.855,-17.090,-14.648,-22.949,0.000
227.000,-27.344,-16.602,-5.859,-17.090,0.000
230.000,-41.016,-20.996,-5.371,-29.785,0.000
234.000,-43.945,-20.020,-10.742,-38.086,0.000
238.000,-27.344,-17.090,-15.137,-25.879,0.000
242.000,-9.766,-26.367,-19.043,-21.973,0.000
246.000,2.930,-27.344,-19.043,-35.645,0.000
250.000,6.836,-24.414,-20.020,-41.504,0.000
254.000,-48.828,-32.227,-20.508,-31.738,0.000
258.000,-84.473,-34.180,-22.949,-22.949,0.000
262.000,-40.039,-22.461,-22.949,-25.391,0.000
266.000,3.418,-13.672,-23.438,-33.691,0.000
270.000,-8.789,-15.137,-22.949,-31.250,0.000
273.000,-47.852,-22.949,-20.996,-11.230,0.000
277.000,-46.387,-27.344,-26.367,-2.930,0.000
281.000,-30.273,-18.066,-29.297,-13.184,0.000
285.000,-38.574,-17.090,-22.949,-18.555,0.000
289.000,-44.434,-24.902,-23.926,-3.418,0.000
293.000,-30.273,-25.879,-25.879,4.883,0.000
297.000,-34.668,-21.973,-20.996,-4.883,0.000
301.000,-38.574,-22.461,-18.555,-10.254,0.000
305.000,-35.156,-23.438,-20.020,-4.395,0.000
309.000,-47.852,-24.414,-22.949,-8.789,0.000
312.000,-56.152,-27.344,-25.391,-29.297,0.000
316.000,-61.523,-30.762,-23.438,-44.434,0.000
320.000,-52.246,-24.902,-22.461,-40.527,0.000
324.000,-42.480,-22.949,-23.438,-37.598,0.000
328.000,-40.039,-22.949,-22.949,-44.922,0.000
332.000,-30.273,-24.902,-23.438,-44.922,0.000
336.000,-27.344,-25.879,-25.391,-48.828,0.000
340.000,-38.086,-23.438,-23.926,-56.641,0.000
344.000,-29.785,-23.438,-25.879,-53.711,0.000
348.000,-14.160,-24.414,-27.344,-57.617,0.000
352.000,-14.648,-26.367,-26.855,-58.594,0.000
355.000,-19.531,-27.344,-28.320,-47.852,0.000
359.000,-48.828,-26.855,-26.367,-34.668,0.000
363.000,-93.750,-25.391,-22.949,-25.879,0.000
367.000,-98.633,-23.926,-23.926,-34.180,0.000
371.000,-64.453,-24.414,-22.949,-34.180,0.000
375.000,-48.340,-28.320,-23.438,-26.855,0.000
379.000,-57.129,-20.996,-22.461,-34.180,0.000
383.000,-46.875,-16.113,-20.020,-41.016,0.000
387.000,-41.016,-21.973,-21.973,-26.855,0.000
391.000,-54.199,-29.297,-29.785,-17.578,0.000
395.000,-45.410,-25.391,-32.227,-18.066,0.000
398.000,-31.250,-20.996,-30.762,-26.367,0.000
402.000,-28.809,-20.020,-27.832,-29.297,0.000
406.000,-25.391,-19.531,-19.043,-17.090,0.000
410.000,-20.996,-21.484,-18.555,-13.184,0.000
414.000,-2.441,-13.672,-19.531,-24.414,0.000
418.000,4.883,-13.184,-19.043,-31.738,0.000
422.000,-27.344,-22.461,-18.555,-24.414,0.000
426.000,-33.691,-17.578,-17.090,-17.090,0.000
430.000,-35.645,-15.137,-15.137,-18.066,0.000
434.000,-57.617,-20.020,-18.555,-25.391,0.000
437.000,-64.453,-25.391,-23.926,-25.879,0.000
441.000,-51.270,-29.297,-20.508,-23.926,0.000
445.000,-25.879,-25.391,-15.137,-23.926,0.000
449.000,-19.043,-24.414,-17.090,-29.297,0.000
453.000,-21.484,-23.926,-17.578,-19.531,0.000
457.000,-30.273,-22.461,-17.090,-7.324,0.000
461.000,-41.016,-21.484,-14.160,-13.672,0.000
465.000,-28.320,-21.973,-11.719,-26.367,0.000
469.000,-36.133,-24.414,-11.719,-32.715,0.000
473.000,-40.039,-23.438,-15.137,-25.879,0.000
477.000,-46.875,-20.996,-17.090,-15.137,0.000
480.000,-55.176,-19.043,-18.555,-17.090,0.000
484.000,-32.715,-17.578,-20.508,-7.324,0.000
488.000,-19.531,-17.090,-17.090,2.441,0.000
492.000,-27.344,-25.879,-22.461,-24.902,0.000
496.000,-37.598,-27.344,-31.738,-34.668,0.000
500.000,-45.410,-25.391,-31.250,-40.527,0.000
504.000,-20.996,-26.855,-28.809,-39.062,0.000
508.000,-1.465,-28.809,-32.227,-36.133,0.000
512.000,-26.367,-29.785,-32.227,-33.203,0.000
516.000,-55.176,-29.297,-29.785,-24.902,0.000
520.000,-66.895,-31.250,-33.203,-25.391,0.000
523.000,-55.176,-24.902,-32.715,-15.137,0.000
527.000,-35.156,-21.484,-33.203,-11.230,0.000
531.000,-32.715,-18.555,-31.738,-10.742,0.000
535.000,-24.414,-17.090,-28.320,-6.348,0.000
539.000,-15.137,-17.090,-28.809,-4.883,0.000
543.000,-17.090,-15.137,-26.367,2.930,0.000
547.000,-10.742,-15.625,-26.367,9.766,0.000
551.000,-6.836,-11.719,-33.203,-12.695,0.000
555.000,-9.277,-12.695,-32.227,-16.113,0.000
559.000,-16.113,-18.555,-30.762,3.906,0.000
562.000,-20.996,-17.090,-32.715,-1.953,0.000
566.000,-9.766,-14.160,-23.438,-10.254,0.000
570.000,5.371,-16.602,-19.531,-7.812,0.000
574.000,14.648,-19.043,-23.926,-0.488,0.000
578.000,14.160,-12.695,-22.461,1.953,0.000
582.000,14.648,-8.301,-19.043,-2.930,0.000
586.000,-7.324,-9.277,-14.648,2.930,0.000
590.000,-15.625,-9.277,-10.742,6.836,0.000
594.000,-14.648,-13.184,-15.137,0.977,0.000
598.000,-29.785,-13.672,-20.996,-0.977,0.000
602.000,-14.648,-15.625,-19.531,4.883,0.000
605.000,-3.418,-20.020,-17.090,10.254,0.000
609.000,-12.695,-21.973,-19.531,4.395,0.000
613.000,-13.672,-21.973,-23.438,-1.953,0.000
617.000,-0.488,-20.996,-20.020,3.906,0.000
621.000,0.000,-18.066,-14.160,13.184,0.000
625.000,-13.184,-20.996,-12.695,15.137,0.000
629.000,-18.555,-23.438,-13.672,4.883,0.000
633.000,-7.324,-23.438,-14.648,-4.883,0.000
637.000,-2.930,-21.484,-18.066,-20.020,0.000
641.000,-12.207,-23.438,-24.902,-23.926,0.000
644.000,-18.066,-28.809,-26.855,-25.879,0.000
648.000,-15.137,-27.344,-22.949,-14.648,0.000
652.000,-4.395,-23.438,-19.531,-14.160,0.000
656.000,-1.465,-18.555,-17.090,-15.137,0.000
660.000,20.508,-16.602,-17.090,-2.441,0.000
664.000,34.668,-21.973,-17.578,-10.742,0.000
668.000,1.953,-30.273,-18.555,-20.020,0.000
672.000,-34.668,-28.809,-19.043,-13.184,0.000
676.000,-16.602,-21.484,-16.602,-8.789,0.000
680.000,-4.395,-20.996,-16.602,-12.695,0.000
684.000,-15.137,-23.926,-19.531,-18.555,0.000
687.000,-17.090,-23.438,-20.996,-11.719,0.000
691.000,-31.738,-20.508,-20.508,-0.977,0.000
695.000,-29.785,-14.648,-20.020,-4.883,0.000
699.000,-19.531,-12.695,-18.066,-8.301,0.000
703.000,-13.184,-14.160,-15.137,-6.836,0.000
707.000,-12.695,-12.207,-17.578,-0.488,0.000
711.000,-11.719,-10.742,-19.043,-4.883,0.000
715.000,-1.465,-18.066,-21.484,-19.531,0.000
719.000,-4.395,-18.066,-20.020,-15.625,0.000
723.000,-2.441,-13.672,-18.066,-0.488,0.000
727.000,-1.465,-18.066,-18.066,6.348,0.000
730.000,-24.414,-20.508,-16.113,2.441,0.000
734.000,-19.531,-18.066,-19.043,-3.418,0.000
738.000,-10.742,-24.902,-27.832,-3.418,0.000
742.000,-17.090,-31.250,-29.785,-7.324,0.000
746.000,-14.160,-24.902,-23.926,-18.555,0.000
750.000,-6.836,-24.902,-19.043,-31.250,0.000
754.000,-17.090,-28.320,-20.020,-33.691,0.000
758.000,-16.113,-21.973,-15.625,-19.531,0.000
762.000,-1.465,-21.484,-11.719,-6.836,0.000
766.000,14.648,-19.531,-12.695,-13.184,0.000
769.000,9.277,-13.672,-10.742,-16.113,0.000
773.000,-1.953,-15.625,-9.277,-5.859,0.000
777.000,-3.418,-19.531,-12.207,-5.371,0.000
781.000,-21.973,-17.578,-15.625,-0.488,0.000
785.000,-27.832,-16.602,-12.695,8.301,0.000
789.000,-28.320,-23.926,-14.648,-0.977,0.000
793.000,-35.645,-28.320,-17.090,-6.836,0.000
797.000,-34.180,-29.785,-19.531,-3.906,0.000
801.000,-24.902,-30.762,-20.508,-22.949,0.000
805.000,-30.273,-30.762,-17.090,-31.250,0.000
809.000,-36.621,-32.227,-16.113,-18.555,0.000
812.000,-44.434,-41.016,-17.578,-27.344,0.000
816.000,-48.340,-37.109,-22.461,-32.227,0.000
820.000,-38.086,-25.879,-15.625,-19.531,0.000
824.000,-29.785,-29.785,-17.090,-24.902,0.000
828.000,-19.531,-33.691,-20.996,-22.949,0.000
832.000,-23.438,-35.156,-20.020,-32.715,0.000
836.000,-25.391,-37.109,-19.531,-35.156,0.000
840.000,-28.809,-39.551,-18.066,-9.277,0.000
844.000,-33.203,-40.039,-20.508,-16.113,0.000
848.000,-15.137,-37.109,-23.438,-35.645,0.000
852.000,-5.859,-34.180,-19.043,-35.645,0.000
855.000,-23.438,-38.574,-12.207,-25.879,0.000
859.000,-27.344,-37.598,-16.113,-22.461,0.000
863.000,-21.484,-28.320,-22.949,-26.367,0.000
867.000,-26.855,-20.020,-28.809,-27.344,0.000
871.000,-36.133,-27.832,-27.832,-24.414,0.000
875.000,-26.367,-32.227,-25.391,-9.766,0.000
879.000,-22.949,-21.484,-27.832,-8.789,0.000
883.000,-21.484,-15.137,-24.902,-20.020,0.000
887.000,-35.645,-17.578,-24.414,-16.602,0.000
891.000,-50.293,-20.996,-29.297,-11.719,0.000
894.000,-42.480,-29.297,-29.785,-18.066,0.000
898.000,-32.227,-30.762,-27.832,-22.949,0.000
902.000,-12.207,-22.461,-26.855,-20.020,0.000
906.000,-13.672,-23.926,-20.996,-9.766,0.000
910.000,-40.527,-27.832,-17.578,-6.348,0.000
914.000,-40.039,-28.320,-20.508,-7.324,0.000
918.000,-23.926,-30.762,-24.414,-9.277,0.000
922.000,-28.809,-32.227,-28.320,-16.602,0.000
926.000,-35.645,-30.273,-24.414,-14.648,0.000
930.000,-26.367,-24.902,-23.926,-24.902,0.000
934.000,-20.996,-21.973,-22.461,-28.320,0.000
937.000,-10.254,-26.855,-19.043,-15.137,0.000
941.000,6.348,-28.320,-20.996,-5.371,0.000
945.000,-3.906,-18.066,-19.531,-3.906,0.000
949.000,-8.789,-16.113,-15.137,-11.230,0.000
953.000,-1.465,-31.738,-15.625,-13.184,0.000
957.000,-11.230,-30.273,-14.648,-8.301,0.000
961.000,-21.484,-17.090,-10.254,-4.395,0.000
965.000,-30.273,-15.625,-14.648,-13.672,0.000
969.000,-15.137,-17.578,-19.043,-13.672,0.000
973.000,-10.742,-17.578,-20.996,-3.418,0.000
976.000,-25.879,-25.391,-23.926,-1.465,0.000
980.000,-20.020,-24.902,-25.879,-5.371,0.000
984.000,10.742,-13.184,-23.926,-14.160,0.000
988.000,-11.230,-11.719,-21.484,-6.836,0.000
992.000,-57.617,-17.578,-18.555,5.859,0.000
996.000,-56.641,-20.020,-14.648,0.000,0.000
1000.000,-41.016,-22.949,-17.578,-8.301,0.000
1004.000,-30.273,-18.066,-17.578,-4.395,0.000
1008.000,-24.414,-14.160,-13.672,3.418,0.000
1012.000,-16.113,-11.230,-13.672,-8.301,0.000
1016.000,-8.789,-10.742,-18.066,-10.254,0.000
1019.000,1.953,-12.207,-19.043,-10.254,0.000
1023.000,3.418,-13.672,-18.555,-15.625,0.000
1027.000,2.441,-18.066,-26.367,-16.113,0.000
1031.000,0.488,-13.672,-30.762,-21.973,0.000
1035.000,-14.648,-12.695,-26.367,-23.926,0.000
1039.000,-23.926,-24.902,-28.320,-21.973,0.000
1043.000,-24.414,-32.715,-32.715,-22.949,0.000
1047.000,-18.555,-30.762,-32.715,-27.832,0.000
1051.000,-30.273,-27.344,-34.668,-25.391,0.000
1055.000,-33.203,-30.273,-40.039,-23.438,0.000
1059.000,-22.949,-29.785,-38.574,-25.879,0.000
1062.000,-20.996,-22.949,-32.715,-14.648,0.000
1066.000,-25.879,-22.461,-30.762,-11.230,0.000
1070.000,-32.715,-23.438,-29.297,-19.043,0.000
1074.000,-18.555,-23.438,-26.367,-19.043,0.000
1078.000,-3.906,-32.227,-29.297,-19.043,0.000
1082.000,-6.836,-33.203,-26.367,-21.484,0.000
1086.000,-23.438,-29.785,-23.438,-17.578,0.000
1090.000,-47.363,-33.691,-24.414,0.000,0.000
1094.000,-57.129,-32.715,-23.438,-10.742,0.000
1098.000,-52.246,-24.414,-24.902,-42.480,0.000
1101.000,-44.434,-31.738,-26.367,-46.875,0.000
1105.000,-34.668,-44.434,-20.996,-44.434,0.000
1109.000,-31.738,-35.645,-17.090,-51.758,0.000
1113.000,-54.688,-30.762,-14.160,-67.383,0.000
1117.000,-72.754,-46.387,-11.230,-77.637,0.000
1121.000,-64.941,-41.016,-14.648,-79.590,0.000
1125.000,-87.402,-29.785,-12.207,-74.219,0.000
1129.000,-118.652,-37.109,-11.230,-71.289,0.000
1133.000,-108.398,-37.598,-14.160,-80.566,0.000
1137.000,-90.332,-27.832,-12.695,-78.125,0.000
1141.000,-97.656,-29.785,-11.230,-69.336,0.000
1144.000,-91.797,-29.785,-14.648,-54.688,0.000
1148.000,-83.496,-28.320,-19.043,-53.223,0.000
1152.000,-77.637,-32.715,-23.438,-72.266,0.000
1156.000,-64.453,-31.738,-23.926,-68.848,0.000
1160.000,-66.406,-28.809,-23.926,-57.617,0.000
1164.000,-83.008,-28.320,-23.926,-62.012,0.000
1168.000,-77.637,-27.344,-22.949,-66.406,0.000
1172.000,-59.082,-32.227,-21.973,-57.617,0.000
1176.000,-43.457,-33.691,-19.531,-51.758,0.000
1180.000,-42.480,-21.484,-13.672,-53.711,0.000
1184.000,-49.805,-19.531,-13.184,-52.246,0.000
1187.000,-41.992,-22.949,-18.555,-38.086,0.000
1191.000,-39.062,-22.949,-18.555,-24.414,0.000
1195.000,-49.316,-22.461,-19.043,-38.086,0.000
1199.000,-37.109,-20.508,-17.578,-44.434,0.000
1203.000,-26.367,-23.926,-19.531,-44.922,0.000
1207.000,-45.410,-24.902,-21.484,-34.668,0.000
1211.000,-35.645,-25.391,-20.020,-28.809,0.000
1215.000,-16.602,-27.344,-21.484,-45.410,0.000
1219.000,-24.902,-32.227,-24.414,-38.086,0.000
1223.000,-40.527,-33.691,-24.902,-28.809,0.000
1226.000,-43.945,-24.414,-19.043,-26.367,0.000
1230.000,-40.039,-23.926,-18.066,-24.414,0.000
1234.000,-45.410,-25.879,-21.973,-32.715,0.000
1238.000,-42.969,-23.926,-25.879,-29.297,0.000
1242.000,-34.668,-22.949,-24.902,-8.789,0.000
1246.000,-29.785,-20.508,-20.508,-12.695,0.000
1250.000,-43.945,-15.137,-19.531,-20.996,0.000
1254.000,-52.734,-15.137,-22.461,-10.254,0.000
1258.000,-40.527,-19.531,-24.902,-3.906,0.000
1262.000,-29.785,-20.508,-21.973,-5.859,0.000
1266.000,-21.484,-21.484,-22.461,-17.090,0.000
1269.000,-18.555,-24.902,-20.508,-20.996,0.000
1273.000,-19.531,-23.926,-20.020,-9.766,0.000
1277.000,-34.668,-23.926,-20.996,-1.465,0.000
1281.000,-34.668,-23.926,-16.113,-5.371,0.000
1285.000,-37.109,-23.438,-19.531,-20.020,0.000
1289.000,-41.504,-25.879,-26.855,-37.598,0.000
1293.000,-45.410,-23.926,-26.367,-38.086,0.000
1297.000,-45.410,-18.555,-25.391,-42.480,0.000
1301.000,-25.879,-15.625,-29.785,-50.781,0.000
1305.000,4.883,-16.113,-33.691,-41.504,0.000
1309.000,-19.043,-14.160,-30.273,-34.180,0.000
1312.000,-66.406,-20.508,-30.762,-49.805,0.000
1316.000,-74.707,-26.367,-33.203,-59.570,0.000
1320.000,-82.520,-24.902,-31.738,-47.852,0.000
1324.000,-62.988,-19.531,-28.320,-40.039,0.000
1328.000,-30.762,-18.555,-27.832,-41.016,0.000
1332.000,-26.855,-24.902,-24.902,-49.316,0.000
1336.000,-63.965,-25.391,-20.996,-44.922,0.000
1340.000,-77.637,-27.344,-21.973,-23.438,0.000
1344.000,-67.383,-29.785,-23.438,-19.043,0.000
1348.000,-74.707,-34.180,-23.438,-31.738,0.000
1351.000,-77.148,-36.133,-23.438,-28.320,0.000
1355.000,-79.102,-32.227,-22.461,-18.066,0.000
1359.000,-69.336,-35.645,-24.902,-18.066,0.000
1363.000,-48.828,-34.180,-22.949,-29.785,0.000
1367.000,-39.062,-29.297,-22.949,-40.039,0.000
1371.000,-30.273,-27.832,-27.344,-30.762,0.000
1375.000,-22.949,-30.273,-26.855,-17.578,0.000
1379.000,-19.043,-23.926,-22.949,-10.742,0.000
1383.000,-17.090,-25.391,-21.973,-15.137,0.000
1387.000,-20.020,-27.832,-22.461,-15.137,0.000
1391.000,-17.578,-20.020,-18.555,-1.953,0.000
1394.000,1.465,-22.949,-17.578,-3.906,0.000
1398.000,4.883,-26.855,-18.066,-8.301,0.000
1402.000,-0.488,-20.508,-18.555,-15.137,0.000
1406.000,-14.648,-16.113,-19.531,-5.859,0.000
1410.000,-29.785,-15.137,-15.625,18.066,0.000
1414.000,-20.508,-20.020,-13.672,21.484,0.000
1418.000,-8.301,-24.902,-15.625,20.020,0.000
1422.000,-38.574,-29.785,-21.484,-0.488,0.000
1426.000,-56.152,-35.156,-26.367,-11.719,0.000
1430.000,-30.762,-30.273,-23.438,-6.836,0.000
1433.000,-13.184,-19.043,-18.555,-0.977,0.000
1437.000,-29.785,-21.973,-18.066,11.719,0.000
1441.000,-41.016,-24.902,-17.578,21.973,0.000
1445.000,-25.879,-22.949,-20.508,18.066,0.000
1449.000,0.000,-19.043,-21.973,10.742,0.000
1453.000,12.695,-14.648,-20.508,9.766,0.000
1457.000,6.836,-17.090,-21.484,22.949,0.000
1461.000,6.348,-16.602,-20.508,25.391,0.000
1465.000,1.953,-16.113,-20.020,12.695,0.000
1469.000,-9.766,-18.066,-22.949,5.859,0.000
1473.000,2.930,-21.973,-23.438,11.719,0.000
1476.000,18.555,-24.414,-29.785,6.836,0.000
1480.000,34.668,-18.555,-29.785,-2.930,0.000
1484.000,27.344,-18.066,-25.391,-3.906,0.000
1488.000,0.977,-16.602,-24.902,15.137,0.000
1492.000,-1.953,-13.672,-25.391,19.531,0.000
1496.000,15.137,-14.648,-24.414,8.301,0.000
1500.000,31.250,-20.996,-24.902,-0.488,0.000
1504.000,24.902,-20.508,-27.344,-11.230,0.000
1508.000,-0.488,-11.230,-25.391,1.953,0.000
1512.000,-34.668,-17.578,-23.926,12.695,0.000
1516.000,-42.969,-20.020,-27.832,-1.953,0.000
1519.000,-20.996,-15.625,-28.809,-4.883,0.000
1523.000,-12.207,-17.578,-27.344,-1.953,0.000
1527.000,1.953,-17.090,-26.367,-0.488,0.000
1531.000,-12.207,-19.531,-24.902,-7.812,0.000
1535.000,-31.738,-17.090,-25.879,-17.578,0.000
1539.000,-27.344,-22.461,-28.320,-15.137,0.000
1543.000,-22.461,-28.320,-25.391,-17.090,0.000
1547.000,-28.809,-22.461,-21.973,-25.391,0.000
1551.000,-34.668,-26.855,-24.414,-26.855,0.000
1555.000,-37.109,-31.738,-21.973,-27.344,0.000
1559.000,-40.527,-31.738,-14.648,-20.996,0.000
1562.000,-42.480,-35.645,-14.160,-14.648,0.000
1566.000,-36.133,-31.738,-12.695,-15.137,0.000
1570.000,-26.367,-24.414,-13.672,-12.207,0.000
1574.000,-25.391,-28.809,-19.531,-13.672,0.000
1578.000,-23.438,-26.855,-15.137,-14.160,0.000
1582.000,-18.066,-20.508,-13.184,-28.809,0.000
1586.000,1.953,-23.438,-23.926,-31.738,0.000
1590.000,15.625,-20.508,-22.461,-13.184,0.000
1594.000,0.000,-17.090,-16.602,-7.324,0.000
1598.000,-18.555,-22.461,-19.043,-12.695,0.000
1601.000,-30.762,-20.996,-18.555,-11.719,0.000
1605.000,-45.898,-23.926,-18.555,0.000,0.000
1609.000,-53.223,-24.414,-18.066,-0.977,0.000
1613.000,-27.832,-23.926,-18.066,-9.766,0.000
1617.000,4.883,-22.949,-24.414,-14.160,0.000
1621.000,-1.465,-20.996,-23.438,-13.672,0.000
1625.000,-33.203,-26.855,-22.949,-15.625,0.000
1629.000,-49.316,-29.297,-24.902,-17.090,0.000
1633.000,-23.438,-20.996,-21.484,-14.648,0.000
1637.000,-14.160,-23.438,-20.996,-9.766,0.000
1641.000,-33.691,-30.273,-21.484,-4.395,0.000
1644.000,-45.898,-26.855,-17.090,-4.395,0.000
1648.000,-49.805,-25.391,-17.090,-8.789,0.000
1652.000,-55.176,-33.203,-18.066,-20.020,0.000
1656.000,-44.434,-28.809,-20.020,-17.578,0.000
1660.000,-23.926,-18.555,-20.020,-14.648,0.000
1664.000,-18.066,-22.949,-18.066,-25.391,0.000
1668.000,-14.160,-20.996,-17.578,-27.344,0.000
1672.000,-6.348,-20.020,-16.113,-21.973,0.000
1676.000,-19.043,-32.227,-18.555,-23.438,0.000
1680.000,-30.273,-33.203,-17.090,-20.996,0.000
1683.000,-18.066,-26.367,-14.160,-15.137,0.000
1687.000,12.207,-19.531,-19.043,0.977,0.000
1691.000,15.137,-14.648,-20.508,0.488,0.000
1695.000,-18.066,-18.555,-17.090,-23.438,0.000
1699.000,-9.766,-26.367,-12.207,-25.391,0.000
1703.000,2.930,-27.344,-18.066,-22.949,0.000
1707.000,10.254,-25.879,-24.414,-12.207,0.000
1711.000,5.371,-29.297,-16.602,4.395,0.000
1715.000,-25.391,-28.320,-20.020,-5.859,0.000
1719.000,-33.691,-29.297,-27.832,-19.043,0.000
1723.000,-47.852,-26.855,-18.555,-7.324,0.000
1726.000,-41.992,-21.484,-17.578,-3.418,0.000
1730.000,-15.137,-27.344,-24.414,-15.137,0.000
1734.000,-13.672,-25.391,-29.297,-16.113,0.000
1738.000,-35.645,-20.508,-30.273,-12.695,0.000
1742.000,-45.410,-16.602,-24.902,-7.812,0.000
1746.000,-41.504,-22.949,-26.367,-11.230,0.000
1750.000,-32.227,-32.227,-32.227,-31.738,0.000
1754.000,-37.109,-31.250,-30.273,-22.949,0.000
1758.000,-48.828,-30.273,-22.949,4.883,0.000
1762.000,-38.086,-26.855,-25.391,-0.488,0.000
1766.000,-31.250,-28.320,-29.785,-18.555,0.000
1769.000,-29.785,-33.203,-27.344,-22.949,0.000
1773.000,-15.625,-29.785,-26.367,-18.555,0.000
1777.000,-4.395,-22.461,-28.320,-22.461,0.000
1781.000,-21.973,-26.367,-26.855,-29.785,0.000
1785.000,-29.785,-31.250,-27.344,-29.297,0.000
1789.000,-16.113,-30.273,-28.320,-19.531,0.000
1793.000,-2.930,-26.367,-28.320,-12.695,0.000
1797.000,18.555,-22.949,-26.367,-14.648,0.000
1801.000,20.508,-18.555,-20.020,-11.719,0.000
1805.000,-0.977,-17.578,-21.484,-8.301,0.000
1808.000,-30.273,-24.414,-28.320,-14.160,0.000
1812.000,-35.645,-23.926,-29.785,-24.414,0.000
1816.000,-7.812,-18.555,-27.344,-27.344,0.000
1820.000,-11.230,-18.555,-23.926,-16.113,0.000
1824.000,-40.039,-23.926,-17.578,-15.137,0.000
1828.000,-47.363,-33.691,-19.043,-22.461,0.000
1832.000,-56.152,-35.645,-18.555,-28.320,0.000
1836.000,-55.176,-31.250,-15.137,-20.996,0.000
1840.000,-37.598,-24.414,-20.996,-15.137,0.000
1844.000,-38.574,-18.555,-19.531,-12.207,0.000
1848.000,-42.480,-15.625,-14.648,-11.719,0.000
1851.000,-36.621,-22.461,-20.996,-21.484,0.000
1855.000,-31.738,-28.320,-22.461,-20.996,0.000
1859.000,-28.320,-25.879,-21.973,-12.207,0.000
1863.000,-19.531,-20.508,-25.879,-7.812,0.000
1867.000,-18.555,-20.996,-20.996,-15.137,0.000
1871.000,-20.996,-25.879,-14.160,-7.812,0.000
1875.000,-12.207,-25.391,-11.719,10.254,0.000
1879.000,-21.484,-26.855,-14.648,8.789,0.000
1883.000,-16.113,-22.461,-14.160,0.000,0.000
1887.000,3.418,-16.602,-11.719,-8.789,0.000
1891.000,0.000,-13.184,-10.742,0.000,0.000
1894.000,-24.414,-16.602,-12.695,2.441,0.000
1898.000,-21.973,-17.090,-12.695,-9.277,0.000
1902.000,3.906,-15.137,-17.090,-14.648,0.000
1906.000,-7.812,-17.090,-20.508,-1.465,0.000
1910.000,-39.551,-26.367,-17.578,10.742,0.000
1914.000,-35.645,-30.273,-18.555,-2.441,0.000
1918.000,-32.227,-20.020,-24.414,-10.254,0.000
1922.000,-41.016,-19.043,-26.855,-5.859,0.000
1926.000,-41.992,-26.855,-25.879,-10.742,0.000
1930.000,-35.645,-31.738,-30.273,-13.184,0.000
1933.000,-17.578,-28.320,-27.832,-16.602,0.000
1937.000,-19.043,-25.879,-23.926,-10.254,0.000
1941.000,-19.043,-33.691,-21.484,3.906,0.000
1945.000,-21.973,-29.785,-20.508,4.883,0.000
1949.000,-21.973,-22.461,-24.414,-9.766,0.000
1953.000,-11.719,-20.996,-22.461,-4.883,0.000
1957.000,-41.992,-36.133,-21.484,5.859,0.000
1961.000,-57.617,-44.434,-26.855,-1.953,0.000
1965.000,-37.109,-34.668,-28.320,-13.672,0.000
1969.000,-27.344,-31.738,-22.949,-19.043,0.000
1973.000,-31.250,-34.180,-26.367,-16.602,0.000
1976.000,-27.832,-35.156,-23.438,-19.531,0.000
1980.000,-12.695,-31.250,-17.578,-23.926,0.000
1984.000,-9.766,-21.973,-20.996,-28.320,0.000
1988.000,-3.906,-19.531,-19.043,-28.809,0.000
1992.000,10.254,-22.461,-18.066,-15.137,0.000
1996.000,13.672,-20.996,-23.926,-6.348,0.000
2000.000,13.672,-18.555,-20.020,0.000,0.000
2004.000,-10.254,-29.785,-15.625,-4.883,0.000
2008.000,-30.273,-34.180,-17.578,-19.531,0.000
2012.000,-24.902,-35.645,-18.555,-34.180,0.000
2016.000,-48.828,-38.086,-19.043,-44.922,0.000
2019.000,-78.125,-59.570,-19.531,-37.598,0.000
2023.000,-75.684,-70.801,-13.184,-32.715,0.000
2027.000,-73.730,-34.668,-5.859,-39.551,0.000
2031.000,-82.520,-17.578,-16.602,-53.223,0.000
2035.000,-82.031,-36.621,-26.855,-62.988,0.000
2039.000,-92.773,-54.688,-20.996,-62.500,0.000
2043.000,-99.609,-54.199,-11.230,-55.664,0.000
2047.000,-85.449,-54.199,-3.418,-59.082,0.000
2051.000,-78.125,-34.180,-11.719,-71.289,0.000
2055.000,-87.402,-28.809,-30.762,-77.148,0.000
2058.000,-85.938,-59.570,-35.156,-73.242,0.000
2062.000,-71.777,-46.875,-24.414,-73.242,0.000
2066.000,-73.730,-20.996,-17.578,-75.195,0.000
2070.000,-70.312,-13.672,-11.719,-53.223,0.000
2074.000,-61.035,-23.438,-11.719,-29.785,0.000
2078.000,-70.801,-33.691,-12.207,-43.945,0.000
2082.000,-54.688,-20.996,-16.602,-56.641,0.000
2086.000,-24.902,-21.484,-19.531,-52.734,0.000
2090.000,-39.551,-22.949,-18.555,-40.039,0.000
2094.000,-67.383,-18.066,-16.602,-28.320,0.000
2098.000,-58.594,-24.902,-18.555,-31.738,0.000
2101.000,-46.875,-25.391,-30.273,-43.945,0.000
2105.000,-36.621,-27.344,-30.273,-39.551,0.000
2109.000,-26.855,-28.320,-27.344,-27.832,0.000
2113.000,-32.715,-24.902,-32.227,-24.902,0.000
2117.000,-22.949,-23.926,-31.738,-30.762,0.000
2121.000,-10.742,-20.020,-30.273,-29.785,0.000
2125.000,-25.391,-19.531,-28.809,-20.996,0.000
2129.000,-43.457,-25.879,-26.367,-22.461,0.000
2133.000,-41.016,-26.367,-26.855,-26.855,0.000
2137.000,-45.410,-24.414,-26.367,-23.438,0.000
2140.000,-64.453,-29.297,-28.809,-17.578,0.000
2144.000,-74.219,-35.645,-27.832,-14.648,0.000
2148.000,-62.012,-34.668,-32.227,-27.344,0.000
2152.000,-36.621,-28.809,-39.551,-39.062,0.000
2156.000,-25.879,-30.273,-39.551,-33.203,0.000
2160.000,-40.527,-31.738,-32.227,-21.973,0.000
2164.000,-48.828,-25.879,-27.344,-21.484,0.000
2168.000,-29.297,-23.926,-31.250,-33.203,0.000
2172.000,-25.879,-24.414,-31.738,-20.996,0.000
2176.000,-39.062,-20.020,-26.367,-2.930,0.000
2180.000,-43.457,-17.090,-29.297,-17.578,0.000
2183.000,-40.527,-14.160,-31.738,-32.715,0.000
2187.000,-40.527,-15.137,-32.715,-22.461,0.000
2191.000,-35.156,-20.508,-31.738,-13.672,0.000
2195.000,-34.668,-19.531,-28.320,-19.531,0.000
2199.000,-36.133,-23.926,-27.344,-20.020,0.000
2203.000,-38.574,-29.297,-26.855,-14.648,0.000
2207.000,-38.086,-32.715,-24.414,-8.301,0.000
2211.000,-41.504,-26.367,-21.484,-3.906,0.000
2215.000,-50.781,-19.043,-17.578,1.465,0.000
2219.000,-32.227,-17.090,-11.719,6.348,0.000
2223.000,-21.484,-17.090,-9.277,10.742,0.000
2226.000,-16.113,-21.484,-12.695,6.836,0.000
2230.000,8.789,-18.555,-15.137,-0.977,0.000
2234.000,2.930,-14.160,-16.602,-10.742,0.000
2238.000,-15.625,-20.996,-20.996,-3.418,0.000
2242.000,-27.344,-28.809,-24.902,9.277,0.000
2246.000,-38.574,-30.762,-22.949,6.836,0.000
2250.000,-27.832,-26.855,-17.090,-5.371,0.000
2254.000,-3.906,-22.461,-20.508,-4.883,0.000
2258.000,13.184,-20.508,-25.391,-7.812,0.000
2262.000,11.719,-23.438,-30.273,-16.602,0.000
2265.000,6.348,-23.438,-29.297,-17.090,0.000
2269.000,-8.301,-25.391,-24.902,-16.113,0.000
2273.000,-55.176,-29.785,-28.809,-9.766,0.000
2277.000,-68.359,-23.926,-28.320,-7.324,0.000
2281.000,-34.180,-20.508,-26.367,-8.789,0.000
2285.000,-34.180,-28.320,-32.715,-7.324,0.000
2289.000,-45.410,-30.273,-32.227,-6.836,0.000
2293.000,-35.156,-29.785,-31.738,-6.348,0.000
2297.000,-16.602,-27.344,-33.203,-1.953,0.000
2301.000,-12.207,-23.926,-28.809,-9.766,0.000
2305.000,-19.043,-26.367,-28.320,-31.738,0.000
2308.000,-32.227,-27.344,-27.344,-41.992,0.000
2312.000,-66.895,-26.367,-25.879,-37.598,0.000
2316.000,-61.523,-25.391,-24.902,-26.855,0.000
2320.000,-44.922,-29.297,-23.926,-29.785,0.000
2324.000,-37.598,-29.785,-29.297,-27.832,0.000
2328.000,-22.461,-22.949,-31.250,-15.137,0.000
2332.000,-14.648,-21.484,-26.367,-29.785,0.000
2336.000,-0.488,-21.973,-26.367,-42.480,0.000
2340.000,3.418,-19.531,-33.691,-38.574,0.000
2344.000,-13.184,-20.020,-37.598,-27.344,0.000
2348.000,-19.043,-21.973,-35.645,-26.855,0.000
2351.000,-13.672,-20.508,-33.203,-23.438,0.000
2355.000,-6.348,-21.973,-26.367,-15.625,0.000
2359.000,-26.367,-19.531,-20.996,-8.301,0.000
2363.000,-43.945,-14.648,-23.926,-4.883,0.000
2367.000,-43.457,-17.578,-23.926,0.000,0.000
2371.000,-50.293,-20.020,-22.461,6.836,0.000
2375.000,-50.293,-25.391,-25.879,3.418,0.000
2379.000,-36.133,-24.414,-25.391,-1.953,0.000
2383.000,-18.555,-16.113,-21.484,0.977,0.000
2387.000,-5.859,-13.672,-15.625,5.371,0.000
2390.000,-16.113,-13.184,-11.719,0.977,0.000
2394.000,-27.344,-18.066,-17.090,-9.277,0.000
2398.000,-30.273,-20.996,-21.484,-20.508,0.000
2402.000,-29.297,-24.414,-21.484,-22.461,0.000
2406.000,-39.062,-22.949,-20.508,-18.066,0.000
2410.000,-41.016,-17.090,-15.625,-10.254,0.000
2414.000,-28.320,-18.066,-17.090,-11.230,0.000
2418.000,-19.043,-19.531,-21.484,-16.602,0.000
2422.000,-17.578,-21.973,-26.367,-27.344,0.000
2426.000,-17.578,-20.508,-27.344,-27.344,0.000
2430.000,-20.508,-20.020,-24.902,-15.625,0.000
2433.000,-12.695,-20.020,-25.879,-16.113,0.000
2437.000,-9.277,-22.949,-25.391,-20.996,0.000
2441.000,1.465,-20.020,-26.855,-19.043,0.000
2445.000,14.160,-12.695,-25.879,-22.461,0.000
2449.000,-0.977,-20.020,-26.855,-20.996,0.000
2453.000,-16.113,-24.414,-24.414,-20.020,0.000
2457.000,-40.039,-25.879,-20.996,-18.555,0.000
2461.000,-49.316,-30.273,-21.484,-8.301,0.000
2465.000,-36.621,-25.879,-20.996,-0.488,0.000
2469.000,-25.879,-20.996,-25.391,-7.324,0.000
2473.000,-26.855,-22.461,-29.785,-9.277,0.000
2476.000,-41.992,-22.461,-27.344,-2.930,0.000
2480.000,-51.758,-19.043,-22.949,-5.859,0.000
2484.000,-45.410,-21.973,-22.949,-15.625,0.000
2488.000,-41.504,-26.855,-20.996,-13.184,0.000
2492.000,-42.480,-25.879,-14.648,-4.883,0.000
2496.000,-38.574,-26.855,-17.578,-11.230,0.000
2500.000,-27.344,-30.273,-23.926,-19.531,0.000
2504.000,-17.090,-27.344,-23.926,-10.742,0.000
2508.000,-9.766,-19.043,-20.020,-1.953,0.000
2512.000,-10.254,-21.484,-20.020,-14.648,0.000
2515.000,-6.348,-19.043,-21.973,-24.902,0.000
2519.000,14.160,-11.230,-22.461,-20.996,0.000
2523.000,11.230,-12.695,-21.973,-7.324,0.000
2527.000,-37.598,-20.508,-20.508,-2.930,0.000
2531.000,-67.383,-20.020,-13.184,-7.324,0.000
2535.000,-61.523,-23.438,-13.184,-6.348,0.000
2539.000,-46.387,-25.879,-16.113,0.488,0.000
2543.000,-15.137,-22.949,-14.160,-6.836,0.000
2547.000,16.602,-14.160,-13.672,-20.996,0.000
2551.000,29.297,-11.230,-16.602,-35.645,0.000
2555.000,0.977,-17.578,-20.996,-36.133,0.000
2558.000,-38.574,-22.461,-25.879,-24.414,0.000
2562.000,-45.898,-22.949,-25.879,-31.738,0.000
2566.000,-56.152,-25.879,-22.949,-31.738,0.000
2570.000,-50.293,-23.926,-22.949,-14.648,0.000
2574.000,-36.133,-19.531,-18.555,-8.789,0.000
2578.000,-25.879,-19.531,-15.625,-7.812,0.000
2582.000,-19.531,-20.996,-16.602,-6.836,0.000
2586.000,-19.531,-28.320,-19.043,-18.555,0.000
2590.000,-19.043,-31.250,-17.578,-23.438,0.000
2594.000,-19.531,-24.902,-18.555,-7.812,0.000
2597.000,-20.020,-22.461,-18.066,-2.441,0.000
2601.000,-25.391,-24.902,-13.672,-4.395,0.000
2605.000,-36.133,-23.926,-17.090,2.441,0.000
2609.000,-27.832,-18.066,-14.160,17.090,0.000
2613.000,-18.555,-20.996,-11.719,19.531,0.000
2617.000,-14.160,-21.973,-17.578,0.977,0.000
2621.000,-3.906,-20.996,-22.949,-11.719,0.000
2625.000,-26.367,-30.273,-27.832,-6.836,0.000
2629.000,-47.363,-33.691,-29.297,-11.230,0.000
2633.000,-30.762,-30.762,-26.367,-20.508,0.000
2637.000,-11.719,-30.273,-24.414,-22.461,0.000
2640.000,0.000,-27.832,-18.555,-16.113,0.000
2644.000,-11.719,-29.297,-15.625,-8.789,0.000
2648.000,-40.527,-27.832,-20.508,-16.602,0.000
2652.000,-40.527,-26.367,-22.461,-25.879,0.000
2656.000,-29.785,-22.461,-17.578,-3.418,0.000
2660.000,-16.602,-25.391,-18.066,-1.953,0.000
2664.000,-30.273,-31.250,-23.438,-19.531,0.000
2668.000,-36.133,-26.855,-21.484,-12.207,0.000
2672.000,-30.273,-27.344,-23.438,-4.395,0.000
2676.000,-25.879,-30.762,-26.367,4.883,0.000
2680.000,-19.531,-27.344,-23.926,4.883,0.000
2683.000,-20.508,-25.391,-23.926,-7.812,0.000
2687.000,-28.320,-28.809,-26.855,-6.836,0.000
2691.000,-29.785,-27.832,-25.391,0.000,0.000
2695.000,-25.879,-21.973,-25.879,-1.953,0.000
2699.000,-23.926,-17.090,-20.508,-13.672,0.000
2703.000,-21.484,-18.066,-18.066,-7.324,0.000
2707.000,-30.273,-25.879,-21.484,-0.488,0.000
2711.000,-36.133,-28.809,-23.438,-6.348,0.000
2715.000,-24.414,-20.020,-24.414,-7.324,0.000
2719.000,-17.578,-19.043,-32.227,0.977,0.000
2722.000,-11.719,-26.855,-34.668,0.977,0.000
2726.000,-1.465,-27.832,-29.297,-7.812,0.000
2730.000,-1.465,-20.996,-27.832,-8.301,0.000
2734.000,4.395,-20.508,-24.414,-11.719,0.000
2738.000,5.859,-21.484,-22.461,-15.625,0.000
2742.000,-30.273,-19.531,-21.973,-11.230,0.000
2746.000,-41.016,-24.902,-23.438,-9.277,0.000
2750.000,-13.184,-29.297,-26.855,-4.883,0.000
2754.000,7.812,-25.391,-30.762,-6.836,0.000
2758.000,-6.836,-23.438,-24.414,0.000,0.000
2762.000,-20.020,-32.715,-19.531,7.324,0.000
2765.000,-38.086,-35.156,-28.320,-4.395,0.000
2769.000,-38.574,-33.691,-29.785,-1.465,0.000
2773.000,-14.648,-35.645,-24.902,6.348,0.000
2777.000,-22.461,-38.086,-26.855,2.930,0.000
2781.000,-20.508,-31.738,-31.250,0.000,0.000
2785.000,-3.906,-28.809,-31.250,13.184,0.000
2789.000,0.977,-30.273,-27.832,25.391,0.000
2793.000,-7.324,-25.879,-27.832,15.625,0.000
2797.000,-29.785,-30.762,-34.668,-6.348,0.000
2801.000,-15.137,-41.016,-34.180,-10.254,0.000
2805.000,-0.488,-35.645,-23.926,-19.043,0.000
2808.000,-21.973,-35.156,-25.391,-31.250,0.000
2812.000,-27.832,-37.598,-25.879,-25.879,0.000
2816.000,-20.020,-32.715,-19.531,-30.762,0.000
2820.000,-8.301,-28.809,-17.090,-25.391,0.000
2824.000,-30.273,-34.180,-15.137,-18.555,0.000
2828.000,-51.270,-33.203,-11.719,-22.461,0.000
2832.000,-40.039,-32.227,-8.301,-33.691,0.000
2836.000,-40.527,-41.504,-3.906,-30.273,0.000
2840.000,-39.062,-20.020,0.488,-15.137,0.000
2844.000,-54.688,-28.320,-13.184,-42.480,0.000
2847.000,-56.641,-41.504,-24.414,-64.941,0.000
2851.000,-48.828,-21.973,-15.625,-62.988,0.000
2855.000,-77.637,-17.578,-14.160,-63.965,0.000
2859.000,-90.820,-32.715,-16.602,-63.965,0.000
2863.000,-93.262,-33.691,-16.113,-68.848,0.000
2867.000,-101.074,-28.809,-13.672,-82.031,0.000
2871.000,-104.980,-31.738,-16.113,-83.496,0.000
2875.000,-93.262,-34.668,-14.648,-80.078,0.000
2879.000,-83.008,-34.180,-12.695,-94.238,0.000
2883.000,-72.266,-26.367,-15.625,-95.215,0.000
2887.000,-70.801,-24.902,-16.602,-81.543,0.000
2890.000,-98.633,-21.973,-15.625,-75.195,0.000
2894.000,-108.887,-26.855,-25.391,-82.031,0.000
2898.000,-81.543,-29.785,-28.320,-71.289,0.000
2902.000,-50.293,-28.320,-19.531,-46.387,0.000
2906.000,-35.156,-31.250,-24.414,-45.898,0.000
2910.000,-57.129,-25.879,-32.227,-45.898,0.000
2914.000,-63.965,-21.973,-27.832,-32.227,0.000
2918.000,-43.945,-25.879,-22.949,-23.926,0.000
2922.000,-46.875,-32.227,-31.250,-12.695,0.000
2926.000,-46.875,-29.785,-28.809,-3.418,0.000
2930.000,-39.551,-20.508,-25.879,-12.207,0.000
2933.000,-20.508,-20.020,-28.320,-18.066,0.000
2937.000,7.324,-24.902,-23.926,-9.766,0.000
2941.000,4.395,-24.414,-18.066,-3.906,0.000
2945.000,-27.344,-27.344,-16.113,-3.418,0.000
2949.000,-41.016,-28.320,-20.996,-9.766,0.000
2953.000,-15.137,-24.414,-24.414,-5.859,0.000
2957.000,5.371,-23.438,-24.414,10.254,0.000
2961.000,-12.695,-22.949,-20.508,11.719,0.000
2965.000,-31.250,-26.855,-17.578,0.000,0.000
2969.000,-25.879,-30.273,-18.555,2.441,0.000
2972.000,10.254,-18.555,-17.090,8.301,0.000
2976.000,22.949,-18.066,-19.043,-7.812,0.000
2980.000,-12.207,-27.344,-18.066,-11.719,0.000
2984.000,-25.391,-24.414,-11.230,6.836,0.000
2988.000,-26.855,-24.902,-9.277,20.508,0.000
2992.000,-31.250,-29.297,-18.066,15.625,0.000
2996.000,-37.109,-35.645,-21.484,5.859,0.000
3000.000,-23.438,-31.738,-20.508,-3.418,0.000
3004.000,-1.465,-26.855,-22.461,-5.371,0.000
3008.000,-1.953,-27.832,-20.020,0.488,0.000
3012.000,-5.371,-27.832,-21.973,-4.395,0.000
3015.000,0.488,-23.926,-26.367,-13.672,0.000
3019.000,-1.953,-21.973,-24.414,-13.184,0.000
3023.000,-21.973,-24.414,-23.926,-7.324,0.000
3027.000,-21.484,-22.949,-25.391,-12.695,0.000
3031.000,-4.395,-17.578,-20.020,-11.719,0.000
3035.000,0.000,-14.160,-20.020,-8.301,0.000
3039.000,0.000,-15.625,-24.414,-6.836,0.000
3043.000,-0.488,-13.184,-20.020,1.953,0.000
3047.000,-4.883,-13.672,-17.090,1.465,0.000
3051.000,-6.836,-18.066,-21.484,-12.207,0.000
3055.000,-20.508,-20.020,-25.879,-16.113,0.000
3058.000,-26.855,-17.090,-26.855,-0.977,0.000
3062.000,-36.133,-15.137,-25.391,-4.395,0.000
3066.000,-41.016,-14.648,-26.367,-10.254,0.000
3070.000,-33.203,-21.973,-31.250,-12.207,0.000
3074.000,-31.738,-25.879,-32.715,-13.672,0.000
3078.000,-36.621,-26.367,-26.855,-6.348,0.000
3082.000,-48.340,-23.438,-25.879,-13.672,0.000
3086.000,-41.016,-21.973,-28.320,-19.531,0.000
3090.000,-22.461,-21.973,-27.344,-20.996,0.000
3094.000,-25.391,-20.996,-29.297,-22.461,0.000
3097.000,-17.578,-21.973,-29.297,-29.785,0.000
3101.000,-4.883,-20.996,-30.273,-37.598,0.000
3105.000,-16.113,-28.809,-26.367,-24.902,0.000
3109.000,-35.645,-27.832,-21.484,-19.043,0.000
3113.000,-52.734,-25.879,-25.391,-24.902,0.000
3117.000,-51.270,-30.273,-27.832,-30.273,0.000
3121.000,-47.363,-27.344,-27.344,-24.414,0.000
3125.000,-40.527,-24.414,-26.367,-12.695,0.000
3129.000,-40.039,-30.762,-30.273,-23.926,0.000
3133.000,-41.504,-32.227,-36.621,-36.621,0.000
3137.000,-20.996,-21.973,-30.273,-31.250,0.000
3140.000,-14.160,-20.020,-32.227,-27.344,0.000
3144.000,-40.527,-22.949,-33.691,-19.043,0.000
3148.000,-48.828,-22.461,-22.461,-24.902,0.000
3152.000,-23.438,-26.855,-19.531,-23.926,0.000
3156.000,-2.930,-29.297,-19.531,-17.090,0.000
3160.000,-20.508,-31.738,-14.160,-15.625,0.000
3164.000,-49.805,-29.297,-19.531,-15.625,0.000
3168.000,-48.340,-26.367,-18.066,-6.836,0.000
3172.000,-47.363,-32.227,-15.625,-0.977,0.000
3176.000,-40.527,-33.203,-22.461,-1.465,0.000
3179.000,-15.625,-31.250,-19.043,5.859,0.000
3183.000,1.465,-27.344,-20.020,-4.395,0.000
3187.000,-34.668,-29.297,-31.250,-30.762,0.000
3191.000,-76.172,-36.621,-31.250,-24.414,0.000
3195.000,-62.500,-36.133,-32.715,-16.602,0.000
3199.000,-50.293,-27.832,-34.180,-13.184,0.000
3203.000,-51.270,-27.344,-35.645,-19.043,0.000
3207.000,-36.621,-29.785,-38.086,-21.484,0.000
3211.000,-19.531,-21.973,-33.203,-19.043,0.000
3215.000,-13.184,-23.926,-33.691,-29.785,0.000
3219.000,-29.785,-31.250,-35.156,-41.992,0.000
3222.000,-29.785,-27.344,-30.762,-31.250,0.000
3226.000,-18.066,-19.043,-30.762,-16.602,0.000
3230.000,-18.555,-21.484,-29.785,-23.438,0.000
3234.000,-34.668,-26.367,-28.320,-31.250,0.000
3238.000,-37.598,-28.320,-23.926,-20.508,0.000
3242.000,-30.762,-26.367,-24.414,-19.531,0.000
3246.000,-24.414,-26.855,-31.250,-33.203,0.000
3250.000,-19.043,-32.227,-32.227,-42.480,0.000
3254.000,-9.766,-28.809,-30.762,-33.691,0.000
3258.000,-12.207,-20.508,-31.250,-21.484,0.000
3262.000,-11.719,-21.484,-32.715,-26.855,0.000
3265.000,-14.160,-31.250,-38.086,-28.320,0.000
3269.000,-31.738,-31.738,-36.133,-6.348,0.000
3273.000,-46.387,-25.391,-27.344,4.395,0.000
3277.000,-24.902,-26.855,-26.367,0.977,0.000
3281.000,0.977,-26.367,-29.297,-10.742,0.000
3285.000,10.254,-24.414,-25.391,-18.555,0.000
3289.000,-18.066,-25.879,-23.926,-18.555,0.000
3293.000,-56.641,-25.879,-21.973,-10.254,0.000
3297.000,-57.617,-23.926,-19.043,-6.836,0.000
3301.000,-47.363,-22.949,-22.461,-6.836,0.000
3304.000,-37.109,-22.461,-26.367,-2.930,0.000
3308.000,-26.367,-20.020,-22.461,-1.465,0.000
3312.000,-13.672,-19.531,-18.066,-12.207,0.000
3316.000,-11.230,-23.926,-18.555,-27.344,0.000
3320.000,-21.973,-22.949,-12.207,-20.996,0.000
3324.000,-28.809,-20.996,-13.672,-9.277,0.000
3328.000,-16.602,-16.602,-20.020,-10.742,0.000
3332.000,-17.090,-12.695,-16.113,-14.160,0.000
3336.000,-36.133,-16.602,-14.160,-13.672,0.000
3340.000,-18.555,-14.160,-11.230,-13.672,0.000
3344.000,-4.883,-9.766,-9.277,-15.137,0.000
3347.000,-26.367,-17.578,-18.555,-27.344,0.000
3351.000,-42.480,-22.949,-25.879,-37.598,0.000
3355.000,-42.480,-21.973,-30.762,-32.227,0.000
3359.000,-31.250,-26.855,-31.738,-30.273,0.000
3363.000,-19.043,-29.785,-28.320,-33.691,0.000
3367.000,-26.855,-30.762,-29.785,-44.434,0.000
3371.000,-47.363,-32.227,-34.180,-45.898,0.000
3375.000,-47.852,-29.297,-30.762,-33.691,0.000
3379.000,-55.664,-31.250,-30.762,-28.320,0.000
3383.000,-83.008,-31.250,-27.344,-43.457,0.000
3387.000,-91.309,-35.156,-23.926,-48.828,0.000
3390.000,-64.453,-37.598,-24.902,-36.621,0.000
3394.000,-43.945,-30.762,-31.250,-38.574,0.000
3398.000,-19.531,-25.879,-33.203,-40.527,0.000
3402.000,-1.953,-26.855,-34.180,-33.203,0.000
3406.000,-21.973,-24.902,-41.016,-29.785,0.000
3410.000,-25.879,-22.461,-38.086,-17.578,0.000
3414.000,-2.930,-19.531,-33.203,-37.109,0.000
3418.000,18.555,-11.230,-33.691,-52.246,0.000
