timestamp,TP9,AF7,AF8,TP10,Right AUX
1673805214.195,-25.879,-35.156,-26.367,-14.648,0.000
1673805214.199,-30.273,-32.227,-23.438,-17.578,0.000
1673805214.203,-26.367,-29.785,-25.391,-12.695,0.000
1673805214.206,-25.879,-33.203,-22.949,-22.461,0.000
1673805214.210,-29.297,-36.621,-25.879,-28.320,0.000
1673805214.214,-25.391,-35.156,-25.879,-17.090,0.000
1673805214.218,-36.621,-37.598,-24.902,-20.508,0.000
1673805214.222,-31.738,-36.621,-33.203,-34.180,0.000
1673805214.226,-21.484,-35.645,-31.738,-16.602,0.000
1673805214.230,-41.504,-36.621,-27.832,-3.418,0.000
1673805214.234,-35.645,-34.668,-26.855,-18.066,0.000
1673805214.238,-22.949,-26.855,-20.020,-21.484,0.000
1673805214.242,-18.066,-21.484,-18.555,-23.926,0.000
1673805214.246,-10.254,-28.809,-23.926,-21.484,0.000
1673805214.249,-23.926,-28.809,-28.320,-21.484,0.000
1673805214.253,-9.766,-15.625,-25.391,-23.438,0.000
1673805214.257,-8.301,-15.625,-20.996,-22.461,0.000
1673805214.261,-24.902,-17.578,-22.461,-15.625,0.000
1673805214.265,-33.203,-14.160,-22.949,-13.672,0.000
1673805214.269,-38.086,-20.508,-25.391,-20.996,0.000
1673805214.273,-25.391,-22.949,-23.438,-22.461,0.000
1673805214.277,-34.668,-23.926,-25.391,-26.855,0.000
1673805214.281,-40.527,-28.809,-34.180,-28.320,0.000
1673805214.285,-28.320,-28.320,-32.227,-29.297,0.000
1673805214.289,-29.785,-30.273,-27.832,-31.738,0.000
1673805214.292,-37.109,-29.297,-29.785,-34.180,0.000
1673805214.296,-39.062,-24.414,-29.297,-30.762,0.000
1673805214.300,-30.762,-27.344,-26.855,-25.391,0.000
1673805214.304,-17.090,-32.715,-23.926,-24.414,0.000
1673805214.308,-35.156,-28.320,-21.973,-24.902,0.000
1673805214.312,-50.781,-31.738,-21.484,-30.273,0.000
1673805214.316,-41.504,-31.250,-20.508,-25.879,0.000
1673805214.320,-46.387,-31.250,-17.090,-22.461,0.000
1673805214.324,-56.152,-36.621,-19.531,-41.016,0.000
1673805214.328,-55.176,-32.715,-23.438,-46.387,0.000
1673805214.331,-25.879,-27.832,-23.438,-38.574,0.000
1673805214.335,-13.672,-28.809,-22.949,-32.715,0.000
1673805214.339,-25.879,-34.180,-27.344,-30.273,0.000
1673805214.343,-39.062,-33.691,-30.273,-22.461,0.000
1673805214.347,-55.176,-37.598,-30.762,-11.719,0.000
1673805214.351,-52.734,-41.504,-31.250,-20.508,0.000
1673805214.355,-45.898,-39.551,-28.320,-26.367,0.000
1673805214.359,-44.922,-35.645,-27.832,-23.926,0.000
1673805214.363,-30.762,-33.203,-30.273,-16.113,0.000
1673805214.367,-31.250,-31.250,-31.738,-23.438,0.000
1673805214.371,-25.391,-31.250,-28.809,-27.344,0.000
1673805214.374,-28.809,-30.762,-27.832,-7.812,0.000
1673805214.378,-41.992,-34.668,-28.809,-6.836,0.000
1673805214.382,-23.438,-36.621,-29.297,-12.695,0.000
1673805214.386,-11.719,-30.762,-29.297,-14.648,0.000
1673805214.390,-26.367,-30.273,-27.832,-12.695,0.000
1673805214.394,-41.992,-32.715,-25.879,-9.766,0.000
1673805214.398,-46.875,-30.762,-31.738,-17.578,0.000
1673805214.402,-22.461,-27.832,-41.016,-21.973,0.000
1673805214.406,-11.230,-25.879,-38.086,-23.926,0.000
1673805214.410,-24.414,-25.879,-31.738,-23.438,0.000
1673805214.413,-29.297,-29.785,-35.156,-27.832,0.000
1673805214.417,-34.668,-34.668,-36.621,-25.879,0.000
1673805214.421,-25.879,-32.227,-36.621,-19.531,0.000
1673805214.425,-29.297,-28.320,-38.574,-11.719,0.000
1673805214.429,-29.785,-31.738,-38.086,-12.207,0.000
1673805214.433,-18.066,-29.785,-32.227,-12.207,0.000
1673805214.437,-14.160,-27.832,-36.133,-4.883,0.000
1673805214.441,-17.090,-30.273,-40.039,-24.414,0.000
1673805214.445,-22.949,-28.320,-37.109,-25.391,0.000
1673805214.449,-26.367,-39.551,-39.551,-15.137,0.000
1673805214.453,-24.902,-40.039,-38.086,-22.949,0.000
1673805214.456,-25.391,-30.762,-40.039,-22.461,0.000
1673805214.460,-29.297,-31.250,-41.016,-18.066,0.000
1673805214.464,-21.484,-30.762,-37.598,-17.090,0.000
1673805214.468,-31.250,-33.203,-39.062,-33.691,0.000
1673805214.472,-38.574,-36.133,-35.156,-33.691,0.000
1673805214.476,-32.715,-36.133,-31.250,-31.738,0.000
1673805214.480,-34.180,-27.832,-29.297,-26.855,0.000
1673805214.484,-34.668,-30.762,-28.809,-31.250,0.000
1673805214.488,-30.762,-33.691,-33.691,-42.969,0.000
1673805214.492,-26.367,-24.414,-33.691,-33.691,0.000
1673805214.496,-22.949,-19.531,-24.414,-18.555,0.000
1673805214.499,-5.859,-15.137,-22.949,-11.719,0.000
1673805214.503,-14.160,-18.555,-21.973,-27.344,0.000
1673805214.507,-23.438,-24.414,-17.578,-36.621,0.000
1673805214.511,-11.719,-26.367,-18.555,-26.367,0.000
1673805214.515,-22.949,-29.297,-18.066,-21.973,0.000
1673805214.519,-32.227,-28.320,-14.648,-32.227,0.000
1673805214.523,-23.438,-26.367,-11.230,-31.250,0.000
1673805214.527,-31.250,-24.414,-15.625,-25.879,0.000
1673805214.531,-48.828,-20.996,-15.625,-21.484,0.000
1673805214.535,-38.574,-16.602,-11.719,-11.719,0.000
1673805214.538,-4.395,-14.160,-13.672,-3.906,0.000
1673805214.542,8.789,-16.113,-11.230,2.441,0.000
1673805214.546,-19.531,-19.531,-10.742,8.301,0.000
1673805214.550,-36.621,-18.066,-13.184,4.395,0.000
1673805214.554,-14.160,-16.113,-9.277,-8.789,0.000
1673805214.558,-9.766,-15.625,-4.395,-2.441,0.000
1673805214.562,-33.203,-20.020,-2.441,8.301,0.000
1673805214.566,-34.180,-20.020,-2.930,7.324,0.000
1673805214.570,-33.203,-17.090,-8.301,12.207,0.000
1673805214.574,-21.973,-23.438,-8.789,11.230,0.000
1673805214.578,-5.859,-28.320,-7.812,0.000,0.000
1673805214.581,-4.395,-21.484,-12.207,-3.418,0.000
1673805214.585,-6.348,-10.254,-15.137,0.000,0.000
1673805214.589,-11.719,-14.160,-12.207,-1.953,0.000
1673805214.593,-16.602,-20.996,-12.207,-9.277,0.000
1673805214.597,-18.555,-18.066,-18.066,-5.859,0.000
1673805214.601,-26.367,-12.695,-20.508,-4.395,0.000
1673805214.605,-26.855,-13.184,-25.391,-16.113,0.000
1673805214.609,-17.090,-16.602,-21.973,-13.672,0.000
1673805214.613,-4.883,-14.160,-20.020,-15.625,0.000
1673805214.617,2.930,-10.254,-20.996,-13.184,0.000
1673805214.621,5.371,-7.812,-19.043,-21.973,0.000
1673805214.624,0.000,-17.578,-21.973,-38.574,0.000
1673805214.628,-16.602,-20.508,-22.949,-28.809,0.000
1673805214.632,-5.859,-12.207,-21.973,-21.973,0.000
1673805214.636,-1.465,-12.207,-23.926,-21.484,0.000
1673805214.640,-41.016,-13.672,-19.531,-20.020,0.000
1673805214.644,-53.223,-17.578,-15.625,-6.836,0.000
1673805214.648,-30.762,-18.066,-18.555,-4.395,0.000
1673805214.652,-24.414,-14.648,-20.508,-16.602,0.000
1673805214.656,-20.996,-12.207,-23.926,-28.320,0.000
1673805214.660,-25.391,-9.277,-25.391,-20.508,0.000
1673805214.663,-44.434,-14.648,-22.949,-5.371,0.000
1673805214.667,-42.969,-22.949,-23.438,-20.508,0.000
1673805214.671,-29.785,-20.020,-25.391,-25.391,0.000
1673805214.675,-27.832,-17.090,-26.855,-9.766,0.000
1673805214.679,-38.574,-21.484,-24.414,-7.812,0.000
1673805214.683,-38.086,-24.902,-20.508,-6.836,0.000
1673805214.687,-39.551,-24.414,-18.066,0.977,0.000
1673805214.691,-41.016,-23.926,-14.160,1.953,0.000
1673805214.695,-29.297,-24.902,-14.160,-4.395,0.000
1673805214.699,-29.785,-24.414,-21.973,-16.602,0.000
1673805214.703,-29.297,-20.508,-20.996,-20.508,0.000
1673805214.706,-23.438,-25.391,-17.578,-18.066,0.000
1673805214.710,-26.855,-28.809,-19.531,-21.484,0.000
1673805214.714,-41.504,-25.391,-21.484,-25.879,0.000
1673805214.718,-34.668,-24.902,-23.438,-16.113,0.000
1673805214.722,-3.906,-29.297,-23.438,-8.789,0.000
1673805214.726,13.184,-26.855,-24.414,0.977,0.000
1673805214.730,5.859,-24.902,-26.367,6.836,0.000
1673805214.734,-9.277,-26.855,-31.250,-7.812,0.000
1673805214.738,-5.371,-24.902,-35.645,-15.625,0.000
1673805214.742,23.438,-21.484,-39.062,-17.090,0.000
1673805214.746,42.969,-20.996,-44.434,-23.438,0.000
1673805214.749,37.109,-20.020,-43.457,-26.367,0.000
1673805214.753,-19.531,-18.555,-34.180,-19.043,0.000
1673805214.757,-64.941,-28.809,-27.832,-17.090,0.000
1673805214.761,-45.898,-34.180,-30.273,-16.113,0.000
1673805214.765,-47.852,-31.738,-29.785,-13.184,0.000
1673805214.769,-62.500,-28.809,-24.902,-16.113,0.000
1673805214.773,-57.617,-27.344,-28.320,-20.996,0.000
1673805214.777,-46.387,-27.344,-25.879,-18.555,0.000
1673805214.781,-35.645,-29.785,-25.879,-8.301,0.000
1673805214.785,-39.062,-28.809,-28.809,-9.766,0.000
1673805214.788,-33.691,-26.855,-29.297,-17.578,0.000
1673805214.792,-22.461,-25.391,-32.227,-16.113,0.000
1673805214.796,-26.855,-28.809,-29.297,-0.977,0.000
1673805214.800,-27.344,-37.109,-25.879,3.906,0.000
1673805214.804,-26.855,-34.180,-25.391,-17.578,0.000
1673805214.808,-37.598,-26.367,-22.461,-20.996,0.000
1673805214.812,-26.855,-23.926,-20.020,-8.301,0.000
1673805214.816,-20.020,-27.344,-21.484,-7.812,0.000
1673805214.820,-19.043,-29.297,-18.066,-12.207,0.000
1673805214.824,-10.742,-21.973,-18.555,-20.508,0.000
1673805214.828,-7.812,-21.484,-26.855,-23.926,0.000
1673805214.831,-1.953,-27.344,-31.250,-19.043,0.000
1673805214.835,-20.996,-26.367,-27.832,-25.391,0.000
1673805214.839,-18.555,-21.484,-23.926,-24.414,0.000
1673805214.843,2.930,-24.414,-28.809,-24.902,0.000
1673805214.847,-43.945,-35.645,-34.668,-29.785,0.000
1673805214.851,-98.145,-40.039,-30.273,-23.926,0.000
1673805214.855,-91.797,-38.086,-28.320,-21.973,0.000
1673805214.859,-64.453,-34.180,-29.785,-26.367,0.000
1673805214.863,-44.922,-32.715,-26.367,-22.949,0.000
1673805214.867,-34.180,-36.133,-21.973,-11.230,0.000
1673805214.871,-38.574,-37.598,-21.484,-18.066,0.000
1673805214.874,-40.039,-29.297,-23.926,-13.672,0.000
1673805214.878,-32.227,-31.738,-25.879,-14.648,0.000
1673805214.882,-21.484,-32.715,-27.832,-29.297,0.000
1673805214.886,-10.254,-25.879,-27.832,-20.996,0.000
1673805214.890,-15.625,-28.320,-27.344,-24.414,0.000
1673805214.894,-54.199,-33.691,-31.250,-33.691,0.000
1673805214.898,-74.219,-30.273,-27.832,-15.625,0.000
1673805214.902,-61.523,-22.949,-20.996,-8.789,0.000
1673805214.906,-50.293,-22.461,-20.508,-18.555,0.000
1673805214.910,-32.715,-24.902,-25.879,-18.555,0.000
1673805214.913,-22.461,-31.250,-26.367,-18.555,0.000
1673805214.917,-12.695,-28.809,-23.926,-18.066,0.000
1673805214.921,-8.301,-21.973,-30.762,-20.020,0.000
1673805214.925,-21.484,-27.344,-33.691,-22.461,0.000
1673805214.929,-35.645,-31.738,-26.367,-23.926,0.000
1673805214.933,-31.738,-30.273,-25.879,-17.090,0.000
1673805214.937,-14.648,-29.297,-32.715,-23.438,0.000
1673805214.941,-9.766,-26.855,-36.621,-33.691,0.000
1673805214.945,-7.324,-27.832,-34.180,-23.438,0.000
1673805214.949,-1.465,-31.738,-33.203,-20.996,0.000
1673805214.953,-8.789,-31.738,-30.762,-28.320,0.000
1673805214.956,-36.133,-29.785,-26.855,-23.438,0.000
1673805214.960,-54.688,-27.832,-25.391,-13.184,0.000
1673805214.964,-44.434,-22.461,-27.832,-10.254,0.000
1673805214.968,-27.832,-21.973,-27.344,-15.137,0.000
1673805214.972,-34.180,-21.973,-30.273,-20.996,0.000
1673805214.976,-42.969,-21.484,-33.691,-21.484,0.000
1673805214.980,-41.016,-27.344,-29.785,-11.230,0.000
1673805214.984,-41.504,-34.180,-35.645,-17.578,0.000
1673805214.988,-41.016,-31.738,-36.621,-27.832,0.000
1673805214.992,-35.156,-31.250,-31.738,-29.297,0.000
1673805214.996,-26.855,-29.785,-27.832,-17.090,0.000
1673805214.999,-40.039,-34.668,-29.297,-13.672,0.000
1673805215.003,-51.270,-39.062,-33.203,-24.902,0.000
1673805215.007,-33.203,-33.203,-31.250,-15.625,0.000
1673805215.011,-20.508,-32.715,-29.297,-5.859,0.000
1673805215.015,-18.066,-41.504,-35.156,-9.766,0.000
1673805215.019,-3.906,-37.598,-37.598,-23.926,0.000
1673805215.023,-6.836,-27.832,-32.227,-29.297,0.000
1673805215.027,-27.832,-37.598,-33.691,-28.809,0.000
1673805215.031,-38.086,-40.039,-29.785,-30.273,0.000
1673805215.035,-46.875,-32.227,-25.879,-20.508,0.000
1673805215.038,-34.668,-30.273,-25.879,-20.996,0.000
1673805215.042,-19.531,-35.645,-28.809,-22.949,0.000
1673805215.046,-25.879,-35.156,-28.809,-14.648,0.000
1673805215.050,-22.461,-32.227,-29.297,-16.113,0.000
1673805215.054,-12.207,-30.273,-29.297,-25.879,0.000
1673805215.058,-29.785,-32.715,-29.785,-26.367,0.000
1673805215.062,-56.641,-33.691,-28.320,-21.484,0.000
1673805215.066,-38.574,-26.855,-28.320,-24.902,0.000
1673805215.070,-26.855,-30.273,-32.715,-25.391,0.000
1673805215.074,-31.738,-30.762,-34.668,-26.367,0.000
1673805215.078,-43.945,-27.344,-32.227,-18.066,0.000
1673805215.081,-74.219,-28.809,-27.832,-12.207,0.000
1673805215.085,-72.754,-27.832,-25.391,-20.508,0.000
1673805215.089,-57.129,-32.227,-30.273,-28.809,0.000
1673805215.093,-34.180,-30.273,-33.691,-33.203,0.000
1673805215.097,-22.949,-27.832,-28.809,-30.273,0.000
1673805215.101,-34.668,-33.691,-29.785,-21.973,0.000
1673805215.105,-37.598,-34.180,-32.227,-22.949,0.000
1673805215.109,-38.086,-30.762,-33.691,-24.902,0.000
1673805215.113,-34.180,-32.715,-35.156,-12.695,0.000
1673805215.117,-14.160,-36.621,-35.156,-16.602,0.000
1673805215.121,-7.324,-38.086,-34.668,-34.668,0.000
1673805215.124,-38.086,-33.691,-28.320,-33.691,0.000
1673805215.128,-68.848,-30.273,-27.344,-20.020,0.000
1673805215.132,-56.152,-32.227,-31.738,-14.160,0.000
1673805215.136,-47.363,-36.621,-28.320,-20.996,0.000
1673805215.140,-55.176,-38.086,-30.273,-26.855,0.000
1673805215.144,-47.852,-39.062,-35.645,-31.250,0.000
1673805215.148,-34.180,-35.156,-32.227,-26.855,0.000
1673805215.152,-26.855,-24.902,-28.809,-19.043,0.000
1673805215.156,-6.836,-14.648,-23.926,-9.766,0.000
1673805215.160,-0.977,-24.414,-24.902,-5.859,0.000
1673805215.163,-23.926,-37.109,-26.855,-15.625,0.000
1673805215.167,-38.574,-28.320,-21.973,-12.695,0.000
1673805215.171,-29.785,-20.020,-22.461,-9.766,0.000
1673805215.175,-26.367,-27.344,-28.809,-8.789,0.000
1673805215.179,-22.949,-31.738,-29.785,-10.742,0.000
1673805215.183,-16.602,-28.809,-26.855,-14.648,0.000
1673805215.187,-10.742,-30.762,-28.809,-25.391,0.000
1673805215.191,0.000,-29.785,-26.367,-32.715,0.000
1673805215.195,-9.766,-27.832,-20.508,-27.832,0.000
1673805215.199,-31.250,-31.738,-16.113,-23.438,0.000
1673805215.203,-48.340,-33.691,-15.625,-25.391,0.000
1673805215.206,-58.105,-37.109,-26.367,-28.809,0.000
1673805215.210,-33.691,-34.668,-25.879,-28.320,0.000
1673805215.214,-22.461,-31.738,-21.484,-25.391,0.000
1673805215.218,-45.410,-37.109,-25.391,-28.809,0.000
1673805215.222,-52.246,-36.133,-21.973,-34.668,0.000
1673805215.226,-41.016,-33.203,-19.531,-31.738,0.000
1673805215.230,-27.344,-27.832,-22.949,-31.250,0.000
1673805215.234,-19.531,-27.832,-24.902,-33.203,0.000
1673805215.238,-42.480,-34.180,-23.926,-33.203,0.000
1673805215.242,-46.387,-32.715,-25.879,-32.227,0.000
1673805215.246,-31.738,-30.762,-27.344,-20.508,0.000
1673805215.249,-40.039,-33.203,-29.297,-14.648,0.000
1673805215.253,-56.641,-30.762,-33.203,-26.367,0.000
1673805215.257,-36.133,-31.738,-35.645,-31.738,0.000
1673805215.261,-18.555,-29.785,-33.691,-27.832,0.000
1673805215.265,-25.391,-28.320,-31.738,-26.855,0.000
1673805215.269,-29.785,-36.621,-27.344,-30.273,0.000
1673805215.273,-30.762,-36.133,-22.461,-16.113,0.000
1673805215.277,-29.297,-30.762,-22.461,-8.301,0.000
1673805215.281,-27.344,-31.250,-28.809,-14.160,0.000
1673805215.285,-24.902,-33.203,-30.273,-15.137,0.000
1673805215.288,-19.043,-30.273,-27.344,-12.207,0.000
1673805215.292,-27.344,-26.367,-26.367,-7.324,0.000
1673805215.296,-28.809,-26.855,-27.344,-8.301,0.000
1673805215.300,-21.484,-26.367,-26.855,-10.742,0.000
1673805215.304,-31.250,-28.320,-26.855,-14.160,0.000
1673805215.308,-18.555,-27.344,-25.391,-8.789,0.000
1673805215.312,5.859,-21.484,-27.832,-14.160,0.000
1673805215.316,8.789,-23.438,-31.738,-27.344,0.000
1673805215.320,-12.207,-20.020,-24.414,-28.320,0.000
1673805215.324,-50.293,-20.020,-19.043,-16.602,0.000
1673805215.328,-47.852,-24.902,-20.508,-10.254,0.000
1673805215.331,-30.762,-21.484,-20.020,-8.301,0.000
1673805215.335,-35.156,-24.902,-20.996,-14.160,0.000
1673805215.339,-36.133,-26.855,-23.438,-19.043,0.000
1673805215.343,-49.316,-28.809,-27.344,-14.160,0.000
1673805215.347,-49.805,-34.668,-29.785,-18.555,0.000
1673805215.351,-35.156,-34.668,-29.785,-22.461,0.000
1673805215.355,-33.203,-33.691,-32.715,-23.926,0.000
1673805215.359,-43.457,-30.762,-32.227,-18.066,0.000
1673805215.363,-43.457,-28.809,-27.832,-14.160,0.000
1673805215.367,-33.691,-31.738,-27.832,-23.926,0.000
1673805215.371,-46.875,-34.668,-28.809,-28.320,0.000
1673805215.374,-46.387,-32.227,-27.832,-26.855,0.000
1673805215.378,-36.133,-35.645,-29.297,-20.508,0.000
1673805215.382,-31.738,-32.715,-34.668,-12.695,0.000
1673805215.386,-25.879,-31.738,-35.156,-13.184,0.000
1673805215.390,-24.414,-31.738,-31.250,-21.973,0.000
1673805215.394,-25.391,-31.738,-25.391,-19.043,0.000
1673805215.398,-20.020,-39.062,-26.367,-14.648,0.000
1673805215.402,-29.297,-37.109,-28.809,-21.484,0.000
1673805215.406,-45.898,-32.227,-27.344,-28.809,0.000
1673805215.410,-37.598,-26.367,-27.344,-34.180,0.000
1673805215.413,-17.578,-17.090,-22.949,-29.297,0.000
1673805215.417,-15.625,-14.648,-23.926,-21.973,0.000
1673805215.421,-4.395,-16.602,-23.926,-29.785,0.000
1673805215.425,-12.207,-18.066,-19.043,-29.785,0.000
1673805215.429,-42.969,-21.484,-21.484,-18.555,0.000
1673805215.433,-62.500,-25.879,-23.438,-18.555,0.000
1673805215.437,-57.617,-32.227,-20.508,-15.625,0.000
1673805215.441,-27.344,-30.273,-23.926,-10.742,0.000
1673805215.445,-14.160,-22.461,-25.391,-6.348,0.000
1673805215.449,-20.996,-23.438,-18.555,-15.137,0.000
1673805215.453,-31.250,-23.926,-18.066,-22.949,0.000
1673805215.456,-25.879,-16.602,-18.555,-20.020,0.000
1673805215.460,-9.277,-15.137,-13.184,-15.137,0.000
1673805215.464,0.000,-16.602,-9.766,-15.137,0.000
1673805215.468,-19.531,-9.277,-7.812,-7.324,0.000
1673805215.472,-34.180,-6.836,-12.695,-4.395,0.000
1673805215.476,-37.598,-11.719,-12.695,-3.418,0.000
1673805215.480,-38.574,-18.066,-11.230,-2.930,0.000
1673805215.484,-24.902,-17.578,-12.695,-10.742,0.000
1673805215.488,-16.113,-10.742,-7.812,-7.324,0.000
1673805215.492,-15.625,-15.137,-8.301,-8.789,0.000
1673805215.496,-15.625,-21.484,-8.301,-11.719,0.000
1673805215.499,-8.301,-22.461,-9.766,-19.531,0.000
1673805215.503,-11.719,-20.508,-10.254,-20.020,0.000
1673805215.507,-30.762,-17.578,-6.836,-16.113,0.000
1673805215.511,-19.043,-18.066,-12.695,-17.090,0.000
1673805215.515,-6.836,-24.414,-15.625,-11.230,0.000
1673805215.519,-22.949,-24.902,-10.742,-18.066,0.000
1673805215.523,-24.414,-19.531,-10.254,-30.273,0.000
1673805215.527,-17.578,-22.949,-13.184,-28.320,0.000
1673805215.531,-16.113,-24.902,-12.207,-18.555,0.000
1673805215.535,-15.625,-17.090,-13.672,-17.090,0.000
1673805215.538,-19.043,-16.602,-22.461,-16.113,0.000
1673805215.542,-18.555,-16.602,-18.555,-8.301,0.000
1673805215.546,-2.930,-13.672,-13.672,-7.324,0.000
1673805215.550,-4.395,-14.160,-20.020,-3.418,0.000
1673805215.554,-27.832,-16.602,-21.973,4.883,0.000
1673805215.558,-34.668,-19.531,-20.020,-1.465,0.000
1673805215.562,-27.832,-21.973,-23.438,-19.531,0.000
1673805215.566,-25.391,-19.531,-23.438,-13.672,0.000
1673805215.570,-18.066,-13.672,-18.066,0.977,0.000
1673805215.574,-7.812,-17.090,-22.461,-1.953,0.000
1673805215.578,-22.461,-20.508,-24.414,2.930,0.000
1673805215.581,-34.180,-16.602,-19.531,0.977,0.000
1673805215.585,-20.996,-17.578,-21.484,-20.996,0.000
1673805215.589,-21.973,-18.555,-23.438,-23.926,0.000
1673805215.593,-22.461,-19.043,-28.809,-27.344,0.000
1673805215.597,-26.855,-21.484,-27.344,-25.391,0.000
1673805215.601,-25.391,-19.043,-21.484,-17.578,0.000
1673805215.605,-20.020,-22.461,-25.879,-34.180,0.000
1673805215.609,-18.066,-26.367,-29.785,-35.645,0.000
1673805215.613,-15.625,-23.926,-23.926,-20.508,0.000
1673805215.617,-31.250,-27.344,-19.043,-21.484,0.000
1673805215.621,-33.691,-32.227,-21.973,-34.668,0.000
1673805215.624,-24.414,-25.879,-22.949,-31.738,0.000
1673805215.628,-41.016,-29.785,-21.973,-23.926,0.000
1673805215.632,-69.824,-36.621,-22.461,-12.207,0.000
1673805215.636,-63.965,-33.691,-22.461,-6.836,0.000
1673805215.640,-43.945,-34.180,-24.414,-19.043,0.000
1673805215.644,-28.320,-36.133,-29.297,-26.367,0.000
1673805215.648,-17.090,-37.109,-30.762,-27.832,0.000
1673805215.652,-45.898,-35.156,-25.879,-26.367,0.000
1673805215.656,-64.453,-34.668,-22.461,-30.762,0.000
1673805215.660,-47.852,-40.039,-29.297,-38.086,0.000
1673805215.663,-36.133,-39.551,-29.785,-30.762,0.000
1673805215.667,-33.203,-34.180,-22.949,-21.973,0.000
1673805215.671,-32.715,-37.109,-24.902,-27.832,0.000
1673805215.675,-31.738,-39.551,-26.855,-25.391,0.000
1673805215.679,-48.340,-37.109,-20.020,-12.207,0.000
1673805215.683,-60.059,-40.039,-22.461,-11.230,0.000
1673805215.687,-53.711,-39.062,-28.320,-27.344,0.000
1673805215.691,-39.062,-36.133,-27.832,-37.109,0.000
1673805215.695,-16.602,-34.180,-28.320,-28.809,0.000
1673805215.699,-12.207,-33.203,-29.297,-19.531,0.000
1673805215.703,-29.785,-33.203,-33.203,-25.391,0.000
1673805215.706,-24.414,-28.320,-32.227,-33.203,0.000
1673805215.710,-12.695,-30.762,-27.344,-24.902,0.000
1673805215.714,-19.043,-31.250,-25.391,-15.137,0.000
1673805215.718,-46.875,-27.344,-24.414,-12.207,0.000
1673805215.722,-48.828,-23.438,-25.391,-19.043,0.000
1673805215.726,-22.461,-18.555,-23.926,-17.090,0.000
1673805215.730,-11.719,-20.020,-24.902,-7.812,0.000
1673805215.734,-33.691,-22.461,-27.832,-15.625,0.000
1673805215.738,-66.895,-21.484,-22.461,-15.137,0.000
1673805215.742,-54.688,-21.484,-23.926,-12.207,0.000
1673805215.746,-41.016,-26.855,-29.297,-11.719,0.000
1673805215.749,-50.293,-24.902,-31.250,-21.484,0.000
1673805215.753,-45.898,-19.043,-30.762,-33.691,0.000
1673805215.757,-31.738,-23.438,-28.809,-29.297,0.000
1673805215.761,-20.996,-26.855,-28.320,-23.926,0.000
1673805215.765,-23.438,-23.438,-26.855,-17.578,0.000
1673805215.769,-17.578,-22.949,-24.414,-13.184,0.000
1673805215.773,-14.648,-20.508,-21.484,-17.578,0.000
1673805215.777,-21.484,-22.461,-24.902,-19.043,0.000
1673805215.781,-21.484,-23.438,-28.809,-15.625,0.000
1673805215.785,-13.672,-27.344,-25.879,-20.996,0.000
1673805215.788,-19.043,-31.738,-29.785,-28.320,0.000
1673805215.792,-30.273,-26.367,-36.133,-29.297,0.000
1673805215.796,-33.203,-26.367,-31.250,-32.715,0.000
1673805215.800,-35.645,-25.391,-24.414,-30.762,0.000
1673805215.804,-18.555,-20.508,-26.367,-29.297,0.000
1673805215.808,-32.715,-29.297,-26.367,-33.203,0.000
1673805215.812,-44.434,-29.297,-21.484,-18.066,0.000
1673805215.816,-33.691,-23.438,-25.391,-14.160,0.000
1673805215.820,-18.555,-29.785,-31.738,-29.785,0.000
1673805215.824,-11.719,-34.180,-32.715,-30.762,0.000
1673805215.828,-21.484,-29.785,-29.785,-19.043,0.000
1673805215.831,-15.625,-25.879,-24.414,-2.441,0.000
1673805215.835,-32.227,-31.738,-24.414,-6.348,0.000
1673805215.839,-35.645,-37.109,-27.832,-20.996,0.000
1673805215.843,-20.508,-31.738,-28.809,-23.926,0.000
1673805215.847,-13.184,-25.879,-31.738,-23.438,0.000
1673805215.851,-26.367,-27.344,-31.738,-15.625,0.000
1673805215.855,-52.734,-30.273,-30.273,-21.484,0.000
1673805215.859,-41.016,-26.367,-30.762,-24.902,0.000
1673805215.863,-19.043,-28.320,-34.180,-23.438,0.000
1673805215.867,-7.812,-28.809,-40.039,-32.715,0.000
1673805215.870,-15.625,-19.043,-45.410,-40.039,0.000
1673805215.874,-20.020,-19.531,-36.133,-32.715,0.000
1673805215.878,-21.973,-26.855,-26.855,-19.043,0.000
1673805215.882,-38.574,-27.832,-30.273,-13.672,0.000
1673805215.886,-41.504,-26.367,-33.691,-25.391,0.000
1673805215.890,-36.621,-30.762,-32.715,-32.227,0.000
1673805215.894,-30.762,-33.203,-30.762,-25.391,0.000
1673805215.898,-24.902,-33.203,-25.391,-28.809,0.000
1673805215.902,-27.344,-31.738,-25.391,-32.715,0.000
1673805215.906,-36.133,-30.762,-30.762,-27.832,0.000
1673805215.910,-35.645,-28.809,-29.785,-17.090,0.000
1673805215.913,-39.062,-25.391,-32.715,-21.484,0.000
1673805215.917,-43.945,-25.879,-32.227,-31.738,0.000
1673805215.921,-32.715,-26.855,-24.902,-25.391,0.000
1673805215.925,-33.691,-31.250,-28.320,-20.020,0.000
1673805215.929,-37.598,-34.180,-29.785,-16.113,0.000
1673805215.933,-37.598,-34.180,-23.438,-10.742,0.000
1673805215.937,-38.086,-33.691,-21.484,-1.953,0.000
1673805215.941,-45.410,-35.645,-20.996,-9.766,0.000
1673805215.945,-42.969,-39.062,-24.902,-28.320,0.000
1673805215.949,-31.738,-43.457,-29.297,-23.438,0.000
1673805215.953,-45.898,-39.062,-32.715,-23.926,0.000
1673805215.956,-41.504,-31.738,-35.156,-32.227,0.000
1673805215.960,-30.273,-30.762,-35.156,-31.250,0.000
1673805215.964,-30.273,-28.809,-34.668,-21.973,0.000
1673805215.968,-29.785,-29.297,-30.273,-20.020,0.000
1673805215.972,-33.203,-30.273,-28.320,-22.461,0.000
1673805215.976,-27.344,-29.297,-26.855,-22.461,0.000
1673805215.980,-28.320,-32.715,-24.902,-22.461,0.000
1673805215.984,-18.066,-33.691,-27.832,-20.508,0.000
1673805215.988,-11.719,-33.691,-29.785,-24.902,0.000
1673805215.992,-46.875,-33.203,-24.414,-21.973,0.000
1673805215.995,-63.477,-31.738,-24.902,-17.090,0.000
1673805215.999,-48.828,-38.086,-32.715,-20.996,0.000
1673805216.003,-44.922,-32.227,-36.133,-32.227,0.000
1673805216.007,-59.082,-29.297,-35.645,-36.621,0.000
1673805216.011,-60.547,-32.227,-32.715,-19.043,0.000
1673805216.015,-54.199,-31.738,-30.762,-9.766,0.000
1673805216.019,-58.105,-34.668,-30.762,-14.648,0.000
1673805216.023,-57.129,-34.180,-25.391,-16.113,0.000
1673805216.027,-48.340,-29.297,-24.414,-17.090,0.000
1673805216.031,-49.805,-27.344,-34.180,-16.113,0.000
1673805216.035,-45.410,-26.367,-30.762,-17.090,0.000
1673805216.038,-39.551,-24.902,-20.996,-27.832,0.000
1673805216.042,-45.410,-25.879,-25.391,-26.855,0.000
1673805216.046,-43.945,-27.832,-28.809,-16.113,0.000
1673805216.050,-38.086,-29.785,-24.902,-16.602,0.000
1673805216.054,-26.855,-26.855,-23.926,-19.531,0.000
1673805216.058,-17.090,-23.438,-26.367,-18.066,0.000
1673805216.062,-19.043,-30.762,-29.785,-19.043,0.000
1673805216.066,-14.160,-29.785,-32.715,-22.461,0.000
1673805216.070,-25.391,-23.926,-28.320,-18.555,0.000
1673805216.074,-35.645,-29.785,-24.902,-22.461,0.000
1673805216.078,-18.066,-31.738,-27.832,-22.461,0.000
1673805216.081,-16.602,-28.320,-28.809,-17.090,0.000
1673805216.085,-22.949,-26.855,-29.297,-25.391,0.000
1673805216.089,-17.578,-28.320,-31.738,-27.344,0.000
1673805216.093,-6.348,-28.809,-32.715,-21.973,0.000
1673805216.097,-17.578,-31.250,-34.668,-26.367,0.000
1673805216.101,-42.480,-38.086,-33.203,-26.367,0.000
1673805216.105,-37.109,-35.156,-28.809,-20.020,0.000
1673805216.109,-28.320,-31.250,-31.250,-28.809,0.000
1673805216.113,-49.805,-34.668,-32.227,-30.762,0.000
1673805216.117,-73.242,-29.297,-25.391,-26.367,0.000
1673805216.120,-66.895,-20.996,-19.531,-25.879,0.000
1673805216.124,-54.199,-24.414,-16.602,-20.996,0.000
1673805216.128,-43.457,-30.762,-18.555,-13.672,0.000
1673805216.132,-37.109,-30.273,-23.438,-18.066,0.000
1673805216.136,-32.715,-24.902,-28.320,-28.809,0.000
1673805216.140,-30.762,-22.949,-35.156,-35.156,0.000
1673805216.144,-31.738,-25.879,-32.715,-23.926,0.000
1673805216.148,-22.949,-30.273,-29.297,-8.301,0.000
1673805216.152,-7.324,-36.621,-35.645,-14.648,0.000
1673805216.156,0.488,-31.250,-36.133,-21.973,0.000
1673805216.160,-1.465,-21.973,-28.320,-7.812,0.000
1673805216.163,-23.926,-22.949,-24.902,7.324,0.000
1673805216.167,-31.738,-27.344,-25.391,-0.977,0.000
1673805216.171,-28.809,-32.715,-30.273,-19.043,0.000
1673805216.175,-30.762,-32.227,-33.691,-20.508,0.000
1673805216.179,-18.555,-35.645,-33.203,-11.719,0.000
1673805216.183,-14.648,-30.762,-31.250,-9.277,0.000
1673805216.187,-24.414,-28.809,-27.344,-15.137,0.000
1673805216.191,-25.879,-33.203,-25.879,-15.625,0.000
1673805216.195,-17.090,-34.668,-24.414,-10.742,0.000
1673805216.199,-40.039,-32.227,-23.926,-15.137,0.000
1673805216.203,-55.664,-24.902,-21.973,-8.789,0.000
1673805216.206,-42.480,-20.996,-22.461,-18.066,0.000
1673805216.210,-32.715,-24.414,-26.855,-30.273,0.000
1673805216.214,-33.691,-30.273,-29.785,-19.531,0.000
1673805216.218,-29.785,-24.414,-27.344,-15.137,0.000
1673805216.222,-21.484,-21.484,-26.367,-14.648,0.000
1673805216.226,-32.715,-29.785,-28.320,-11.719,0.000
1673805216.230,-33.203,-36.133,-26.855,-11.719,0.000
1673805216.234,-26.855,-38.574,-23.926,-18.555,0.000
1673805216.238,-23.926,-33.203,-20.508,-19.043,0.000
1673805216.242,-33.691,-26.855,-24.902,-8.789,0.000
1673805216.245,-40.527,-26.367,-20.996,2.441,0.000
1673805216.249,-39.062,-26.855,-17.578,2.441,0.000
1673805216.253,-25.391,-28.809,-22.461,-13.672,0.000
1673805216.257,-26.855,-33.203,-22.949,-21.973,0.000
1673805216.261,-23.926,-32.715,-31.250,-21.484,0.000
1673805216.265,-16.602,-29.297,-32.227,-14.160,0.000
1673805216.269,-20.508,-39.062,-24.902,-14.160,0.000
1673805216.273,-18.066,-38.086,-24.414,-21.484,0.000
1673805216.277,-26.367,-32.227,-24.414,-15.137,0.000
1673805216.281,-24.902,-34.668,-28.320,-5.859,0.000
1673805216.285,-15.137,-35.156,-28.320,-20.020,0.000
1673805216.288,-9.766,-29.297,-29.297,-40.527,0.000
1673805216.292,0.977,-25.391,-30.762,-28.320,0.000
1673805216.296,10.742,-24.414,-31.250,-7.812,0.000
1673805216.300,1.953,-23.438,-32.227,-9.766,0.000
1673805216.304,-29.785,-28.320,-35.156,-22.461,0.000
1673805216.308,-45.410,-33.203,-38.574,-30.273,0.000
1673805216.312,-37.109,-26.367,-33.691,-24.902,0.000
1673805216.316,-34.668,-21.484,-29.297,-24.414,0.000
1673805216.320,-42.969,-25.879,-24.414,-21.973,0.000
1673805216.324,-41.504,-26.855,-25.391,-30.273,0.000
1673805216.328,-29.785,-20.996,-28.809,-26.855,0.000
1673805216.331,-33.203,-27.832,-35.645,-21.484,0.000
1673805216.335,-47.363,-41.016,-39.062,-28.809,0.000
1673805216.339,-34.668,-36.133,-32.227,-25.879,0.000
1673805216.343,-33.203,-35.156,-29.297,-18.066,0.000
1673805216.347,-37.109,-29.297,-31.738,-8.789,0.000
1673805216.351,-26.855,-24.902,-34.180,-16.602,0.000
1673805216.355,-19.531,-24.414,-31.250,-21.484,0.000
1673805216.359,-8.301,-20.996,-33.691,-22.461,0.000
1673805216.363,0.000,-21.484,-34.668,-25.879,0.000
1673805216.367,-8.301,-16.602,-28.809,-20.996,0.000
1673805216.370,-5.371,-11.230,-24.902,-18.555,0.000
1673805216.374,-5.371,-20.508,-21.484,-18.066,0.000
1673805216.378,-2.441,-21.484,-20.508,-15.137,0.000
1673805216.382,-3.906,-17.090,-19.531,-11.230,0.000
1673805216.386,-20.508,-24.414,-21.973,-13.672,0.000
1673805216.390,-9.766,-22.949,-26.367,-29.297,0.000
1673805216.394,18.555,-15.137,-21.973,-34.180,0.000
1673805216.398,14.648,-12.207,-18.066,-19.043,0.000
1673805216.402,-18.066,-16.113,-17.090,-15.625,0.000
1673805216.406,-38.574,-20.508,-16.113,-14.160,0.000
1673805216.410,-53.711,-24.902,-20.020,-13.672,0.000
1673805216.413,-37.598,-20.996,-16.602,-19.531,0.000
1673805216.417,-28.809,-18.555,-9.766,-5.371,0.000
1673805216.421,-36.621,-18.555,-12.695,-2.441,0.000
1673805216.425,-26.367,-18.555,-14.648,-7.324,0.000
1673805216.429,-15.625,-18.066,-15.625,2.441,0.000
1673805216.433,-17.578,-13.184,-12.695,0.488,0.000
1673805216.437,-35.156,-8.301,-13.672,-5.859,0.000
1673805216.441,-42.969,-11.719,-15.625,-8.301,0.000
1673805216.445,-30.762,-12.695,-12.695,-0.977,0.000
1673805216.449,-17.090,-8.789,-5.859,14.160,0.000
1673805216.453,-4.395,-6.348,0.000,-0.977,0.000
1673805216.456,-9.277,-4.395,-0.977,-15.625,0.000
1673805216.460,-7.812,-7.812,-3.418,-2.441,0.000
1673805216.464,-0.488,-15.625,-7.812,-0.977,0.000
1673805216.468,-1.953,-11.719,-5.859,-5.859,0.000
1673805216.472,-1.465,-7.324,-5.371,-9.766,0.000
1673805216.476,-10.742,-10.254,-11.230,-0.488,0.000
1673805216.480,-11.230,-14.160,-14.648,8.789,0.000
1673805216.484,-9.766,-17.578,-21.484,-4.883,0.000
1673805216.488,-12.207,-17.578,-18.555,-17.578,0.000
1673805216.492,-6.836,-13.184,-11.719,-15.625,0.000
1673805216.495,-19.531,-10.742,-12.207,-6.348,0.000
1673805216.499,-32.715,-16.602,-15.625,-13.672,0.000
1673805216.503,-20.508,-16.602,-18.066,-22.461,0.000
1673805216.507,-26.855,-16.113,-19.531,-24.414,0.000
1673805216.511,-36.133,-22.461,-22.949,-16.113,0.000
1673805216.515,-29.785,-19.531,-17.578,-6.836,0.000
1673805216.519,-16.602,-14.648,-18.066,-15.137,0.000
1673805216.523,-0.977,-16.113,-17.578,-14.648,0.000
1673805216.527,-16.602,-16.113,-16.113,-10.742,0.000
1673805216.531,-16.602,-13.672,-17.090,-11.719,0.000
1673805216.535,-4.395,-16.602,-11.230,-9.766,0.000
1673805216.538,-24.414,-24.902,-11.719,-11.230,0.000
1673805216.542,-46.875,-30.273,-14.648,-8.789,0.000
1673805216.546,-60.547,-27.344,-14.160,-11.230,0.000
1673805216.550,-66.406,-25.879,-16.113,-9.766,0.000
1673805216.554,-52.734,-23.438,-18.555,-13.672,0.000
1673805216.558,-22.949,-26.855,-20.508,-20.020,0.000
1673805216.562,-13.672,-33.203,-22.949,-19.043,0.000
1673805216.566,-23.438,-27.832,-17.090,-14.160,0.000
1673805216.570,-33.203,-27.832,-18.555,-17.578,0.000
1673805216.574,-29.785,-38.086,-23.926,-29.785,0.000
1673805216.578,-28.320,-39.551,-19.531,-21.973,0.000
1673805216.581,-41.016,-36.133,-19.043,-10.742,0.000
1673805216.585,-33.203,-31.738,-20.508,-11.230,0.000
1673805216.589,-40.527,-34.180,-21.484,-19.043,0.000
1673805216.593,-33.691,-33.203,-22.949,-15.625,0.000
1673805216.597,-7.324,-28.809,-20.508,-8.301,0.000
1673805216.601,-26.855,-36.133,-20.996,-14.160,0.000
1673805216.605,-50.781,-38.086,-19.043,-9.277,0.000
1673805216.609,-38.574,-32.715,-19.043,-6.348,0.000
1673805216.613,-24.902,-26.855,-15.625,-1.465,0.000
1673805216.617,-31.738,-32.715,-22.461,-9.277,0.000
1673805216.620,-41.992,-32.715,-28.809,-17.578,0.000
1673805216.624,-46.875,-27.832,-24.902,-23.926,0.000
1673805216.628,-43.457,-26.855,-27.344,-27.344,0.000
1673805216.632,-18.555,-21.484,-23.438,-15.625,0.000
1673805216.636,-33.691,-23.438,-24.414,-20.508,0.000
1673805216.640,-57.617,-26.855,-29.785,-25.879,0.000
1673805216.644,-41.016,-27.832,-27.344,-21.484,0.000
1673805216.648,-42.480,-27.344,-23.926,-15.625,0.000
1673805216.652,-43.945,-30.273,-25.391,-13.184,0.000
1673805216.656,-41.016,-37.598,-27.832,-23.438,0.000
1673805216.660,-32.227,-25.879,-30.762,-29.785,0.000
1673805216.663,-18.555,-17.578,-30.273,-27.832,0.000
1673805216.667,-19.043,-18.066,-25.391,-23.926,0.000
1673805216.671,-32.715,-15.137,-21.973,-23.926,0.000
1673805216.675,-41.504,-20.508,-22.461,-31.738,0.000
1673805216.679,-41.016,-22.949,-27.344,-33.203,0.000
1673805216.683,-37.109,-14.648,-22.949,-27.344,0.000
1673805216.687,-19.043,-12.207,-16.113,-25.391,0.000
1673805216.691,6.348,-16.602,-17.578,-26.367,0.000
1673805216.695,11.230,-17.090,-22.949,-21.484,0.000
1673805216.699,-15.137,-17.090,-25.391,-9.766,0.000
1673805216.703,-22.949,-17.090,-26.367,-12.695,0.000
1673805216.706,-14.648,-20.996,-26.367,-16.113,0.000
1673805216.710,-18.066,-22.461,-22.461,-10.742,0.000
1673805216.714,-9.277,-18.066,-21.484,2.441,0.000
1673805216.718,14.160,-20.508,-21.973,-3.418,0.000
1673805216.722,-8.789,-27.344,-23.926,-15.137,0.000
1673805216.726,-39.551,-33.691,-26.367,-12.207,0.000
1673805216.730,-41.992,-36.621,-24.414,1.465,0.000
1673805216.734,-35.645,-31.738,-21.484,5.859,0.000
1673805216.738,-36.133,-26.855,-23.926,-7.324,0.000
1673805216.742,-45.410,-28.809,-24.902,-14.160,0.000
1673805216.745,-29.297,-29.785,-20.020,-13.672,0.000
1673805216.749,-23.926,-30.273,-17.578,-9.766,0.000
1673805216.753,-40.039,-32.715,-18.555,-12.695,0.000
1673805216.757,-34.180,-34.180,-25.879,-26.367,0.000
1673805216.761,-15.137,-33.203,-24.902,-30.762,0.000
1673805216.765,-16.602,-32.715,-17.090,-36.133,0.000
1673805216.769,-31.250,-33.203,-16.602,-38.574,0.000
1673805216.773,-35.645,-30.273,-21.484,-41.016,0.000
1673805216.777,-26.367,-30.762,-26.367,-44.922,0.000
1673805216.781,-30.762,-34.180,-28.320,-33.691,0.000
1673805216.785,-58.105,-37.598,-24.902,-34.180,0.000
1673805216.788,-58.105,-37.598,-26.855,-42.480,0.000
1673805216.792,-38.574,-36.621,-28.320,-35.645,0.000
1673805216.796,-33.691,-39.062,-27.832,-25.391,0.000
1673805216.800,-41.504,-38.086,-32.227,-25.879,0.000
1673805216.804,-43.945,-39.551,-28.809,-34.180,0.000
1673805216.808,-28.809,-41.016,-24.414,-35.645,0.000
1673805216.812,-20.020,-41.504,-22.949,-28.320,0.000
1673805216.816,-28.320,-44.922,-21.973,-20.508,0.000
1673805216.820,-24.902,-35.645,-20.508,-19.531,0.000
1673805216.824,-20.508,-24.902,-20.508,-25.391,0.000
1673805216.828,-31.738,-27.832,-27.832,-29.297,0.000
1673805216.831,-43.945,-32.227,-24.902,-14.648,0.000
1673805216.835,-44.434,-29.297,-21.484,-5.371,0.000
1673805216.839,-32.715,-27.832,-27.832,-10.742,0.000
1673805216.843,-16.113,-30.762,-33.691,-20.996,0.000
1673805216.847,-2.930,-29.785,-32.227,-25.879,0.000
1673805216.851,-4.883,-28.320,-23.926,-28.809,0.000
1673805216.855,-19.043,-25.391,-20.508,-33.691,0.000
1673805216.859,-16.113,-25.879,-22.949,-33.691,0.000
1673805216.863,-13.184,-27.832,-24.902,-30.762,0.000
1673805216.867,-40.039,-26.367,-26.855,-30.273,0.000
1673805216.870,-52.246,-25.879,-28.809,-36.621,0.000
1673805216.874,-51.270,-31.250,-30.762,-45.410,0.000
1673805216.878,-49.316,-30.762,-29.785,-39.062,0.000
1673805216.882,-42.480,-26.855,-30.273,-21.484,0.000
1673805216.886,-41.016,-33.691,-30.762,-17.578,0.000
1673805216.890,-27.344,-40.039,-32.715,-23.438,0.000
1673805216.894,-20.996,-36.621,-29.785,-16.602,0.000
1673805216.898,-25.391,-33.203,-25.879,-9.277,0.000
1673805216.902,-19.043,-36.621,-30.273,-17.090,0.000
1673805216.906,-26.855,-36.133,-33.203,-19.043,0.000
1673805216.910,-29.785,-30.273,-31.250,-6.348,0.000
1673805216.913,-31.738,-29.785,-26.367,8.789,0.000
1673805216.917,-56.152,-39.551,-28.809,-8.301,0.000
1673805216.921,-54.688,-34.668,-32.715,-20.996,0.000
1673805216.925,-31.250,-22.949,-29.297,-12.207,0.000
1673805216.929,-15.137,-26.855,-30.273,-19.043,0.000
1673805216.933,-14.648,-32.715,-30.273,-27.344,0.000
1673805216.937,-29.297,-32.715,-27.832,-33.203,0.000
1673805216.941,-33.203,-25.391,-27.832,-32.715,0.000
1673805216.945,-37.598,-27.344,-23.926,-22.949,0.000
1673805216.949,-27.344,-28.809,-25.391,-18.066,0.000
1673805216.953,-31.250,-24.902,-30.762,-27.832,0.000
1673805216.956,-64.453,-26.855,-30.273,-29.785,0.000
1673805216.960,-48.828,-28.809,-26.367,-20.508,0.000
1673805216.964,-30.762,-30.273,-25.879,-29.785,0.000
1673805216.968,-25.391,-27.344,-29.785,-43.945,0.000
1673805216.972,-19.043,-27.344,-31.250,-47.363,0.000
1673805216.976,-35.156,-29.785,-31.738,-34.180,0.000
1673805216.980,-54.688,-28.320,-31.250,-19.531,0.000
1673805216.984,-47.363,-22.949,-24.902,-17.090,0.000
1673805216.988,-54.199,-29.297,-24.414,-22.949,0.000
1673805216.992,-42.480,-37.598,-30.273,-21.484,0.000
1673805216.995,-30.273,-38.086,-35.645,-16.602,0.000
1673805216.999,-38.574,-37.598,-30.762,-18.066,0.000
1673805217.003,-40.039,-35.645,-27.832,-16.113,0.000
1673805217.007,-38.086,-36.133,-30.273,-19.531,0.000
1673805217.011,-29.297,-38.086,-34.668,-21.973,0.000
1673805217.015,-39.062,-35.645,-37.109,-18.555,0.000
1673805217.019,-46.875,-36.621,-34.180,-20.020,0.000
1673805217.023,-31.738,-33.691,-30.273,-23.926,0.000
1673805217.027,-27.832,-31.250,-32.227,-23.438,0.000
1673805217.031,-24.902,-29.785,-31.250,-17.090,0.000
1673805217.035,-16.602,-32.227,-28.320,-8.789,0.000
1673805217.038,-18.066,-33.203,-36.621,-21.484,0.000
1673805217.042,-19.531,-28.809,-38.574,-38.086,0.000
1673805217.046,-18.066,-25.391,-34.668,-20.996,0.000
1673805217.050,-9.277,-28.320,-30.762,-13.184,0.000
1673805217.054,-22.949,-34.180,-25.391,-24.414,0.000
1673805217.058,-48.828,-35.156,-22.461,-20.020,0.000
1673805217.062,-48.828,-32.227,-23.926,-13.184,0.000
1673805217.066,-32.715,-32.715,-27.344,-3.418,0.000
1673805217.070,-24.902,-35.156,-25.391,-3.906,0.000
1673805217.074,-42.969,-30.273,-22.461,-20.996,0.000
1673805217.078,-46.387,-30.273,-22.461,-29.785,0.000
1673805217.081,-34.668,-28.809,-27.344,-24.902,0.000
1673805217.085,-25.391,-30.762,-28.809,-18.066,0.000
1673805217.089,-30.273,-36.133,-24.902,-13.672,0.000
1673805217.093,-36.133,-34.180,-25.879,-17.578,0.000
1673805217.097,-33.691,-31.738,-25.391,-35.156,0.000
1673805217.101,-18.555,-26.855,-26.855,-24.902,0.000
1673805217.105,-8.789,-22.949,-31.738,-9.277,0.000
1673805217.109,-34.180,-32.227,-29.297,-18.066,0.000
1673805217.113,-43.945,-37.109,-24.902,-23.438,0.000
1673805217.117,-26.367,-32.227,-26.367,-24.902,0.000
1673805217.120,-20.508,-26.855,-28.320,-19.531,0.000
1673805217.124,-17.090,-26.367,-28.809,-11.230,0.000
1673805217.128,-11.719,-24.902,-28.320,-17.578,0.000
1673805217.132,-6.836,-18.555,-29.785,-22.461,0.000
1673805217.136,-3.906,-21.484,-33.691,-22.949,0.000
1673805217.140,0.000,-26.367,-32.227,-21.484,0.000
1673805217.144,-8.301,-20.508,-29.785,-24.902,0.000
1673805217.148,-15.137,-24.902,-32.227,-28.320,0.000
1673805217.152,-16.113,-29.785,-32.227,-22.461,0.000
1673805217.156,-16.113,-19.531,-28.320,-15.137,0.000
1673805217.160,-8.301,-21.973,-31.250,-17.578,0.000
1673805217.163,-7.324,-28.320,-34.668,-20.508,0.000
1673805217.167,-14.648,-27.344,-35.156,-16.602,0.000
1673805217.171,-26.367,-31.738,-38.086,-20.020,0.000
1673805217.175,-28.809,-39.551,-35.645,-23.926,0.000
1673805217.179,-40.527,-39.062,-33.203,-26.367,0.000
1673805217.183,-50.293,-33.691,-27.832,-25.391,0.000
1673805217.187,-47.852,-35.156,-24.902,-15.625,0.000
1673805217.191,-43.457,-40.039,-27.344,-14.648,0.000
1673805217.195,-44.434,-36.621,-30.762,-15.625,0.000
1673805217.199,-42.480,-26.855,-33.203,-23.926,0.000
1673805217.203,-32.715,-29.297,-29.297,-24.414,0.000
1673805217.206,-30.762,-38.086,-30.273,-20.020,0.000
1673805217.210,-23.438,-31.250,-28.809,-25.391,0.000
1673805217.214,-20.508,-21.484,-23.926,-23.438,0.000
1673805217.218,-28.809,-25.391,-24.902,-19.531,0.000
1673805217.222,-29.297,-30.273,-28.320,-19.531,0.000
1673805217.226,-31.250,-28.809,-35.156,-17.578,0.000
1673805217.230,-25.391,-34.180,-36.621,-25.879,0.000
1673805217.234,-7.812,-37.109,-38.574,-31.738,0.000
1673805217.238,-1.465,-26.855,-31.738,-24.414,0.000
1673805217.242,4.395,-20.996,-30.762,-24.414,0.000
1673805217.245,-16.602,-21.973,-29.785,-23.438,0.000
1673805217.249,-52.246,-29.785,-24.414,-17.578,0.000
1673805217.253,-47.852,-37.109,-29.297,-21.484,0.000
1673805217.257,-37.109,-32.227,-23.926,-10.742,0.000
1673805217.261,-19.043,-22.949,-23.438,-9.277,0.000
1673805217.265,-8.301,-22.461,-26.855,-12.695,0.000
1673805217.269,-11.230,-22.461,-27.344,-6.348,0.000
1673805217.273,-37.598,-26.855,-25.879,-4.883,0.000
1673805217.277,-39.551,-28.320,-23.438,-3.906,0.000
1673805217.281,-27.832,-23.438,-22.461,-7.324,0.000
1673805217.285,-30.273,-28.320,-24.414,-9.277,0.000
1673805217.288,-28.320,-26.367,-22.461,-7.324,0.000
1673805217.292,-16.113,-22.461,-18.555,-4.395,0.000
1673805217.296,-9.277,-27.832,-23.438,-9.766,0.000
1673805217.300,-21.973,-27.344,-25.879,-17.578,0.000
1673805217.304,-30.762,-29.785,-27.344,-21.484,0.000
1673805217.308,-37.109,-32.227,-22.949,-17.090,0.000
1673805217.312,-51.758,-31.738,-18.066,-9.766,0.000
1673805217.316,-49.805,-27.344,-20.020,-20.020,0.000
1673805217.320,-24.414,-28.809,-21.973,-21.973,0.000
1673805217.324,-10.742,-30.762,-21.973,-8.789,0.000
1673805217.328,-26.855,-26.855,-19.531,-8.301,0.000
1673805217.331,-30.762,-25.879,-22.949,-10.742,0.000
1673805217.335,-19.531,-25.391,-23.926,-4.883,0.000
1673805217.339,-13.672,-25.879,-20.508,-10.742,0.000
1673805217.343,-2.930,-20.020,-24.902,-21.484,0.000
1673805217.347,-16.602,-18.066,-24.902,-28.809,0.000
1673805217.351,-33.691,-25.879,-25.391,-28.320,0.000
1673805217.355,-25.879,-20.996,-29.297,-20.020,0.000
1673805217.359,-10.254,-20.996,-30.762,-27.832,0.000
1673805217.363,1.465,-26.367,-30.273,-27.344,0.000
1673805217.367,11.719,-20.996,-25.879,-10.254,0.000
1673805217.370,8.301,-12.207,-23.438,-5.371,0.000
1673805217.374,-36.621,-17.578,-25.391,-5.859,0.000
1673805217.378,-57.617,-23.438,-24.902,-8.301,0.000
1673805217.382,-29.785,-19.531,-21.973,-11.230,0.000
1673805217.386,-8.789,-20.996,-22.461,-10.742,0.000
1673805217.390,-6.348,-17.090,-22.949,-5.859,0.000
1673805217.394,-27.832,-12.207,-21.973,-9.766,0.000
1673805217.398,-36.133,-14.648,-18.066,-8.789,0.000
1673805217.402,-25.879,-13.184,-14.648,-6.836,0.000
1673805217.406,-14.648,-14.160,-14.160,0.488,0.000
1673805217.410,-14.160,-8.301,-9.766,22.461,0.000
1673805217.413,-27.832,-8.789,0.488,22.461,0.000
1673805217.417,-27.344,-20.996,3.906,18.555,0.000
1673805217.421,-13.184,-18.555,-3.906,13.672,0.000
1673805217.425,4.883,-11.230,-5.859,0.000,0.000
1673805217.429,7.812,-11.719,-6.836,-11.230,0.000
1673805217.433,9.766,-8.789,-12.695,-8.789,0.000
1673805217.437,5.371,-9.277,-12.695,-3.418,0.000
1673805217.441,-14.160,-12.207,-9.766,0.488,0.000
1673805217.445,-16.602,-10.742,-7.324,-1.465,0.000
1673805217.449,-12.207,-7.324,-3.418,-8.789,0.000
1673805217.453,-8.789,-7.324,-6.348,-7.324,0.000
1673805217.456,10.254,-8.789,-6.836,0.488,0.000
1673805217.460,19.043,-4.883,-2.930,6.348,0.000
1673805217.464,10.254,-15.137,-9.277,-4.883,0.000
1673805217.468,-8.789,-22.461,-10.742,-15.625,0.000
1673805217.472,-19.043,-19.043,-5.371,-11.230,0.000
1673805217.476,-10.254,-21.484,-7.324,-6.836,0.000
1673805217.480,-9.766,-23.926,-9.277,-20.996,0.000
1673805217.484,-33.691,-20.020,-11.230,-19.531,0.000
1673805217.488,-43.945,-13.184,-17.090,-6.348,0.000
1673805217.492,-23.438,-11.719,-17.090,-8.789,0.000
1673805217.495,-17.578,-10.254,-16.113,-11.230,0.000
1673805217.499,-14.160,-10.254,-16.602,-16.113,0.000
1673805217.503,-10.742,-11.230,-17.090,-18.555,0.000
1673805217.507,-19.531,-14.160,-18.555,-13.184,0.000
1673805217.511,-23.926,-22.949,-23.926,-19.043,0.000
1673805217.515,-21.973,-18.066,-27.832,-17.090,0.000
1673805217.519,-27.344,-10.254,-24.902,-1.953,0.000
1673805217.523,-28.809,-17.578,-23.438,-8.789,0.000
1673805217.527,-20.996,-18.066,-22.949,-25.391,0.000
1673805217.531,-19.531,-19.043,-21.484,-33.691,0.000
1673805217.535,-20.020,-21.973,-23.438,-34.180,0.000
1673805217.538,-6.836,-20.508,-19.531,-21.973,0.000
1673805217.542,0.000,-26.367,-17.578,-18.555,0.000
1673805217.546,-17.090,-24.902,-23.926,-23.926,0.000
1673805217.550,-38.086,-21.973,-21.484,-12.695,0.000
1673805217.554,-39.551,-25.391,-18.555,-1.465,0.000
1673805217.558,-34.180,-22.949,-17.090,-4.395,0.000
1673805217.562,-18.066,-22.949,-13.672,-9.766,0.000
1673805217.566,-16.113,-32.715,-19.531,-18.555,0.000
1673805217.570,-17.578,-34.668,-22.949,-12.695,0.000
1673805217.574,-23.438,-26.367,-17.578,-1.953,0.000
1673805217.578,-42.969,-20.508,-13.184,0.977,0.000
1673805217.581,-37.109,-20.996,-11.719,-3.906,0.000
1673805217.585,-50.293,-27.832,-20.996,-16.113,0.000
1673805217.589,-51.758,-28.320,-20.020,-16.113,0.000
1673805217.593,-23.926,-20.508,-15.625,-10.742,0.000
1673805217.597,-18.555,-24.414,-23.438,-26.855,0.000
1673805217.601,-32.227,-33.691,-23.438,-38.574,0.000
1673805217.605,-39.551,-32.227,-22.949,-26.367,0.000
1673805217.609,-36.133,-25.879,-30.273,-22.461,0.000
1673805217.613,-45.410,-29.785,-35.156,-30.273,0.000
1673805217.617,-48.340,-30.762,-31.738,-33.203,0.000
1673805217.620,-36.133,-27.832,-30.273,-30.273,0.000
1673805217.624,-37.109,-30.273,-29.785,-28.320,0.000
1673805217.628,-46.875,-32.715,-30.762,-25.391,0.000
1673805217.632,-51.270,-35.156,-31.738,-23.438,0.000
1673805217.636,-44.922,-36.133,-30.273,-27.344,0.000
1673805217.640,-49.316,-27.344,-27.832,-22.949,0.000
1673805217.644,-60.547,-30.273,-28.809,-20.508,0.000
1673805217.648,-50.293,-43.945,-32.715,-34.668,0.000
1673805217.652,-37.109,-37.598,-33.691,-37.109,0.000
1673805217.656,-25.391,-30.273,-30.273,-28.809,0.000
1673805217.660,-10.742,-32.227,-25.391,-26.855,0.000
1673805217.663,-6.836,-34.180,-21.973,-29.785,0.000
1673805217.667,-21.973,-26.855,-16.602,-23.926,0.000
1673805217.671,-26.367,-22.461,-18.555,-7.324,0.000
1673805217.675,-20.996,-20.508,-20.020,-1.953,0.000
1673805217.679,-30.273,-24.414,-15.137,-13.672,0.000
1673805217.683,-39.062,-30.273,-15.137,-22.949,0.000
1673805217.687,-35.156,-34.180,-22.461,-29.785,0.000
1673805217.691,-25.879,-35.156,-29.297,-31.250,0.000
1673805217.695,-17.578,-30.762,-28.809,-33.203,0.000
1673805217.699,-16.602,-30.762,-22.949,-21.973,0.000
1673805217.703,-23.438,-25.879,-19.531,-7.812,0.000
1673805217.706,-25.879,-21.973,-17.090,-7.812,0.000
1673805217.710,-24.902,-25.391,-15.137,-10.254,0.000
1673805217.714,-50.293,-34.668,-21.484,-16.602,0.000
1673805217.718,-52.246,-45.410,-27.344,-13.672,0.000
1673805217.722,-27.344,-32.715,-21.484,-14.160,0.000
1673805217.726,-29.297,-23.438,-20.996,-24.414,0.000
1673805217.730,-39.551,-32.227,-23.926,-23.438,0.000
1673805217.734,-52.246,-34.180,-20.508,-24.902,0.000
1673805217.738,-63.477,-33.203,-19.043,-25.879,0.000
1673805217.742,-50.293,-34.668,-20.508,-13.184,0.000
1673805217.745,-36.621,-33.203,-16.113,-12.207,0.000
1673805217.749,-41.504,-28.809,-13.672,-21.484,0.000
1673805217.753,-40.039,-29.785,-19.043,-16.602,0.000
1673805217.757,-33.203,-31.738,-20.996,-8.789,0.000
1673805217.761,-23.926,-28.809,-21.484,-5.371,0.000
1673805217.765,-17.578,-25.879,-24.414,-7.324,0.000
1673805217.769,-18.066,-26.855,-20.996,-9.766,0.000
1673805217.773,-15.625,-29.785,-19.531,-11.230,0.000
1673805217.777,10.742,-22.461,-24.902,-14.648,0.000
1673805217.781,11.719,-16.113,-26.855,-21.484,0.000
1673805217.785,-16.113,-19.043,-24.902,-26.367,0.000
1673805217.788,-22.461,-26.855,-28.320,-21.484,0.000
1673805217.792,-29.297,-29.297,-30.273,-17.090,0.000
1673805217.796,-27.832,-31.250,-28.320,-23.438,0.000
1673805217.800,-23.438,-29.297,-25.879,-25.879,0.000
1673805217.804,-20.996,-30.273,-22.949,-8.301,0.000
1673805217.808,-15.625,-28.320,-20.996,-6.836,0.000
1673805217.812,-40.039,-16.602,-18.555,-28.320,0.000
1673805217.816,-57.129,-14.648,-16.113,-21.484,0.000
1673805217.820,-41.992,-19.043,-21.973,-16.113,0.000
1673805217.824,-21.973,-21.973,-28.809,-18.555,0.000
1673805217.828,-23.438,-19.531,-24.414,-25.391,0.000
1673805217.831,-26.855,-25.391,-24.902,-33.691,0.000
1673805217.835,-24.902,-30.273,-32.715,-27.832,0.000
1673805217.839,-19.531,-19.043,-30.762,-18.066,0.000
1673805217.843,-23.438,-23.926,-27.832,-20.508,0.000
1673805217.847,-40.527,-30.762,-33.691,-26.855,0.000
1673805217.851,-46.387,-32.715,-30.273,-20.996,0.000
1673805217.855,-45.898,-41.504,-27.832,-26.367,0.000
1673805217.859,-40.527,-41.016,-29.785,-20.508,0.000
1673805217.863,-37.598,-32.227,-27.344,-12.695,0.000
1673805217.867,-41.016,-26.367,-28.320,-25.391,0.000
1673805217.870,-29.297,-26.855,-29.297,-21.484,0.000
1673805217.874,-18.555,-27.344,-25.879,-14.160,0.000
1673805217.878,-14.160,-23.926,-26.367,-27.344,0.000
1673805217.882,-7.324,-21.973,-29.297,-30.762,0.000
1673805217.886,-10.254,-26.855,-27.344,-25.391,0.000
1673805217.890,-11.230,-26.855,-22.949,-20.020,0.000
1673805217.894,-9.277,-20.020,-18.066,-7.812,0.000
1673805217.898,-23.926,-23.926,-22.461,-12.695,0.000
1673805217.902,-30.762,-31.738,-27.344,-14.160,0.000
1673805217.906,-35.156,-33.203,-28.809,-10.254,0.000
1673805217.910,-41.992,-32.227,-32.715,-23.438,0.000
1673805217.913,-23.438,-33.203,-32.227,-25.879,0.000
1673805217.917,-37.109,-31.738,-33.691,-25.391,0.000
1673805217.921,-42.480,-20.996,-29.785,-14.160,0.000
1673805217.925,-36.133,-26.367,-23.438,-12.695,0.000
1673805217.929,-50.781,-39.551,-30.273,-27.832,0.000
1673805217.933,-44.434,-35.156,-33.203,-29.297,0.000
1673805217.937,-41.504,-31.738,-34.180,-28.320,0.000
1673805217.941,-36.621,-34.180,-34.668,-29.297,0.000
1673805217.945,-28.320,-33.691,-29.297,-28.320,0.000
1673805217.949,-24.414,-34.180,-28.809,-28.320,0.000
1673805217.953,-26.367,-42.969,-27.344,-24.902,0.000
1673805217.956,-20.996,-39.062,-24.414,-13.184,0.000
1673805217.960,-26.855,-29.297,-22.461,-12.695,0.000
1673805217.964,-34.668,-27.832,-23.926,-26.367,0.000
1673805217.968,-11.719,-30.273,-30.273,-28.320,0.000
1673805217.972,-7.324,-35.645,-29.297,-32.715,0.000
1673805217.976,-18.066,-32.715,-27.832,-35.156,0.000
1673805217.980,-43.457,-30.273,-26.367,-32.715,0.000
1673805217.984,-44.434,-30.273,-26.855,-22.461,0.000
1673805217.988,-36.133,-34.180,-31.738,-24.414,0.000
1673805217.992,-60.547,-46.875,-30.762,-37.109,0.000
1673805217.995,-59.570,-42.969,-26.855,-29.785,0.000
1673805217.999,-37.109,-39.062,-26.367,-29.785,0.000
1673805218.003,-32.227,-43.457,-23.926,-27.832,0.000
1673805218.007,-43.945,-39.551,-23.926,-22.949,0.000
1673805218.011,-38.086,-30.762,-27.344,-22.949,0.000
1673805218.015,-31.250,-25.879,-28.809,-29.785,0.000
1673805218.019,-30.762,-30.762,-24.902,-32.227,0.000
1673805218.023,-34.668,-34.668,-29.785,-28.320,0.000
1673805218.027,-27.832,-29.297,-34.668,-17.578,0.000
1673805218.031,-13.672,-28.809,-33.203,-16.602,0.000
1673805218.035,-19.531,-34.180,-42.480,-22.461,0.000
1673805218.038,-43.457,-36.621,-38.086,-22.461,0.000
1673805218.042,-69.336,-31.738,-33.691,-25.879,0.000
1673805218.046,-55.664,-29.785,-32.227,-26.855,0.000
1673805218.050,-50.293,-31.738,-26.855,-28.320,0.000
1673805218.054,-45.898,-30.762,-28.809,-25.879,0.000
1673805218.058,-29.785,-29.785,-28.320,-24.414,0.000
1673805218.062,-24.414,-30.273,-28.320,-29.785,0.000
1673805218.066,-31.738,-40.039,-34.668,-31.738,0.000
1673805218.070,-47.363,-39.062,-40.527,-23.926,0.000
1673805218.074,-40.039,-29.785,-33.203,-9.766,0.000
1673805218.078,-24.414,-35.645,-27.344,-8.301,0.000
1673805218.081,-13.184,-38.086,-35.645,-27.832,0.000
1673805218.085,-17.090,-30.762,-36.133,-33.691,0.000
1673805218.089,-24.902,-28.809,-35.156,-21.973,0.000
1673805218.093,-9.766,-25.391,-30.273,-15.137,0.000
1673805218.097,-33.691,-27.344,-24.902,-15.625,0.000
1673805218.101,-61.523,-25.391,-22.949,-8.789,0.000
1673805218.105,-27.344,-20.020,-17.090,-2.441,0.000
1673805218.109,-11.230,-31.738,-19.531,-7.324,0.000
1673805218.113,-25.879,-41.016,-23.926,-17.090,0.000
1673805218.117,-41.504,-29.297,-22.949,-25.391,0.000
1673805218.120,-45.410,-15.137,-18.066,-20.020,0.000
1673805218.124,-44.434,-24.902,-15.625,-12.695,0.000
1673805218.128,-36.621,-32.715,-19.043,-12.207,0.000
1673805218.132,-32.227,-39.062,-25.391,-21.484,0.000
1673805218.136,-22.461,-42.480,-34.668,-22.949,0.000
1673805218.140,-13.184,-26.855,-35.156,-18.066,0.000
1673805218.144,-15.137,-23.926,-31.738,-19.043,0.000
1673805218.148,-22.949,-29.785,-31.250,-23.926,0.000
1673805218.152,-33.203,-24.902,-32.227,-25.879,0.000
1673805218.156,-38.574,-24.414,-30.762,-20.508,0.000
1673805218.160,-21.973,-25.391,-29.785,-22.949,0.000
1673805218.163,-0.977,-25.391,-34.180,-24.414,0.000
1673805218.167,-9.766,-25.879,-36.133,-30.762,0.000
1673805218.171,-40.039,-32.715,-37.598,-29.785,0.000
1673805218.175,-41.504,-30.762,-38.574,-19.043,0.000
1673805218.179,-22.461,-21.484,-33.203,-17.090,0.000
1673805218.183,-34.180,-23.926,-36.133,-21.484,0.000
1673805218.187,-34.668,-26.855,-42.969,-16.113,0.000
1673805218.191,-12.207,-24.414,-36.133,-11.230,0.000
1673805218.195,-20.020,-31.250,-32.715,-14.648,0.000
1673805218.199,-27.832,-35.645,-36.133,-13.184,0.000
1673805218.203,-39.551,-29.297,-30.762,-12.207,0.000
1673805218.206,-52.734,-33.203,-31.738,-12.695,0.000
1673805218.210,-26.367,-30.762,-28.809,-5.371,0.000
1673805218.214,-17.090,-22.949,-27.344,-20.020,0.000
1673805218.218,-32.227,-26.855,-30.273,-29.297,0.000
1673805218.222,-24.414,-31.250,-26.855,-19.043,0.000
1673805218.226,-29.297,-27.832,-26.855,-21.484,0.000
1673805218.230,-49.316,-33.203,-29.297,-32.227,0.000
1673805218.234,-38.086,-38.574,-31.250,-29.785,0.000
1673805218.238,-18.555,-37.598,-30.762,-30.273,0.000
1673805218.242,-12.695,-29.785,-29.297,-19.043,0.000
1673805218.245,-32.227,-19.043,-29.297,-16.113,0.000
1673805218.249,-38.574,-20.996,-26.367,-20.508,0.000
1673805218.253,-38.574,-31.250,-20.508,-7.812,0.000
1673805218.257,-43.945,-38.574,-22.949,-10.742,0.000
1673805218.261,-34.180,-34.668,-33.691,-36.133,0.000
1673805218.265,-13.672,-29.785,-36.133,-41.992,0.000
1673805218.269,-8.789,-26.855,-33.203,-30.273,0.000
1673805218.273,-20.508,-29.297,-31.250,-29.297,0.000
1673805218.277,-32.715,-30.273,-29.785,-21.484,0.000
1673805218.281,-24.414,-26.855,-29.297,-24.902,0.000
1673805218.285,-31.250,-29.297,-25.879,-23.926,0.000
1673805218.288,-42.480,-30.273,-23.438,-6.348,0.000
1673805218.292,-39.551,-22.949,-26.367,-3.906,0.000
1673805218.296,-38.574,-19.531,-25.879,-5.859,0.000
1673805218.300,-33.691,-25.391,-25.879,-12.695,0.000
1673805218.304,-21.484,-33.203,-33.691,-24.902,0.000
1673805218.308,-5.371,-34.180,-37.598,-27.344,0.000
1673805218.312,-10.254,-26.367,-32.715,-22.461,0.000
1673805218.316,-20.508,-27.832,-29.297,-20.996,0.000
1673805218.320,-13.184,-34.180,-30.273,-14.160,0.000
1673805218.324,-21.973,-32.715,-27.832,-10.742,0.000
1673805218.328,-29.785,-32.715,-24.414,-6.836,0.000
1673805218.331,-20.996,-25.879,-22.949,-4.395,0.000
1673805218.335,-11.230,-25.391,-22.461,-8.789,0.000
1673805218.339,-1.953,-30.762,-27.344,-21.973,0.000
1673805218.343,-11.719,-22.949,-23.438,-27.344,0.000
1673805218.347,-12.207,-22.461,-19.531,-20.020,0.000
1673805218.351,6.836,-32.227,-27.344,-24.902,0.000
1673805218.355,-15.137,-31.250,-28.320,-16.602,0.000
1673805218.359,-45.898,-34.668,-25.879,-15.137,0.000
1673805218.363,-56.152,-33.203,-26.855,-24.414,0.000
