timestamp,TP9,AF7,AF8,TP10,Right AUX
1673805996.876,-14.648,-20.020,-22.949,-17.090,0.000
1673805996.880,-29.297,-24.902,-23.438,-10.742,0.000
1673805996.884,-40.527,-29.297,-30.273,-11.719,0.000
1673805996.888,-40.527,-29.297,-30.762,-28.320,0.000
1673805996.892,-30.273,-32.227,-33.691,-31.738,0.000
1673805996.895,-30.273,-28.809,-32.715,-18.555,0.000
1673805996.899,-35.156,-21.484,-33.203,-22.949,0.000
1673805996.903,-35.645,-24.902,-35.645,-36.133,0.000
1673805996.907,-25.391,-28.320,-29.297,-33.691,0.000
1673805996.911,-19.043,-30.762,-26.855,-20.996,0.000
1673805996.915,-20.508,-31.738,-32.715,-13.672,0.000
1673805996.919,-21.973,-29.297,-33.203,-27.344,0.000
1673805996.923,-19.043,-22.461,-28.809,-32.227,0.000
1673805996.927,-8.789,-25.879,-31.738,-29.297,0.000
1673805996.931,-23.438,-33.691,-37.598,-28.320,0.000
1673805996.935,-36.621,-30.762,-36.133,-28.320,0.000
1673805996.938,-29.297,-29.297,-35.645,-28.809,0.000
1673805996.942,-22.949,-35.645,-42.480,-36.621,0.000
1673805996.946,-12.207,-38.574,-42.969,-42.969,0.000
1673805996.950,-18.555,-39.062,-40.527,-50.781,0.000
1673805996.954,-23.926,-34.180,-38.086,-47.852,0.000
1673805996.958,-20.996,-35.156,-34.668,-36.133,0.000
1673805996.962,-26.855,-36.621,-37.109,-35.645,0.000
1673805996.966,-30.762,-33.203,-34.180,-25.879,0.000
1673805996.970,-43.457,-38.086,-27.832,-31.738,0.000
1673805996.974,-42.480,-39.062,-29.785,-36.133,0.000
1673805996.978,-27.344,-38.086,-32.715,-31.250,0.000
1673805996.981,-22.461,-37.109,-30.762,-34.668,0.000
1673805996.985,-20.508,-33.691,-29.785,-37.598,0.000
1673805996.989,-27.832,-27.832,-31.250,-43.945,0.000
1673805996.993,-39.062,-24.902,-36.133,-49.805,0.000
1673805996.997,-51.758,-32.715,-40.039,-43.945,0.000
1673805997.001,-49.805,-31.738,-37.109,-30.762,0.000
1673805997.005,-37.109,-33.691,-36.133,-40.527,0.000
1673805997.009,-42.480,-41.504,-37.109,-41.992,0.000
1673805997.013,-38.574,-38.574,-34.668,-22.949,0.000
1673805997.017,-32.715,-38.086,-33.691,-27.344,0.000
1673805997.020,-36.133,-37.598,-32.227,-35.156,0.000
1673805997.024,-39.062,-37.109,-37.109,-35.645,0.000
1673805997.028,-45.898,-35.156,-39.062,-27.832,0.000
1673805997.032,-35.645,-30.762,-36.133,-24.902,0.000
1673805997.036,-20.508,-30.273,-38.574,-35.156,0.000
1673805997.040,-20.508,-32.227,-38.574,-45.898,0.000
1673805997.044,-19.531,-29.297,-36.621,-40.039,0.000
1673805997.048,-20.996,-29.785,-35.156,-22.461,0.000
1673805997.052,-30.273,-28.320,-38.574,-28.809,0.000
1673805997.056,-35.156,-27.344,-31.738,-40.527,0.000
1673805997.060,-22.949,-25.391,-28.320,-33.691,0.000
1673805997.063,-13.184,-23.926,-33.203,-26.855,0.000
1673805997.067,-9.766,-34.180,-29.785,-28.320,0.000
1673805997.071,-10.254,-37.598,-25.879,-27.832,0.000
1673805997.075,-20.508,-34.180,-19.531,-19.043,0.000
1673805997.079,-24.902,-36.621,-23.438,-22.461,0.000
1673805997.083,-20.020,-30.762,-27.832,-30.762,0.000
1673805997.087,-17.090,-26.367,-30.762,-37.598,0.000
1673805997.091,-8.301,-31.738,-35.645,-34.180,0.000
1673805997.095,-8.301,-29.785,-35.645,-25.391,0.000
1673805997.099,-29.297,-31.738,-37.109,-24.902,0.000
1673805997.103,-30.762,-36.133,-39.551,-35.156,0.000
1673805997.106,-27.344,-37.598,-38.574,-42.969,0.000
1673805997.110,-33.691,-37.109,-32.227,-31.250,0.000
1673805997.114,-49.316,-34.180,-28.320,-15.137,0.000
1673805997.118,-42.969,-25.391,-26.367,-15.625,0.000
1673805997.122,-25.391,-21.973,-23.926,-20.996,0.000
1673805997.126,-23.926,-27.832,-27.344,-19.531,0.000
1673805997.130,-25.879,-26.855,-26.367,-15.625,0.000
1673805997.134,-25.391,-25.391,-23.926,-19.043,0.000
1673805997.138,-18.066,-32.715,-24.414,-25.391,0.000
1673805997.142,-17.090,-34.668,-27.832,-36.133,0.000
1673805997.145,-20.020,-33.691,-36.621,-35.156,0.000
1673805997.149,-26.855,-36.621,-40.527,-38.086,0.000
1673805997.153,-30.273,-34.180,-40.039,-46.387,0.000
1673805997.157,-32.715,-35.156,-39.551,-39.062,0.000
1673805997.161,-26.367,-37.109,-34.668,-30.762,0.000
1673805997.165,-20.996,-32.715,-37.109,-26.367,0.000
1673805997.169,-18.066,-31.250,-42.480,-30.762,0.000
1673805997.173,-24.414,-37.598,-44.922,-40.527,0.000
1673805997.177,-20.020,-38.086,-47.363,-40.039,0.000
1673805997.181,-22.461,-30.273,-38.086,-23.438,0.000
1673805997.185,-36.133,-35.645,-35.645,-31.250,0.000
1673805997.188,-23.926,-33.691,-38.086,-42.480,0.000
1673805997.192,-12.207,-32.227,-29.785,-32.715,0.000
1673805997.196,-17.090,-36.621,-31.250,-25.879,0.000
1673805997.200,-13.672,-24.902,-38.086,-21.973,0.000
1673805997.204,-21.973,-20.020,-38.574,-20.020,0.000
1673805997.208,-30.273,-27.344,-38.574,-23.438,0.000
1673805997.212,-24.414,-26.855,-39.551,-22.461,0.000
1673805997.216,-29.297,-25.391,-36.133,-29.785,0.000
1673805997.220,-23.926,-29.785,-38.086,-31.738,0.000
1673805997.224,-8.301,-28.320,-39.062,-21.973,0.000
1673805997.227,-12.207,-27.832,-37.598,-18.555,0.000
1673805997.231,-25.879,-31.250,-43.945,-29.297,0.000
1673805997.235,-19.531,-32.227,-43.457,-44.434,0.000
1673805997.239,-17.090,-29.785,-39.551,-48.340,0.000
1673805997.243,-34.668,-32.227,-39.062,-43.457,0.000
1673805997.247,-44.434,-34.180,-36.621,-36.133,0.000
1673805997.251,-47.363,-29.297,-34.180,-37.598,0.000
1673805997.255,-32.715,-29.785,-32.715,-39.551,0.000
1673805997.259,-17.090,-22.949,-30.762,-35.645,0.000
1673805997.263,-27.344,-20.996,-30.273,-32.715,0.000
1673805997.267,-34.180,-21.973,-35.156,-35.156,0.000
1673805997.270,-20.508,-12.695,-35.645,-27.344,0.000
1673805997.274,-14.160,-16.113,-27.832,-20.508,0.000
1673805997.278,-18.066,-21.973,-33.203,-25.391,0.000
1673805997.282,-23.926,-25.391,-39.062,-27.344,0.000
1673805997.286,-29.297,-27.344,-30.762,-25.391,0.000
1673805997.290,-31.738,-23.926,-28.320,-30.762,0.000
1673805997.294,-29.297,-25.879,-29.785,-24.902,0.000
1673805997.298,-24.414,-30.762,-26.367,-10.742,0.000
1673805997.302,-24.902,-28.809,-22.461,-10.254,0.000
1673805997.306,-23.926,-22.461,-25.879,-17.090,0.000
1673805997.310,-23.438,-28.809,-30.273,-16.113,0.000
1673805997.313,-24.414,-33.691,-30.273,-10.742,0.000
1673805997.317,-32.227,-30.762,-33.203,-14.160,0.000
1673805997.321,-29.297,-25.879,-30.762,-20.996,0.000
1673805997.325,-27.832,-28.320,-32.715,-31.738,0.000
1673805997.329,-21.973,-29.297,-34.668,-24.414,0.000
1673805997.333,-19.043,-31.738,-31.250,-15.625,0.000
1673805997.337,-22.949,-32.227,-31.250,-28.320,0.000
1673805997.341,-19.531,-32.227,-29.297,-26.367,0.000
1673805997.345,-15.625,-32.715,-26.367,-15.137,0.000
1673805997.349,-15.137,-27.832,-23.438,-11.719,0.000
1673805997.353,-12.207,-26.855,-25.391,-19.043,0.000
1673805997.356,-7.812,-24.414,-25.391,-25.391,0.000
1673805997.360,-7.812,-24.414,-23.926,-20.996,0.000
1673805997.364,-7.812,-19.043,-25.879,-14.160,0.000
1673805997.368,-14.648,-18.066,-25.391,-12.207,0.000
1673805997.372,-20.996,-18.555,-14.160,-19.043,0.000
1673805997.376,-19.531,-12.207,-8.301,-10.254,0.000
1673805997.380,-15.625,-15.625,-12.207,0.000,0.000
1673805997.384,-17.090,-17.578,-9.766,-4.883,0.000
1673805997.388,-10.742,-12.207,-4.395,-9.766,0.000
1673805997.392,-8.789,-10.254,-6.836,-8.789,0.000
1673805997.395,-13.672,-15.137,-15.625,-3.418,0.000
1673805997.399,-8.301,-17.578,-17.090,-5.859,0.000
1673805997.403,6.348,-9.766,-16.602,-6.348,0.000
1673805997.407,9.766,-2.930,-11.719,-8.789,0.000
1673805997.411,8.789,0.488,-9.277,-13.184,0.000
1673805997.415,5.371,1.953,-13.672,-8.301,0.000
1673805997.419,1.953,-1.953,-12.207,-3.418,0.000
1673805997.423,2.441,-4.395,-12.695,-3.906,0.000
1673805997.427,8.789,-6.348,-12.207,1.953,0.000
1673805997.431,13.672,-5.371,-14.648,0.977,0.000
1673805997.435,5.859,0.488,-11.719,0.977,0.000
1673805997.438,1.953,-3.906,-12.695,-0.488,0.000
1673805997.442,6.348,-10.742,-20.508,-10.254,0.000
1673805997.446,6.836,-5.859,-19.043,0.977,0.000
1673805997.450,1.465,1.953,-17.090,11.230,0.000
1673805997.454,5.371,-5.371,-15.625,-0.977,0.000
1673805997.458,0.977,-18.066,-16.113,-7.812,0.000
1673805997.462,-7.812,-15.137,-16.113,-7.812,0.000
1673805997.466,-2.930,-9.766,-16.602,-6.836,0.000
1673805997.470,-2.441,-5.859,-18.066,-15.137,0.000
1673805997.474,-9.277,-8.789,-20.020,-25.391,0.000
1673805997.477,-9.766,-17.090,-23.438,-20.508,0.000
1673805997.481,-8.301,-12.695,-21.973,-14.160,0.000
1673805997.485,-25.879,-12.207,-26.367,-20.020,0.000
1673805997.489,-32.715,-21.484,-31.738,-29.297,0.000
1673805997.493,-19.043,-22.949,-29.297,-29.785,0.000
1673805997.497,-17.578,-26.855,-32.227,-40.527,0.000
1673805997.501,-10.254,-28.809,-28.809,-45.898,0.000
1673805997.505,-16.113,-25.879,-23.438,-40.039,0.000
1673805997.509,-21.484,-25.391,-30.273,-37.598,0.000
1673805997.513,-20.020,-28.809,-33.691,-28.320,0.000
1673805997.517,-22.949,-35.645,-32.715,-24.902,0.000
1673805997.520,-18.555,-33.203,-31.250,-32.715,0.000
1673805997.524,-24.902,-27.832,-29.297,-27.832,0.000
1673805997.528,-24.414,-20.020,-25.879,-9.277,0.000
1673805997.532,-22.949,-25.391,-30.273,-17.578,0.000
1673805997.536,-18.555,-29.297,-30.273,-31.738,0.000
1673805997.540,-20.020,-23.926,-28.809,-27.832,0.000
1673805997.544,-24.414,-34.668,-30.273,-24.414,0.000
1673805997.548,-25.391,-43.945,-27.344,-24.414,0.000
1673805997.552,-27.344,-36.621,-26.855,-27.344,0.000
1673805997.556,-30.273,-33.203,-33.691,-28.809,0.000
1673805997.560,-32.227,-31.738,-37.109,-37.598,0.000
1673805997.563,-31.250,-29.785,-29.785,-29.785,0.000
1673805997.567,-27.832,-29.297,-25.391,-32.715,0.000
1673805997.571,-17.090,-26.855,-26.367,-35.645,0.000
1673805997.575,-15.137,-28.320,-33.203,-31.738,0.000
1673805997.579,-25.879,-31.250,-37.598,-38.574,0.000
1673805997.583,-26.367,-33.691,-36.133,-30.762,0.000
1673805997.587,-26.855,-32.715,-33.691,-30.273,0.000
1673805997.591,-25.879,-28.809,-33.691,-37.598,0.000
1673805997.595,-20.996,-33.203,-41.016,-35.645,0.000
1673805997.599,-25.879,-29.785,-44.434,-33.691,0.000
1673805997.602,-20.020,-25.879,-44.922,-47.363,0.000
1673805997.606,-16.602,-26.367,-47.363,-59.082,0.000
1673805997.610,-29.297,-27.832,-43.945,-55.664,0.000
1673805997.614,-41.504,-30.273,-40.039,-40.039,0.000
1673805997.618,-41.016,-28.320,-38.086,-23.926,0.000
1673805997.622,-36.133,-31.250,-45.410,-32.715,0.000
1673805997.626,-36.133,-29.785,-49.316,-32.227,0.000
1673805997.630,-36.133,-23.926,-38.086,-18.066,0.000
1673805997.634,-18.555,-27.832,-38.574,-22.461,0.000
1673805997.638,-15.137,-34.668,-43.945,-27.832,0.000
1673805997.642,-19.043,-30.762,-41.504,-29.785,0.000
1673805997.645,-16.113,-31.250,-38.086,-25.879,0.000
1673805997.649,-12.695,-30.273,-34.180,-19.531,0.000
1673805997.653,-18.555,-26.367,-36.621,-22.949,0.000
1673805997.657,-23.438,-35.156,-35.645,-25.879,0.000
1673805997.661,-17.090,-34.180,-27.344,-18.066,0.000
1673805997.665,-12.695,-31.250,-28.809,-11.719,0.000
1673805997.669,-16.602,-32.227,-31.250,-21.973,0.000
1673805997.673,-15.625,-27.832,-27.344,-19.043,0.000
1673805997.677,-18.555,-31.738,-31.250,-11.719,0.000
1673805997.681,-27.344,-35.156,-30.273,-18.066,0.000
1673805997.685,-29.297,-34.180,-27.832,-26.367,0.000
1673805997.688,-17.578,-31.738,-29.785,-28.809,0.000
1673805997.692,-8.301,-30.762,-26.367,-23.926,0.000
1673805997.696,-17.578,-34.668,-27.344,-28.320,0.000
1673805997.700,-36.133,-36.133,-28.320,-31.250,0.000
1673805997.704,-34.180,-28.809,-20.508,-29.785,0.000
1673805997.708,-16.113,-24.414,-16.113,-26.855,0.000
1673805997.712,-19.531,-24.414,-20.020,-22.461,0.000
1673805997.716,-19.531,-26.367,-22.461,-28.320,0.000
1673805997.720,-24.902,-25.879,-19.043,-35.156,0.000
1673805997.724,-27.832,-16.602,-16.113,-27.344,0.000
1673805997.727,-16.113,-21.973,-21.484,-25.879,0.000
1673805997.731,-19.531,-29.297,-25.879,-35.156,0.000
1673805997.735,-26.367,-24.414,-26.367,-35.156,0.000
1673805997.739,-26.367,-24.902,-25.879,-31.250,0.000
1673805997.743,-30.762,-20.508,-26.367,-25.391,0.000
1673805997.747,-23.438,-23.438,-27.344,-24.902,0.000
1673805997.751,-21.973,-32.227,-25.879,-21.484,0.000
1673805997.755,-31.250,-25.879,-31.250,-19.043,0.000
1673805997.759,-33.691,-20.996,-32.227,-31.738,0.000
1673805997.763,-43.457,-23.926,-28.320,-29.297,0.000
1673805997.767,-48.828,-24.414,-32.227,-26.855,0.000
1673805997.770,-30.762,-22.949,-32.227,-41.016,0.000
1673805997.774,-24.414,-28.809,-34.180,-51.270,0.000
1673805997.778,-22.949,-27.344,-34.668,-41.016,0.000
1673805997.782,-18.555,-24.902,-36.133,-31.250,0.000
1673805997.786,-35.645,-23.926,-33.203,-31.738,0.000
1673805997.790,-41.016,-20.996,-29.297,-33.203,0.000
1673805997.794,-32.715,-22.949,-30.762,-23.926,0.000
1673805997.798,-30.273,-29.785,-28.809,-15.625,0.000
1673805997.802,-33.691,-35.156,-35.645,-26.855,0.000
1673805997.806,-29.785,-35.156,-36.621,-41.992,0.000
1673805997.810,-15.137,-29.785,-26.855,-41.504,0.000
1673805997.813,-13.672,-25.879,-28.320,-36.621,0.000
1673805997.817,-21.484,-26.367,-33.203,-39.551,0.000
1673805997.821,-14.648,-28.809,-29.785,-42.480,0.000
1673805997.825,-9.277,-24.902,-29.785,-38.574,0.000
1673805997.829,-18.066,-25.391,-35.645,-28.320,0.000
1673805997.833,-18.555,-26.855,-31.250,-26.855,0.000
1673805997.837,-11.719,-21.973,-28.809,-33.691,0.000
1673805997.841,-8.301,-21.484,-27.344,-33.203,0.000
1673805997.845,-7.324,-27.832,-24.414,-25.879,0.000
1673805997.849,-12.695,-26.855,-27.832,-24.414,0.000
1673805997.852,-19.043,-21.484,-26.855,-31.250,0.000
1673805997.856,-32.227,-29.785,-26.367,-38.574,0.000
1673805997.860,-30.273,-37.598,-31.250,-36.621,0.000
1673805997.864,-27.832,-35.156,-34.180,-30.273,0.000
1673805997.868,-38.086,-25.879,-37.598,-30.762,0.000
1673805997.872,-40.527,-23.438,-38.086,-34.668,0.000
1673805997.876,-31.250,-24.414,-35.645,-31.738,0.000
1673805997.880,-26.367,-16.602,-31.250,-26.367,0.000
1673805997.884,-27.344,-20.020,-27.344,-26.367,0.000
1673805997.888,-30.762,-27.344,-31.250,-27.344,0.000
1673805997.892,-32.715,-36.621,-35.645,-31.250,0.000
1673805997.895,-31.250,-41.992,-34.180,-24.414,0.000
1673805997.899,-33.203,-34.668,-35.156,-16.602,0.000
1673805997.903,-31.738,-26.855,-40.527,-34.180,0.000
1673805997.907,-30.273,-26.855,-43.457,-48.828,0.000
1673805997.911,-33.691,-26.367,-41.504,-42.480,0.000
1673805997.915,-41.016,-22.949,-39.551,-29.785,0.000
1673805997.919,-37.598,-26.367,-44.922,-34.180,0.000
1673805997.923,-22.461,-24.902,-42.969,-37.598,0.000
1673805997.927,-9.277,-21.484,-34.668,-34.668,0.000
1673805997.931,-1.953,-28.320,-33.691,-28.320,0.000
1673805997.935,-11.719,-31.738,-40.527,-25.391,0.000
1673805997.938,-25.879,-38.574,-42.969,-29.297,0.000
1673805997.942,-25.391,-36.133,-38.574,-24.414,0.000
1673805997.946,-13.672,-27.832,-30.762,-6.836,0.000
1673805997.950,-7.324,-32.715,-27.832,-5.371,0.000
1673805997.954,-17.578,-36.133,-27.344,-19.043,0.000
1673805997.958,-14.648,-30.762,-22.949,-12.695,0.000
1673805997.962,-21.484,-33.203,-24.902,-11.230,0.000
1673805997.966,-40.039,-39.551,-30.273,-18.066,0.000
1673805997.970,-26.367,-27.832,-28.809,-19.043,0.000
1673805997.974,-18.555,-23.926,-26.855,-23.438,0.000
1673805997.977,-35.156,-35.156,-28.320,-20.508,0.000
1673805997.981,-32.227,-41.016,-28.320,-20.020,0.000
1673805997.985,-23.926,-41.016,-29.297,-30.762,0.000
1673805997.989,-24.902,-42.969,-30.273,-37.598,0.000
1673805997.993,-16.113,-37.598,-27.832,-25.879,0.000
1673805997.997,-14.648,-30.762,-28.320,-22.461,0.000
1673805998.001,-17.578,-31.250,-28.320,-32.715,0.000
1673805998.005,-0.488,-24.902,-27.832,-30.762,0.000
1673805998.009,5.371,-16.602,-28.320,-35.645,0.000
1673805998.013,-5.859,-20.508,-32.227,-31.250,0.000
1673805998.017,-3.418,-19.043,-29.785,-21.484,0.000
1673805998.020,-5.859,-16.602,-24.902,-23.926,0.000
1673805998.024,-9.277,-25.879,-28.320,-22.949,0.000
1673805998.028,-14.648,-22.949,-32.715,-22.949,0.000
1673805998.032,-11.230,-15.625,-29.297,-13.184,0.000
1673805998.036,2.930,-18.066,-25.391,-11.719,0.000
1673805998.040,1.465,-19.043,-27.344,-20.508,0.000
1673805998.044,-4.883,-20.020,-33.691,-26.367,0.000
1673805998.048,-6.836,-16.113,-33.203,-21.484,0.000
1673805998.052,-16.113,-15.137,-29.785,-21.484,0.000
1673805998.056,-19.531,-16.113,-29.297,-30.273,0.000
1673805998.060,-10.742,-20.508,-29.297,-30.762,0.000
1673805998.063,-1.953,-22.949,-32.227,-25.391,0.000
1673805998.067,-14.648,-17.090,-33.691,-19.043,0.000
1673805998.071,-19.043,-15.625,-29.785,-14.648,0.000
1673805998.075,-17.578,-16.113,-25.879,-11.230,0.000
1673805998.079,-19.043,-14.648,-22.461,-6.836,0.000
1673805998.083,-17.578,-16.602,-21.973,-8.789,0.000
1673805998.087,-19.043,-27.344,-28.320,-18.066,0.000
1673805998.091,-20.508,-38.086,-31.738,-31.250,0.000
1673805998.095,-26.855,-40.039,-31.250,-23.438,0.000
1673805998.099,-31.250,-25.879,-28.320,-8.789,0.000
1673805998.102,-33.691,-24.902,-27.344,-17.090,0.000
1673805998.106,-34.668,-23.926,-31.738,-24.902,0.000
1673805998.110,-26.855,-19.531,-33.203,-24.414,0.000
1673805998.114,-24.414,-25.879,-28.809,-20.996,0.000
1673805998.118,-24.902,-29.297,-28.320,-24.414,0.000
1673805998.122,-19.043,-25.391,-30.273,-36.133,0.000
1673805998.126,-12.207,-20.996,-24.902,-24.902,0.000
1673805998.130,-16.602,-25.879,-23.438,-17.090,0.000
1673805998.134,-28.809,-30.273,-28.320,-26.855,0.000
1673805998.138,-20.508,-24.414,-31.738,-33.691,0.000
1673805998.142,-10.742,-24.902,-33.203,-37.598,0.000
1673805998.145,-15.137,-27.344,-32.227,-28.320,0.000
1673805998.149,-22.461,-21.484,-29.297,-33.691,0.000
1673805998.153,-16.602,-20.508,-29.297,-42.969,0.000
1673805998.157,-9.766,-22.949,-35.156,-36.133,0.000
1673805998.161,-2.441,-19.531,-33.691,-24.414,0.000
1673805998.165,3.906,-28.320,-31.250,-15.625,0.000
1673805998.169,1.465,-28.320,-30.762,-18.555,0.000
1673805998.173,-4.883,-20.996,-26.855,-16.602,0.000
1673805998.177,-11.230,-22.949,-27.344,-21.484,0.000
1673805998.181,-13.184,-26.367,-33.203,-28.320,0.000
1673805998.184,-19.043,-26.855,-29.297,-24.414,0.000
1673805998.188,-24.902,-23.438,-23.926,-21.484,0.000
1673805998.192,-27.344,-18.066,-22.461,-18.555,0.000
1673805998.196,-23.438,-19.531,-20.996,-14.160,0.000
1673805998.200,-33.203,-21.484,-19.531,-16.113,0.000
1673805998.204,-41.504,-20.996,-21.484,-26.855,0.000
1673805998.208,-33.203,-23.926,-25.391,-35.156,0.000
1673805998.212,-40.527,-21.484,-22.461,-29.785,0.000
1673805998.216,-29.785,-11.719,-21.973,-14.648,0.000
1673805998.220,-25.391,-10.742,-28.809,-13.184,0.000
1673805998.224,-40.527,-20.508,-39.551,-36.621,0.000
1673805998.227,-42.480,-31.738,-38.086,-32.227,0.000
1673805998.231,-36.621,-38.574,-28.320,-17.578,0.000
1673805998.235,-33.203,-30.273,-32.715,-31.738,0.000
1673805998.239,-31.250,-24.902,-33.691,-41.992,0.000
1673805998.243,-23.438,-26.367,-25.879,-32.227,0.000
1673805998.247,-26.855,-21.484,-27.344,-22.461,0.000
1673805998.251,-34.180,-22.461,-25.391,-25.879,0.000
1673805998.255,-24.902,-24.902,-21.973,-29.297,0.000
1673805998.259,-22.949,-21.484,-24.414,-34.668,0.000
1673805998.263,-18.555,-18.066,-20.996,-21.973,0.000
1673805998.267,-16.113,-18.555,-21.484,-17.578,0.000
1673805998.270,-21.484,-18.555,-23.438,-31.738,0.000
1673805998.274,-20.020,-17.578,-19.531,-25.391,0.000
1673805998.278,-19.531,-15.137,-19.043,-11.230,0.000
1673805998.282,-16.113,-10.254,-22.949,-12.695,0.000
1673805998.286,-1.465,-9.766,-22.949,-13.672,0.000
1673805998.290,-12.207,-8.789,-17.090,-14.648,0.000
1673805998.294,-29.297,-10.742,-16.113,-6.836,0.000
1673805998.298,-26.367,-11.719,-21.973,-9.766,0.000
1673805998.302,-28.809,-9.766,-23.926,-22.949,0.000
1673805998.306,-20.020,-11.719,-16.113,-13.672,0.000
1673805998.309,-15.625,-19.531,-15.625,-6.348,0.000
1673805998.313,-25.879,-18.066,-23.438,-6.836,0.000
1673805998.317,-23.438,-11.719,-21.973,-4.883,0.000
1673805998.321,-21.973,-6.348,-21.973,-2.930,0.000
1673805998.325,-20.508,-4.883,-24.902,2.441,0.000
1673805998.329,-10.742,-6.348,-22.461,4.883,0.000
1673805998.333,-3.906,-5.859,-21.484,-1.465,0.000
1673805998.337,-11.230,-6.348,-22.461,-10.742,0.000
1673805998.341,-15.137,-11.230,-22.461,-12.207,0.000
1673805998.345,-16.113,-14.648,-25.391,-6.348,0.000
1673805998.349,-25.879,-12.207,-25.391,-2.930,0.000
1673805998.352,-19.531,-7.812,-19.531,-9.766,0.000
1673805998.356,-13.672,-8.301,-22.949,-20.508,0.000
1673805998.360,-13.184,-12.695,-24.902,-22.949,0.000
1673805998.364,-9.766,-9.766,-20.508,-8.301,0.000
1673805998.368,-1.465,-9.277,-17.090,-12.207,0.000
1673805998.372,-8.301,-8.301,-16.113,-20.508,0.000
1673805998.376,-19.531,-5.859,-16.602,-18.066,0.000
1673805998.380,-5.371,-16.113,-19.043,-21.973,0.000
1673805998.384,-6.836,-26.855,-18.555,-25.391,0.000
1673805998.388,-21.484,-19.531,-20.996,-29.297,0.000
1673805998.392,-23.926,-11.719,-25.391,-26.367,0.000
1673805998.395,-15.137,-11.230,-20.508,-13.672,0.000
1673805998.399,-16.602,-15.625,-25.879,-13.672,0.000
1673805998.403,-33.203,-19.531,-34.180,-24.902,0.000
1673805998.407,-26.855,-23.926,-33.203,-25.879,0.000
1673805998.411,-5.859,-24.902,-26.367,-16.602,0.000
1673805998.415,-17.578,-16.602,-24.902,-11.719,0.000
1673805998.419,-26.367,-20.020,-29.785,-23.926,0.000
1673805998.423,-13.672,-20.508,-26.855,-25.391,0.000
1673805998.427,-3.906,-15.137,-26.367,-18.066,0.000
1673805998.431,-4.395,-13.184,-24.414,-18.066,0.000
1673805998.434,-1.953,-14.648,-20.508,-20.020,0.000
1673805998.438,7.324,-15.625,-23.926,-20.020,0.000
1673805998.442,10.742,-16.602,-23.438,-12.695,0.000
1673805998.446,1.465,-20.508,-23.926,-6.348,0.000
1673805998.450,-8.301,-24.902,-25.391,-6.836,0.000
1673805998.454,-13.184,-26.855,-26.367,-23.926,0.000
1673805998.458,-31.250,-29.785,-24.902,-29.297,0.000
1673805998.462,-32.715,-29.297,-22.461,-17.578,0.000
1673805998.466,-28.320,-25.391,-24.414,-23.438,0.000
1673805998.470,-31.738,-24.902,-28.809,-29.785,0.000
1673805998.474,-26.855,-23.438,-26.367,-21.973,0.000
1673805998.477,-28.809,-25.879,-26.855,-34.668,0.000
1673805998.481,-18.555,-20.996,-26.367,-41.992,0.000
1673805998.485,-14.160,-16.113,-22.461,-33.203,0.000
1673805998.489,-23.438,-19.531,-20.508,-31.250,0.000
1673805998.493,-22.949,-22.949,-24.414,-23.438,0.000
1673805998.497,-20.020,-27.832,-26.855,-31.250,0.000
1673805998.501,-17.090,-30.273,-25.879,-33.691,0.000
1673805998.505,-17.090,-28.809,-30.762,-38.086,0.000
1673805998.509,-17.578,-28.320,-31.738,-47.852,0.000
1673805998.513,-22.461,-27.832,-27.344,-40.527,0.000
1673805998.517,-25.391,-23.438,-27.344,-25.391,0.000
1673805998.520,-22.461,-14.648,-31.250,-21.973,0.000
1673805998.524,-21.973,-19.531,-35.645,-22.461,0.000
1673805998.528,-6.836,-24.902,-31.250,-22.461,0.000
1673805998.532,-1.953,-18.555,-27.344,-24.902,0.000
1673805998.536,-18.555,-20.996,-30.273,-24.902,0.000
1673805998.540,-31.250,-33.203,-36.621,-29.785,0.000
1673805998.544,-32.715,-31.738,-36.621,-21.484,0.000
1673805998.548,-31.738,-28.320,-35.645,-10.742,0.000
1673805998.552,-33.691,-29.785,-37.598,-19.043,0.000
1673805998.556,-25.391,-29.297,-34.180,-30.273,0.000
1673805998.559,-27.344,-21.484,-30.762,-31.738,0.000
1673805998.563,-37.109,-17.578,-33.691,-17.090,0.000
1673805998.567,-37.598,-22.949,-35.645,-19.043,0.000
1673805998.571,-37.109,-25.391,-36.621,-30.762,0.000
1673805998.575,-37.109,-25.391,-35.645,-26.367,0.000
1673805998.579,-31.250,-23.438,-31.250,-17.578,0.000
1673805998.583,-33.203,-20.020,-32.715,-21.973,0.000
1673805998.587,-27.832,-20.508,-31.250,-23.926,0.000
1673805998.591,-19.531,-23.926,-30.273,-18.555,0.000
1673805998.595,-24.414,-32.227,-32.715,-20.020,0.000
1673805998.599,-24.902,-30.273,-33.203,-19.531,0.000
1673805998.602,-24.902,-18.555,-28.809,-26.855,0.000
1673805998.606,-25.391,-20.508,-27.344,-28.809,0.000
1673805998.610,-24.902,-18.066,-33.203,-26.367,0.000
1673805998.614,-41.992,-22.461,-38.574,-35.156,0.000
1673805998.618,-41.504,-31.738,-32.227,-30.762,0.000
1673805998.622,-33.691,-32.715,-27.344,-27.344,0.000
1673805998.626,-34.668,-28.320,-30.273,-28.809,0.000
1673805998.630,-27.344,-30.762,-32.227,-29.785,0.000
1673805998.634,-20.508,-33.203,-28.320,-33.203,0.000
1673805998.638,-20.996,-21.973,-29.297,-29.297,0.000
1673805998.642,-28.320,-18.555,-40.039,-34.180,0.000
1673805998.645,-34.668,-25.879,-36.133,-27.344,0.000
1673805998.649,-38.086,-20.508,-29.297,-20.996,0.000
1673805998.653,-34.180,-15.137,-30.273,-27.344,0.000
1673805998.657,-38.574,-25.391,-30.273,-34.180,0.000
1673805998.661,-39.551,-26.367,-32.715,-25.879,0.000
1673805998.665,-34.180,-24.414,-35.645,-20.996,0.000
1673805998.669,-34.668,-21.484,-35.156,-34.668,0.000
1673805998.673,-25.391,-24.414,-29.785,-33.203,0.000
1673805998.677,-21.484,-27.344,-24.902,-25.879,0.000
1673805998.681,-36.133,-24.902,-22.949,-25.391,0.000
1673805998.684,-41.016,-35.156,-31.738,-34.180,0.000
1673805998.688,-50.293,-37.109,-35.156,-39.551,0.000
1673805998.692,-51.270,-23.926,-29.785,-39.062,0.000
1673805998.696,-41.504,-26.367,-25.391,-32.715,0.000
1673805998.700,-44.922,-33.691,-22.949,-30.762,0.000
1673805998.704,-38.574,-27.344,-29.297,-33.691,0.000
1673805998.708,-31.738,-23.438,-30.762,-30.273,0.000
1673805998.712,-28.809,-24.902,-32.227,-22.949,0.000
1673805998.716,-34.668,-26.855,-31.738,-23.926,0.000
1673805998.720,-41.504,-25.879,-33.203,-38.086,0.000
1673805998.724,-31.738,-20.508,-34.668,-35.645,0.000
1673805998.727,-26.367,-24.902,-29.297,-26.855,0.000
1673805998.731,-34.668,-36.621,-32.227,-23.438,0.000
1673805998.735,-42.480,-37.598,-33.203,-19.531,0.000
1673805998.739,-31.738,-28.809,-35.645,-20.020,0.000
1673805998.743,-27.832,-27.344,-40.527,-24.902,0.000
1673805998.747,-33.203,-33.203,-39.062,-23.926,0.000
1673805998.751,-26.855,-35.156,-36.133,-16.602,0.000
1673805998.755,-16.113,-32.715,-34.180,-20.508,0.000
1673805998.759,-9.277,-34.668,-34.668,-18.555,0.000
1673805998.763,-18.555,-32.227,-40.527,-21.973,0.000
1673805998.767,-26.855,-26.855,-41.016,-21.973,0.000
1673805998.770,-21.484,-36.621,-30.762,-10.254,0.000
1673805998.774,-32.227,-30.273,-24.902,-12.207,0.000
1673805998.778,-38.086,-20.020,-28.809,-15.625,0.000
1673805998.782,-25.391,-26.367,-34.668,-17.090,0.000
1673805998.786,-20.996,-23.926,-31.250,-16.602,0.000
1673805998.790,-15.625,-17.578,-26.855,-21.973,0.000
1673805998.794,-24.902,-25.879,-26.367,-20.508,0.000
1673805998.798,-25.879,-30.762,-26.855,-14.160,0.000
1673805998.802,-23.926,-23.438,-20.020,-10.254,0.000
1673805998.806,-38.086,-33.691,-25.391,-10.742,0.000
1673805998.809,-41.992,-38.574,-34.668,-22.461,0.000
1673805998.813,-30.273,-26.855,-28.809,-19.043,0.000
1673805998.817,-30.762,-25.879,-26.367,-18.555,0.000
1673805998.821,-29.297,-29.785,-33.203,-30.762,0.000
1673805998.825,-17.578,-32.715,-37.109,-33.203,0.000
1673805998.829,-16.113,-24.414,-28.809,-22.461,0.000
1673805998.833,-18.066,-14.160,-24.902,-13.184,0.000
1673805998.837,-21.973,-15.137,-33.203,-17.578,0.000
1673805998.841,-17.578,-17.578,-31.738,-17.090,0.000
1673805998.845,-12.695,-24.902,-28.809,-7.812,0.000
1673805998.849,-7.812,-28.809,-30.273,-13.184,0.000
1673805998.852,-10.254,-24.902,-39.551,-25.879,0.000
1673805998.856,-15.625,-25.879,-41.992,-26.855,0.000
1673805998.860,-7.324,-32.715,-33.203,-18.066,0.000
1673805998.864,-13.672,-30.762,-31.738,-9.277,0.000
1673805998.868,-35.156,-20.508,-27.344,-5.859,0.000
1673805998.872,-41.016,-15.625,-24.902,-10.254,0.000
1673805998.876,-36.621,-19.531,-17.090,4.883,0.000
1673805998.880,-45.898,-25.879,-15.137,10.254,0.000
1673805998.884,-50.293,-30.762,-22.461,-11.719,0.000
1673805998.888,-38.574,-28.809,-25.879,-23.926,0.000
1673805998.892,-41.016,-34.180,-34.180,-32.227,0.000
1673805998.895,-38.574,-37.598,-37.598,-36.621,0.000
1673805998.899,-28.809,-27.832,-38.086,-32.715,0.000
1673805998.903,-24.902,-22.949,-41.504,-34.180,0.000
1673805998.907,-11.719,-22.949,-41.504,-31.738,0.000
1673805998.911,-21.484,-29.297,-41.016,-25.391,0.000
1673805998.915,-28.320,-28.809,-35.156,-23.438,0.000
1673805998.919,-20.020,-19.531,-32.715,-20.508,0.000
1673805998.923,-12.207,-17.090,-32.227,-18.555,0.000
1673805998.927,-19.043,-25.879,-36.133,-29.785,0.000
1673805998.931,-28.320,-23.926,-42.969,-40.527,0.000
1673805998.934,-18.066,-19.043,-36.133,-31.738,0.000
1673805998.938,-13.672,-24.414,-32.715,-33.691,0.000
1673805998.942,-17.090,-19.531,-33.203,-36.133,0.000
1673805998.946,-16.602,-18.555,-37.109,-24.414,0.000
1673805998.950,-6.836,-20.508,-38.574,-21.484,0.000
1673805998.954,-13.672,-29.297,-35.645,-21.484,0.000
1673805998.958,-22.949,-31.738,-34.180,-14.160,0.000
1673805998.962,-14.160,-24.902,-35.645,-6.836,0.000
1673805998.966,-23.926,-20.020,-34.180,-4.395,0.000
1673805998.970,-24.414,-21.484,-35.645,-16.113,0.000
1673805998.974,-24.414,-26.855,-40.527,-30.762,0.000
1673805998.977,-24.902,-21.973,-38.086,-21.484,0.000
1673805998.981,-23.438,-20.996,-33.691,-14.648,0.000
1673805998.985,-22.949,-20.508,-27.832,-16.602,0.000
1673805998.989,-14.648,-20.020,-20.020,-18.066,0.000
1673805998.993,-21.484,-27.344,-22.949,-12.207,0.000
1673805998.997,-34.180,-33.691,-31.738,-16.113,0.000
1673805999.001,-28.809,-39.551,-35.645,-26.855,0.000
1673805999.005,-15.625,-39.062,-33.691,-27.344,0.000
1673805999.009,-13.672,-30.762,-36.621,-29.297,0.000
1673805999.013,-14.648,-28.320,-34.180,-21.484,0.000
1673805999.017,-16.602,-26.855,-28.809,-21.484,0.000
1673805999.020,-18.066,-22.949,-30.273,-31.250,0.000
1673805999.024,-15.137,-25.879,-28.809,-27.832,0.000
1673805999.028,-15.625,-30.273,-27.832,-20.020,0.000
1673805999.032,-14.648,-24.414,-26.855,-6.836,0.000
1673805999.036,-8.301,-21.973,-27.344,-8.301,0.000
1673805999.040,-1.953,-27.832,-34.180,-21.973,0.000
1673805999.044,-8.789,-27.832,-33.691,-20.508,0.000
1673805999.048,-11.230,-24.414,-27.344,-19.531,0.000
1673805999.052,-3.906,-23.438,-22.949,-25.391,0.000
1673805999.056,1.465,-22.949,-19.043,-21.973,0.000
1673805999.059,14.648,-19.043,-22.949,-11.230,0.000
1673805999.063,1.953,-20.996,-28.320,-13.672,0.000
1673805999.067,-24.902,-26.367,-25.391,-19.043,0.000
1673805999.071,-33.691,-22.461,-18.066,-16.113,0.000
1673805999.075,-31.738,-18.555,-20.020,-19.531,0.000
1673805999.079,-19.043,-17.090,-21.484,-24.414,0.000
1673805999.083,-10.742,-18.555,-20.508,-14.160,0.000
1673805999.087,-20.996,-26.855,-24.414,-12.695,0.000
1673805999.091,-29.785,-33.691,-28.320,-18.066,0.000
1673805999.095,-27.344,-29.297,-32.715,-7.812,0.000
1673805999.099,-19.531,-16.602,-27.344,-1.953,0.000
1673805999.102,-10.254,-11.719,-16.602,-2.930,0.000
1673805999.106,-15.625,-18.555,-22.461,-8.789,0.000
1673805999.110,-18.066,-20.508,-32.227,-16.602,0.000
1673805999.114,-8.301,-19.531,-35.645,-19.531,0.000
1673805999.118,-6.836,-23.438,-34.668,-21.973,0.000
1673805999.122,-20.508,-27.344,-33.691,-32.715,0.000
1673805999.126,-20.996,-27.832,-36.133,-29.297,0.000
1673805999.130,-16.113,-31.250,-30.273,-22.461,0.000
1673805999.134,-14.160,-27.344,-29.785,-29.785,0.000
1673805999.138,-7.812,-12.207,-34.180,-34.668,0.000
1673805999.141,-3.906,-11.719,-34.668,-38.086,0.000
1673805999.145,1.465,-16.602,-30.762,-32.227,0.000
1673805999.149,-4.883,-15.625,-28.809,-19.043,0.000
1673805999.153,-20.996,-19.043,-31.250,-15.137,0.000
1673805999.157,-33.691,-22.949,-31.738,-13.184,0.000
1673805999.161,-29.297,-19.043,-28.320,-10.254,0.000
1673805999.165,-25.879,-23.926,-32.227,-13.184,0.000
1673805999.169,-23.926,-24.902,-38.086,-20.996,0.000
1673805999.173,-13.672,-21.973,-34.180,-30.273,0.000
1673805999.177,-14.160,-21.484,-32.227,-23.438,0.000
1673805999.181,-25.879,-14.648,-35.645,-10.742,0.000
1673805999.184,-43.945,-11.230,-29.785,-13.184,0.000
1673805999.188,-42.969,-13.184,-22.949,-23.438,0.000
1673805999.192,-30.273,-12.207,-26.367,-25.391,0.000
1673805999.196,-28.320,-19.531,-27.344,-25.391,0.000
1673805999.200,-28.809,-29.297,-29.785,-27.344,0.000
1673805999.204,-18.066,-23.438,-24.414,-26.855,0.000
1673805999.208,-13.672,-17.090,-21.484,-18.555,0.000
1673805999.212,-20.508,-15.625,-24.414,-17.578,0.000
1673805999.216,-10.742,-16.113,-23.926,-19.043,0.000
1673805999.220,-1.465,-15.137,-26.367,-20.508,0.000
1673805999.224,-6.836,-16.113,-26.367,-23.926,0.000
1673805999.227,-8.301,-21.973,-28.809,-27.344,0.000
1673805999.231,-1.465,-15.625,-26.367,-24.902,0.000
1673805999.235,-6.836,-9.766,-19.043,-20.020,0.000
1673805999.239,-3.906,-13.184,-23.438,-20.508,0.000
1673805999.243,0.000,-11.719,-22.461,-9.766,0.000
1673805999.247,3.418,-11.230,-19.043,3.418,0.000
1673805999.251,9.766,-13.672,-18.066,12.207,0.000
1673805999.255,9.766,-15.137,-13.672,12.695,0.000
1673805999.259,10.742,-15.625,-19.043,5.371,0.000
1673805999.263,8.301,-11.230,-13.184,16.602,0.000
1673805999.267,6.836,-2.441,-6.348,23.438,0.000
1673805999.270,6.348,3.906,-4.883,21.484,0.000
1673805999.274,9.277,2.441,-3.906,8.789,0.000
1673805999.278,8.789,-7.324,-12.207,5.859,0.000
1673805999.282,-1.465,-14.160,-10.254,24.902,0.000
1673805999.286,0.000,-8.301,-10.254,17.578,0.000
1673805999.290,4.883,-9.277,-18.066,-8.789,0.000
1673805999.294,5.371,-6.836,-15.625,-9.766,0.000
1673805999.298,4.395,-0.488,-11.719,-4.883,0.000
1673805999.302,-2.930,-2.930,-19.531,-23.438,0.000
1673805999.306,-10.254,-12.207,-17.090,-35.645,0.000
1673805999.309,-18.555,-16.113,-5.371,-31.250,0.000
1673805999.313,-12.695,-10.254,-1.465,-19.043,0.000
1673805999.317,-11.230,-2.930,-4.883,-23.438,0.000
1673805999.321,-8.789,-6.348,-4.395,-34.180,0.000
1673805999.325,-12.695,-16.602,-5.859,-26.855,0.000
1673805999.329,-23.926,-8.789,-14.648,-16.602,0.000
1673805999.333,-23.926,-8.301,-15.137,-17.578,0.000
1673805999.337,-13.672,-14.648,-12.207,-24.902,0.000
1673805999.341,-2.930,-9.277,-13.184,-19.531,0.000
1673805999.345,0.488,-9.277,-10.742,-6.836,0.000
1673805999.349,-0.977,-16.113,-13.184,-8.789,0.000
1673805999.352,-0.977,-2.441,-14.160,-3.906,0.000
1673805999.356,3.418,2.441,-14.160,10.742,0.000
1673805999.360,0.000,-16.113,-18.555,4.883,0.000
1673805999.364,2.930,-21.484,-19.043,-4.883,0.000
1673805999.368,7.324,-9.766,-14.160,2.441,0.000
1673805999.372,6.836,-6.836,-14.160,2.441,0.000
1673805999.376,9.766,-11.230,-21.973,-10.742,0.000
1673805999.380,1.953,-11.230,-21.973,-6.836,0.000
1673805999.384,-8.789,-17.578,-20.508,-2.441,0.000
1673805999.388,4.395,-14.648,-18.555,-6.348,0.000
1673805999.391,4.395,-17.090,-21.484,-11.719,0.000
1673805999.395,0.977,-25.391,-21.973,-11.230,0.000
1673805999.399,0.488,-20.508,-19.043,-10.742,0.000
1673805999.403,-14.160,-17.090,-21.484,-23.926,0.000
1673805999.407,-14.160,-19.531,-21.484,-27.832,0.000
1673805999.411,-3.418,-20.996,-17.578,-17.578,0.000
1673805999.415,-4.883,-20.020,-10.742,-8.301,0.000
1673805999.419,-22.461,-23.438,-14.160,-25.391,0.000
1673805999.423,-24.902,-25.391,-21.973,-49.316,0.000
1673805999.427,-24.902,-26.367,-20.996,-46.387,0.000
1673805999.431,-25.391,-28.809,-22.949,-36.133,0.000
1673805999.434,-23.438,-29.297,-27.344,-35.645,0.000
1673805999.438,-34.668,-28.809,-26.855,-36.133,0.000
1673805999.442,-39.062,-33.691,-29.785,-35.156,0.000
1673805999.446,-30.273,-39.062,-34.668,-34.668,0.000
1673805999.450,-24.902,-26.855,-31.738,-30.762,0.000
1673805999.454,-19.531,-18.066,-29.785,-25.879,0.000
1673805999.458,-11.719,-20.508,-32.227,-31.250,0.000
1673805999.462,-7.324,-23.438,-29.785,-22.949,0.000
1673805999.466,-13.672,-26.855,-29.785,-12.207,0.000
1673805999.470,-15.625,-24.414,-31.250,-20.996,0.000
1673805999.474,-12.695,-21.973,-25.879,-27.344,0.000
1673805999.477,-17.090,-32.715,-26.855,-15.137,0.000
1673805999.481,-14.160,-37.598,-34.180,-14.648,0.000
1673805999.485,-15.137,-29.785,-38.574,-38.086,0.000
1673805999.489,-26.367,-33.203,-33.691,-46.875,0.000
1673805999.493,-24.414,-29.297,-33.203,-38.574,0.000
1673805999.497,-22.949,-20.996,-39.062,-32.227,0.000
1673805999.501,-33.203,-28.809,-37.598,-26.855,0.000
1673805999.505,-26.855,-30.273,-34.180,-28.809,0.000
1673805999.509,-12.695,-22.461,-32.715,-31.738,0.000
1673805999.513,-16.602,-22.949,-35.156,-27.344,0.000
1673805999.516,-16.602,-29.785,-37.109,-28.320,0.000
1673805999.520,-18.555,-26.855,-28.809,-31.250,0.000
1673805999.524,-32.227,-24.414,-28.320,-25.391,0.000
1673805999.528,-30.762,-25.879,-33.203,-21.484,0.000
1673805999.532,-30.762,-25.879,-35.156,-21.484,0.000
1673805999.536,-28.320,-27.344,-32.227,-13.672,0.000
1673805999.540,-23.926,-29.297,-25.879,-15.137,0.000
1673805999.544,-19.043,-29.785,-22.461,-20.508,0.000
1673805999.548,-12.695,-23.438,-19.043,-9.277,0.000
1673805999.552,-22.949,-19.043,-25.879,-3.906,0.000
1673805999.556,-27.344,-19.043,-36.133,-9.277,0.000
1673805999.559,-23.926,-26.367,-29.785,-10.742,0.000
1673805999.563,-28.320,-28.809,-27.832,-12.695,0.000
1673805999.567,-34.180,-19.531,-30.273,-12.207,0.000
1673805999.571,-21.484,-16.113,-31.738,-4.883,0.000
1673805999.575,-6.348,-22.461,-32.227,-12.207,0.000
1673805999.579,-3.418,-20.996,-29.297,-22.461,0.000
1673805999.583,-1.953,-14.648,-25.879,-19.043,0.000
1673805999.587,-12.207,-16.113,-27.344,-30.273,0.000
1673805999.591,-12.207,-25.391,-29.297,-40.039,0.000
1673805999.595,8.789,-22.949,-28.809,-29.297,0.000
1673805999.599,8.789,-14.160,-30.762,-20.020,0.000
1673805999.602,-25.879,-23.438,-28.320,-25.879,0.000
1673805999.606,-34.668,-34.180,-24.902,-29.297,0.000
1673805999.610,-21.484,-31.250,-25.879,-20.508,0.000
1673805999.614,-22.949,-20.508,-27.344,-15.625,0.000
1673805999.618,-23.926,-19.531,-29.297,-17.090,0.000
1673805999.622,-21.973,-25.879,-31.250,-16.113,0.000
1673805999.626,-14.160,-22.949,-29.785,-9.766,0.000
1673805999.630,-16.113,-19.531,-30.762,-7.812,0.000
1673805999.634,-24.902,-23.926,-29.297,-19.043,0.000
1673805999.638,-29.785,-31.250,-26.367,-23.926,0.000
1673805999.642,-27.832,-30.273,-25.391,-14.160,0.000
1673805999.645,-24.414,-28.320,-29.785,-6.348,0.000
1673805999.649,-34.668,-29.785,-27.344,-15.625,0.000
1673805999.653,-41.504,-26.855,-24.414,-30.273,0.000
1673805999.657,-30.762,-29.297,-28.320,-30.762,0.000
1673805999.661,-27.832,-39.551,-29.785,-24.902,0.000
1673805999.665,-30.273,-51.270,-35.156,-32.715,0.000
1673805999.669,-30.273,-45.410,-41.992,-35.156,0.000
1673805999.673,-30.273,-36.133,-39.062,-40.039,0.000
1673805999.677,-25.391,-36.621,-39.551,-43.945,0.000
1673805999.681,-18.555,-32.715,-39.551,-29.297,0.000
1673805999.684,-10.742,-26.855,-34.668,-25.879,0.000
1673805999.688,-11.719,-24.414,-32.715,-31.738,0.000
1673805999.692,-19.531,-31.250,-37.109,-41.016,0.000
1673805999.696,-14.648,-32.715,-38.574,-41.504,0.000
1673805999.700,-19.043,-26.855,-38.086,-41.504,0.000
1673805999.704,-23.926,-21.973,-39.551,-34.180,0.000
1673805999.708,-19.043,-24.902,-44.434,-29.785,0.000
1673805999.712,-23.926,-28.320,-40.039,-24.414,0.000
1673805999.716,-27.344,-27.832,-31.250,-9.277,0.000
1673805999.720,-31.738,-32.227,-29.297,-6.348,0.000
1673805999.724,-32.715,-34.668,-32.715,-19.531,0.000
1673805999.727,-17.090,-28.809,-35.156,-25.391,0.000
1673805999.731,-11.230,-22.461,-29.785,-9.277,0.000
1673805999.735,-14.160,-35.156,-30.762,-8.789,0.000
1673805999.739,-10.254,-33.691,-35.645,-31.738,0.000
1673805999.743,-18.066,-23.926,-31.738,-26.367,0.000
1673805999.747,-20.996,-30.273,-30.273,-17.578,0.000
1673805999.751,-18.066,-27.344,-30.762,-23.438,0.000
1673805999.755,-10.254,-20.020,-26.367,-20.996,0.000
1673805999.759,-9.277,-19.043,-25.879,-21.973,0.000
1673805999.763,-21.973,-20.996,-25.879,-25.391,0.000
1673805999.766,-23.438,-22.949,-27.832,-24.902,0.000
1673805999.770,-24.414,-24.902,-28.320,-41.016,0.000
1673805999.774,-20.508,-17.090,-25.879,-44.434,0.000
1673805999.778,-6.836,-28.809,-24.902,-26.855,0.000
1673805999.782,-16.113,-38.574,-34.180,-22.461,0.000
1673805999.786,-21.484,-24.902,-33.691,-23.438,0.000
1673805999.790,-22.461,-30.273,-23.926,-30.762,0.000
1673805999.794,-32.227,-36.621,-23.926,-33.203,0.000
1673805999.798,-37.598,-35.156,-29.785,-25.879,0.000
1673805999.802,-33.203,-31.738,-27.344,-24.414,0.000
1673805999.806,-26.855,-22.949,-25.879,-20.020,0.000
1673805999.809,-27.344,-19.531,-29.785,-16.602,0.000
1673805999.813,-26.367,-23.438,-30.273,-23.438,0.000
1673805999.817,-19.531,-18.555,-25.391,-22.949,0.000
1673805999.821,-5.371,-6.836,-17.090,-14.648,0.000
1673805999.825,-9.766,-18.555,-22.949,-18.555,0.000
1673805999.829,-18.066,-28.320,-27.344,-27.344,0.000
1673805999.833,-17.578,-22.461,-23.438,-25.391,0.000
1673805999.837,-15.625,-18.555,-32.715,-32.715,0.000
1673805999.841,-15.625,-16.602,-40.039,-38.086,0.000
1673805999.845,-10.254,-15.625,-34.668,-28.320,0.000
1673805999.849,-2.930,-18.555,-30.762,-22.949,0.000
1673805999.852,-13.672,-20.508,-32.227,-26.367,0.000
1673805999.856,-21.484,-19.531,-35.645,-34.668,0.000
1673805999.860,-23.926,-24.902,-36.133,-40.039,0.000
1673805999.864,-23.926,-25.391,-32.715,-33.203,0.000
1673805999.868,-30.273,-30.762,-31.738,-32.227,0.000
1673805999.872,-34.668,-35.645,-37.598,-43.945,0.000
1673805999.876,-13.672,-26.367,-39.551,-43.945,0.000
1673805999.880,-3.418,-24.902,-34.180,-27.344,0.000
1673805999.884,-22.461,-25.391,-30.762,-18.555,0.000
1673805999.888,-24.902,-20.020,-27.832,-22.949,0.000
1673805999.891,-18.555,-19.531,-29.785,-27.832,0.000
1673805999.895,-10.742,-20.996,-30.273,-15.137,0.000
1673805999.899,-10.742,-19.043,-27.832,-15.625,0.000
1673805999.903,-19.043,-20.996,-30.273,-28.320,0.000
1673805999.907,-16.113,-23.926,-30.762,-24.902,0.000
1673805999.911,-16.113,-28.809,-28.320,-16.113,0.000
1673805999.915,-26.855,-28.809,-29.297,-11.230,0.000
1673805999.919,-20.508,-24.414,-26.367,-22.461,0.000
1673805999.923,-13.672,-26.855,-20.020,-22.461,0.000
1673805999.927,-24.902,-29.785,-20.996,-15.625,0.000
1673805999.931,-29.785,-20.996,-21.973,-14.160,0.000
1673805999.934,-27.832,-15.137,-23.926,-18.555,0.000
1673805999.938,-12.695,-12.695,-22.461,-22.461,0.000
1673805999.942,-1.465,-9.277,-16.602,-20.508,0.000
1673805999.946,-13.184,-12.207,-17.578,-18.555,0.000
1673805999.950,-13.672,-19.043,-21.484,-20.508,0.000
1673805999.954,-5.859,-15.137,-24.902,-31.738,0.000
1673805999.958,0.977,-10.254,-22.949,-29.785,0.000
1673805999.962,-12.207,-19.531,-25.879,-21.484,0.000
1673805999.966,-25.879,-18.066,-26.367,-17.578,0.000
1673805999.970,-16.113,-13.184,-23.438,-21.973,0.000
1673805999.974,-14.648,-18.066,-25.391,-23.926,0.000
1673805999.977,-18.066,-21.973,-23.926,-21.484,0.000
1673805999.981,-11.230,-21.484,-23.926,-16.113,0.000
1673805999.985,-2.930,-28.320,-23.926,-8.789,0.000
1673805999.989,0.000,-22.461,-20.996,-10.742,0.000
1673805999.993,-6.348,-22.461,-27.832,-15.625,0.000
1673805999.997,-25.391,-30.762,-32.715,-16.602,0.000
1673806000.001,-30.762,-22.461,-25.391,-13.184,0.000
1673806000.005,-22.949,-18.066,-27.344,-15.137,0.000
1673806000.009,-23.926,-20.996,-31.738,-19.043,0.000
1673806000.013,-28.320,-21.484,-26.855,-13.672,0.000
1673806000.016,-36.621,-30.273,-27.832,-15.625,0.000
1673806000.020,-32.227,-25.879,-26.367,-16.602,0.000
1673806000.024,-20.996,-20.020,-26.855,-25.879,0.000
1673806000.028,-20.996,-25.879,-23.438,-27.344,0.000
1673806000.032,-21.973,-25.391,-19.531,-26.855,0.000
1673806000.036,-19.531,-27.344,-22.949,-43.945,0.000
1673806000.040,-24.414,-27.832,-28.809,-45.410,0.000
1673806000.044,-38.574,-28.809,-31.250,-42.480,0.000
1673806000.048,-38.086,-30.273,-22.461,-32.715,0.000
1673806000.052,-34.180,-22.949,-19.531,-29.297,0.000
1673806000.056,-31.250,-18.066,-26.855,-37.598,0.000
1673806000.059,-23.926,-17.578,-31.250,-33.203,0.000
1673806000.063,-30.762,-19.531,-27.344,-25.879,0.000
1673806000.067,-35.156,-28.320,-26.855,-36.621,0.000
1673806000.071,-41.504,-28.320,-27.832,-44.922,0.000
1673806000.075,-46.387,-21.484,-27.832,-39.062,0.000
1673806000.079,-30.273,-22.949,-29.297,-27.832,0.000
1673806000.083,-19.043,-23.438,-28.320,-19.043,0.000
1673806000.087,-26.855,-20.996,-27.832,-24.414,0.000
1673806000.091,-28.320,-20.508,-25.879,-10.254,0.000
1673806000.095,-20.996,-27.832,-25.879,-0.488,0.000
1673806000.099,-19.043,-35.645,-25.879,-7.812,0.000
1673806000.102,-17.090,-27.344,-23.438,-1.465,0.000
1673806000.106,-12.207,-19.043,-23.438,-2.441,0.000
1673806000.110,-0.488,-17.090,-26.855,1.953,0.000
1673806000.114,0.977,-20.996,-32.715,-3.906,0.000
1673806000.118,6.836,-25.391,-31.250,-18.066,0.000
1673806000.122,-5.859,-23.438,-27.344,-21.484,0.000
1673806000.126,-29.297,-24.902,-27.344,-23.438,0.000
1673806000.130,-19.531,-25.879,-28.320,-18.555,0.000
1673806000.134,-16.602,-20.020,-24.414,-19.531,0.000
1673806000.138,-7.324,-16.602,-20.020,-20.508,0.000
1673806000.141,-4.883,-11.719,-20.508,-19.531,0.000
1673806000.145,-8.789,-18.066,-23.438,-14.160,0.000
1673806000.149,-2.930,-22.949,-22.461,-4.395,0.000
1673806000.153,-10.742,-14.648,-18.066,-7.324,0.000
1673806000.157,-5.859,-13.184,-21.484,-14.160,0.000
1673806000.161,-1.953,-14.160,-16.113,-5.371,0.000
1673806000.165,-10.254,-14.648,-10.742,2.441,0.000
1673806000.169,0.000,-5.859,-14.160,4.395,0.000
1673806000.173,12.207,-1.465,-18.555,0.000,0.000
1673806000.177,8.789,-3.906,-17.090,-0.977,0.000
1673806000.181,0.488,-3.906,-16.602,9.277,0.000
1673806000.184,2.441,-9.277,-17.578,11.719,0.000
1673806000.188,-4.883,-13.672,-20.996,-1.465,0.000
1673806000.192,-3.906,-7.324,-21.484,-3.906,0.000
1673806000.196,5.859,-13.672,-18.555,6.836,0.000
1673806000.200,-2.441,-17.090,-17.578,2.441,0.000
1673806000.204,-4.395,-16.113,-19.043,-9.277,0.000
1673806000.208,1.465,-19.531,-15.137,-14.160,0.000
1673806000.212,9.277,-8.789,-8.789,-7.324,0.000
1673806000.216,18.066,-0.977,-10.742,4.395,0.000
1673806000.220,12.695,1.465,-12.695,-6.836,0.000
1673806000.224,-1.465,-6.348,-18.066,-19.531,0.000
1673806000.227,-7.324,-8.301,-18.555,-4.395,0.000
1673806000.231,-17.578,-7.324,-16.113,0.977,0.000
1673806000.235,-22.461,-11.719,-20.020,-11.719,0.000
1673806000.239,-15.137,-3.906,-16.602,-21.973,0.000
1673806000.243,-11.230,-4.883,-10.254,-20.996,0.000
1673806000.247,-10.254,-17.578,-11.719,-20.020,0.000
1673806000.251,-10.742,-15.137,-19.043,-29.785,0.000
1673806000.255,-10.254,-11.719,-15.625,-31.250,0.000
1673806000.259,-20.020,-16.602,-15.137,-33.203,0.000
1673806000.263,-21.484,-13.184,-18.555,-32.715,0.000
1673806000.266,-35.156,-7.812,-19.043,-28.320,0.000
1673806000.270,-31.738,-3.418,-16.602,-24.902,0.000
1673806000.274,-16.113,-11.230,-17.090,-26.855,0.000
1673806000.278,-20.020,-19.043,-16.602,-29.297,0.000
1673806000.282,-16.113,-12.695,-15.137,-25.391,0.000
1673806000.286,-13.672,-10.742,-16.602,-20.508,0.000
1673806000.290,-15.625,-18.066,-19.043,-20.996,0.000
1673806000.294,-1.953,-21.484,-23.438,-20.996,0.000
1673806000.298,-1.465,-18.555,-17.090,-11.719,0.000
1673806000.302,-11.230,-10.742,-15.137,-11.230,0.000
1673806000.306,-9.766,-10.742,-20.020,-16.113,0.000
1673806000.309,-6.836,-17.090,-23.438,-12.695,0.000
1673806000.313,-15.137,-14.160,-20.508,-3.418,0.000
1673806000.317,-21.973,-13.184,-21.484,0.000,0.000
1673806000.321,-25.879,-12.695,-28.809,-9.277,0.000
1673806000.325,-25.879,-7.812,-25.879,-16.602,0.000
1673806000.329,-17.578,1.465,-18.555,-7.324,0.000
1673806000.333,-8.301,-6.348,-20.996,-4.883,0.000
1673806000.337,-7.812,-21.484,-25.391,-20.996,0.000
1673806000.341,-5.859,-20.996,-20.996,-28.809,0.000
1673806000.345,-0.488,-8.789,-20.020,-14.648,0.000
1673806000.349,-4.395,-7.812,-24.414,-13.184,0.000
1673806000.352,-13.184,-17.090,-27.344,-26.855,0.000
1673806000.356,-14.160,-19.043,-29.297,-29.297,0.000
1673806000.360,-17.090,-15.137,-29.297,-17.090,0.000
1673806000.364,-23.438,-20.020,-23.926,-17.090,0.000
1673806000.368,-29.785,-26.367,-23.438,-22.949,0.000
1673806000.372,-37.598,-32.227,-28.320,-26.367,0.000
1673806000.376,-25.391,-34.180,-23.926,-11.230,0.000
1673806000.380,-17.090,-23.438,-22.949,5.371,0.000
1673806000.384,-31.738,-20.508,-26.367,-4.883,0.000
1673806000.388,-36.621,-20.508,-27.832,-13.672,0.000
1673806000.391,-25.391,-21.973,-30.762,-11.230,0.000
1673806000.395,-22.949,-33.691,-33.203,-8.789,0.000
1673806000.399,-27.344,-31.738,-34.180,-8.789,0.000
1673806000.403,-20.996,-20.996,-29.297,-8.301,0.000
1673806000.407,-18.066,-20.020,-29.297,-12.695,0.000
1673806000.411,-16.602,-20.996,-30.762,-5.859,0.000
1673806000.415,-11.719,-21.973,-27.832,2.930,0.000
1673806000.419,-5.371,-22.949,-22.461,-13.672,0.000
1673806000.423,1.465,-21.484,-20.996,-11.719,0.000
1673806000.427,-0.488,-25.391,-23.438,-4.395,0.000
1673806000.431,-14.160,-28.809,-23.438,-9.766,0.000
1673806000.434,-27.832,-28.320,-20.996,-8.301,0.000
1673806000.438,-33.203,-31.738,-29.785,-22.461,0.000
1673806000.442,-22.949,-27.832,-36.621,-33.691,0.000
1673806000.446,-12.695,-17.578,-35.156,-24.902,0.000
1673806000.450,-11.719,-19.531,-36.621,-24.902,0.000
1673806000.454,-6.836,-21.484,-35.156,-33.203,0.000
1673806000.458,-11.719,-13.184,-37.109,-27.832,0.000
1673806000.462,-18.555,-17.578,-36.621,-24.902,0.000
1673806000.466,-20.020,-22.461,-27.344,-17.090,0.000
1673806000.470,-23.438,-17.090,-25.879,-12.207,0.000
1673806000.473,-29.297,-20.020,-26.855,-29.785,0.000
1673806000.477,-26.367,-22.949,-27.832,-27.344,0.000
1673806000.481,-26.367,-15.137,-27.344,-12.695,0.000
1673806000.485,-36.621,-19.043,-27.344,-26.855,0.000
1673806000.489,-27.344,-28.320,-28.320,-34.668,0.000
1673806000.493,-19.531,-28.809,-28.809,-31.250,0.000
1673806000.497,-20.508,-31.738,-27.832,-23.926,0.000
1673806000.501,-22.949,-28.320,-26.855,-13.184,0.000
1673806000.505,-18.555,-20.508,-22.949,-12.695,0.000
1673806000.509,-13.184,-28.320,-24.902,-17.090,0.000
1673806000.513,-9.277,-33.203,-29.785,-4.883,0.000
1673806000.516,-11.230,-21.484,-27.344,5.371,0.000
1673806000.520,-8.789,-16.113,-27.344,-4.395,0.000
1673806000.524,-9.277,-16.602,-25.879,-6.348,0.000
1673806000.528,-9.766,-21.973,-30.273,-4.395,0.000
1673806000.532,-6.836,-20.996,-33.691,-18.555,0.000
1673806000.536,-5.371,-21.484,-31.250,-21.484,0.000
1673806000.540,-9.277,-23.926,-31.738,-30.273,0.000
1673806000.544,-23.438,-13.672,-31.250,-32.227,0.000
1673806000.548,-28.809,-14.160,-30.273,-14.648,0.000
1673806000.552,-28.809,-20.020,-25.391,-15.137,0.000
1673806000.556,-17.578,-25.391,-20.996,-18.555,0.000
1673806000.559,-11.719,-21.973,-25.879,-19.531,0.000
1673806000.563,-27.832,-19.531,-35.645,-22.461,0.000
1673806000.567,-31.250,-26.855,-34.180,-27.344,0.000
1673806000.571,-20.020,-28.320,-29.785,-31.738,0.000
1673806000.575,-9.766,-28.809,-28.809,-32.227,0.000
1673806000.579,-8.301,-27.832,-28.809,-24.902,0.000
1673806000.583,-20.996,-22.461,-28.809,-18.066,0.000
1673806000.587,-31.250,-21.484,-31.250,-21.973,0.000
1673806000.591,-28.320,-20.020,-29.785,-20.508,0.000
1673806000.595,-27.832,-23.438,-22.461,-19.531,0.000
1673806000.598,-34.668,-27.832,-19.531,-18.066,0.000
1673806000.602,-29.297,-23.438,-25.391,-11.719,0.000
1673806000.606,-21.973,-24.902,-29.297,-17.090,0.000
1673806000.610,-19.043,-25.391,-29.297,-22.461,0.000
1673806000.614,-12.207,-20.508,-28.809,-14.648,0.000
1673806000.618,-11.719,-19.043,-31.250,-18.066,0.000
1673806000.622,-2.441,-19.043,-33.691,-26.367,0.000
1673806000.626,3.418,-18.066,-31.250,-24.902,0.000
1673806000.630,4.395,-10.742,-28.809,-12.695,0.000
1673806000.634,-0.977,-11.230,-25.879,-10.254,0.000
1673806000.638,-5.859,-21.484,-28.320,-20.508,0.000
1673806000.641,-6.836,-24.902,-31.250,-19.043,0.000
1673806000.645,-1.465,-16.602,-24.902,-6.348,0.000
1673806000.649,-9.277,-15.137,-25.879,-7.812,0.000
1673806000.653,-27.832,-22.461,-34.180,-20.996,0.000
1673806000.657,-19.043,-20.996,-32.227,-19.531,0.000
1673806000.661,-11.230,-23.438,-29.297,-16.602,0.000
1673806000.665,-17.090,-27.832,-28.809,-15.137,0.000
1673806000.669,-13.672,-31.250,-30.273,-14.648,0.000
1673806000.673,-13.672,-29.785,-34.180,-16.602,0.000
1673806000.677,-14.160,-22.461,-36.133,-15.137,0.000
1673806000.681,-16.113,-20.996,-37.109,-8.789,0.000
1673806000.684,-19.043,-21.484,-36.621,-13.672,0.000
1673806000.688,-20.508,-26.855,-34.180,-29.785,0.000
1673806000.692,-23.438,-27.832,-31.250,-32.715,0.000
1673806000.696,-20.996,-19.531,-29.297,-20.020,0.000
1673806000.700,-20.020,-23.926,-28.809,-17.090,0.000
1673806000.704,-14.648,-26.367,-24.902,-17.578,0.000
1673806000.708,-12.695,-23.438,-23.926,-17.578,0.000
1673806000.712,-6.836,-22.949,-27.344,-13.672,0.000
1673806000.716,-1.953,-24.902,-28.809,-9.277,0.000
1673806000.720,-0.488,-24.902,-28.320,-14.160,0.000
1673806000.723,-6.836,-23.438,-26.367,-19.043,0.000
1673806000.727,-18.066,-26.855,-31.250,-20.996,0.000
1673806000.731,-21.973,-25.391,-32.715,-21.484,0.000
1673806000.735,-22.949,-23.926,-30.273,-21.973,0.000
1673806000.739,-20.020,-30.762,-29.297,-26.855,0.000
1673806000.743,-37.598,-37.109,-34.180,-29.785,0.000
1673806000.747,-50.293,-29.785,-34.180,-27.832,0.000
1673806000.751,-34.180,-17.578,-24.414,-23.926,0.000
1673806000.755,-25.879,-17.090,-27.344,-25.391,0.000
1673806000.759,-26.367,-28.320,-31.250,-24.414,0.000
1673806000.763,-25.879,-34.668,-31.250,-20.020,0.000
1673806000.766,-23.926,-22.461,-24.414,-17.578,0.000
1673806000.770,-33.691,-17.090,-24.414,-24.902,0.000
1673806000.774,-36.133,-21.973,-33.691,-31.738,0.000
1673806000.778,-28.320,-18.066,-31.738,-21.973,0.000
1673806000.782,-22.949,-10.254,-27.344,-16.602,0.000
1673806000.786,-13.184,-13.672,-27.344,-16.602,0.000
1673806000.790,-12.207,-17.578,-29.785,-18.066,0.000
1673806000.794,-11.719,-10.742,-29.297,-20.020,0.000
1673806000.798,-0.488,-12.207,-27.344,-17.090,0.000
1673806000.802,-1.465,-20.020,-28.320,-8.789,0.000
1673806000.806,-9.277,-21.484,-26.367,-11.230,0.000
1673806000.809,-8.301,-17.090,-24.902,-9.766,0.000
1673806000.813,-12.207,-13.672,-27.344,-1.953,0.000
1673806000.817,-16.113,-12.695,-31.738,-15.137,0.000
1673806000.821,-12.695,-20.020,-32.715,-30.762,0.000
1673806000.825,-1.953,-18.066,-28.809,-26.367,0.000
1673806000.829,16.113,-8.789,-30.273,-15.137,0.000
1673806000.833,9.766,-10.254,-29.297,-14.648,0.000
1673806000.837,-4.395,-13.184,-25.879,-10.254,0.000
1673806000.841,-8.789,-17.090,-25.391,-8.301,0.000
1673806000.845,-17.578,-20.508,-24.414,-13.184,0.000
1673806000.849,-16.602,-20.996,-25.879,-11.230,0.000
1673806000.852,-11.719,-20.020,-24.902,-16.602,0.000
1673806000.856,-7.324,-24.414,-24.414,-20.996,0.000
1673806000.860,-17.578,-31.738,-31.250,-22.461,0.000
1673806000.864,-35.156,-38.086,-36.621,-21.973,0.000
1673806000.868,-28.809,-30.273,-31.738,-24.414,0.000
1673806000.872,-29.297,-23.438,-29.297,-33.203,0.000
1673806000.876,-37.598,-23.926,-29.297,-34.180,0.000
1673806000.880,-37.598,-25.391,-29.785,-21.484,0.000
1673806000.884,-36.621,-28.320,-29.785,-17.090,0.000
1673806000.888,-27.832,-28.320,-33.691,-31.250,0.000
1673806000.891,-27.832,-27.832,-36.621,-40.527,0.000
1673806000.895,-40.527,-32.715,-34.668,-30.762,0.000
1673806000.899,-36.621,-33.691,-32.715,-18.066,0.000
1673806000.903,-30.273,-20.996,-29.785,-12.695,0.000
1673806000.907,-24.414,-27.344,-30.273,-19.043,0.000
1673806000.911,-20.508,-33.203,-25.391,-13.184,0.000
1673806000.915,-24.414,-17.090,-20.996,0.977,0.000
1673806000.919,-17.578,-11.719,-23.926,-6.836,0.000
1673806000.923,-13.672,-16.602,-27.344,-24.414,0.000
1673806000.927,-6.348,-14.160,-31.250,-32.715,0.000
1673806000.931,-2.930,-11.719,-30.273,-18.555,0.000
1673806000.934,-0.977,-11.719,-30.273,-11.719,0.000
1673806000.938,1.953,-16.602,-32.227,-19.531,0.000
1673806000.942,-6.348,-24.902,-31.738,-20.020,0.000
1673806000.946,-4.395,-18.555,-25.879,-12.695,0.000
1673806000.950,-0.488,-7.812,-22.461,-7.812,0.000
1673806000.954,-13.672,-15.625,-26.367,-24.414,0.000
1673806000.958,-15.137,-21.973,-22.949,-36.133,0.000
1673806000.962,-23.926,-19.531,-22.461,-27.832,0.000
1673806000.966,-37.598,-20.996,-23.926,-21.973,0.000
1673806000.970,-29.297,-22.461,-22.461,-29.297,0.000
1673806000.973,-24.414,-20.996,-24.902,-28.320,0.000
1673806000.977,-27.344,-22.461,-23.926,-20.508,0.000
1673806000.981,-24.902,-28.809,-21.973,-25.391,0.000
1673806000.985,-33.203,-28.809,-19.043,-30.273,0.000
1673806000.989,-41.016,-34.668,-17.578,-29.785,0.000
1673806000.993,-36.621,-33.691,-20.508,-20.996,0.000
1673806000.997,-37.109,-25.879,-22.461,-20.020,0.000
1673806001.001,-45.410,-27.344,-19.043,-27.344,0.000
1673806001.005,-37.598,-26.855,-17.578,-28.809,0.000
1673806001.009,-26.855,-22.461,-19.531,-30.273,0.000
1673806001.013,-30.762,-27.344,-21.973,-29.297,0.000
1673806001.016,-20.508,-21.484,-26.855,-17.578,0.000
1673806001.020,-16.113,-17.090,-24.902,-14.648,0.000
1673806001.024,-11.230,-21.973,-24.902,-19.531,0.000
1673806001.028,-2.930,-21.973,-31.738,-19.043,0.000
1673806001.032,4.395,-18.066,-25.391,-23.438,0.000
1673806001.036,13.184,-11.230,-19.043,-32.227,0.000
1673806001.040,7.324,-14.648,-22.461,-40.039,0.000
1673806001.044,-3.906,-16.602,-23.926,-41.504,0.000
