timestamp,TP9,AF7,AF8,TP10,Right AUX
0.000,-24.414,-28.320,-34.180,-17.090,0.000
4.000,-32.227,-35.645,-34.668,-26.855,0.000
8.000,-21.484,-30.762,-31.738,-28.320,0.000
12.000,-17.578,-26.855,-33.203,-20.020,0.000
16.000,-17.090,-26.855,-38.086,-17.578,0.000
20.000,-37.109,-28.809,-37.109,-12.207,0.000
23.000,-52.734,-32.715,-36.133,-6.348,0.000
27.000,-34.180,-30.762,-36.133,-8.301,0.000
31.000,-13.184,-30.273,-37.598,-24.414,0.000
35.000,-23.926,-30.273,-35.156,-20.996,0.000
39.000,-28.809,-27.344,-32.715,-9.277,0.000
43.000,-24.902,-27.832,-33.691,-15.625,0.000
47.000,-27.832,-29.785,-30.762,-15.625,0.000
51.000,-24.414,-24.902,-25.879,-9.766,0.000
55.000,-30.273,-22.949,-28.320,-8.789,0.000
59.000,-30.273,-25.391,-29.297,-17.578,0.000
62.000,-17.578,-23.438,-27.832,-20.996,0.000
66.000,-9.277,-21.484,-28.809,-11.719,0.000
70.000,-14.160,-25.391,-35.645,-11.230,0.000
74.000,-33.203,-26.367,-37.109,-10.254,0.000
78.000,-47.363,-27.832,-31.738,-12.695,0.000
82.000,-44.922,-28.320,-31.250,-13.184,0.000
86.000,-38.086,-23.926,-33.203,-15.137,0.000
90.000,-22.461,-21.973,-35.156,-22.949,0.000
94.000,-15.625,-22.949,-39.062,-19.531,0.000
98.000,-34.180,-22.461,-39.062,-23.438,0.000
102.000,-48.828,-22.949,-37.109,-25.391,0.000
105.000,-40.527,-25.391,-39.551,-33.203,0.000
109.000,-33.691,-22.461,-35.156,-34.180,0.000
113.000,-27.344,-21.484,-34.668,-24.414,0.000
117.000,-25.391,-24.902,-37.109,-17.090,0.000
121.000,-29.297,-26.855,-28.809,-17.090,0.000
125.000,-29.297,-27.832,-25.391,-23.926,0.000
129.000,-21.484,-26.855,-32.715,-23.438,0.000
133.000,-25.391,-28.320,-36.133,-23.926,0.000
137.000,-42.969,-31.738,-35.156,-26.367,0.000
141.000,-53.711,-26.855,-30.762,-20.020,0.000
145.000,-52.734,-22.949,-29.785,-24.414,0.000
148.000,-40.039,-23.926,-32.715,-20.508,0.000
152.000,-14.160,-20.508,-30.762,-9.766,0.000
156.000,-7.812,-20.996,-26.855,-15.625,0.000
160.000,-31.250,-30.762,-21.973,-34.180,0.000
164.000,-47.852,-33.691,-16.602,-36.133,0.000
168.000,-57.617,-32.715,-11.719,-11.230,0.000
172.000,-61.523,-34.668,-13.184,-5.859,0.000
176.000,-54.199,-42.969,-18.066,-12.207,0.000
180.000,-30.273,-40.527,-21.973,-10.254,0.000
184.000,-3.418,-28.320,-23.438,-0.488,0.000
187.000,-3.418,-24.414,-20.020,-13.672,0.000
191.000,-17.090,-29.297,-18.555,-27.344,0.000
195.000,-42.969,-29.785,-20.508,-23.438,0.000
199.000,-62.988,-25.879,-20.020,-11.719,0.000
203.000,-64.941,-24.902,-16.602,-5.859,0.000
207.000,-65.430,-23.926,-16.113,-17.090,0.000
211.000,-45.410,-24.414,-16.602,-14.648,0.000
215.000,-21.973,-25.879,-18.555,11.719,0.000
219.000,-24.902,-26.855,-15.625,24.414,0.000
223.000,-54.199,-28.809,-9.766,3.906,0.000
227.000,-59.570,-31.738,-11.230,-13.672,0.000
230.000,-38.086,-37.109,-12.695,-13.184,0.000
234.000,-37.598,-43.457,-7.812,-5.859,0.000
238.000,-38.574,-47.363,-6.348,-0.488,0.000
242.000,-37.598,-56.152,-9.766,-18.555,0.000
246.000,-34.180,-59.570,-10.742,-29.297,0.000
250.000,-24.902,-58.594,-5.859,-19.531,0.000
254.000,-35.156,-62.012,-2.441,-8.301,0.000
258.000,-33.691,-67.871,-2.441,-3.418,0.000
262.000,-24.902,-70.801,0.488,2.441,0.000
266.000,-24.414,-77.148,-2.930,4.395,0.000
270.000,-18.066,-75.684,-1.465,-0.977,0.000
273.000,-21.484,-71.777,0.977,4.883,0.000
277.000,-42.969,-79.102,1.953,8.789,0.000
281.000,-37.598,-76.660,13.184,13.184,0.000
285.000,-20.508,-74.219,11.230,18.066,0.000
289.000,-31.250,-78.125,2.441,19.043,0.000
293.000,-40.039,-79.102,4.883,11.719,0.000
297.000,-27.832,-77.148,-0.488,9.277,0.000
301.000,-19.531,-74.707,-3.906,23.926,0.000
305.000,-37.109,-72.754,-0.977,24.902,0.000
309.000,-49.805,-75.195,1.953,17.578,0.000
312.000,-43.457,-78.613,3.906,18.555,0.000
316.000,-44.434,-81.543,6.348,14.160,0.000
320.000,-44.434,-80.078,6.348,20.508,0.000
324.000,-40.527,-81.055,6.348,24.902,0.000
328.000,-29.297,-83.008,12.695,13.184,0.000
332.000,-26.367,-79.590,18.066,18.066,0.000
336.000,-32.715,-77.148,12.695,32.715,0.000
340.000,-30.273,-74.707,10.254,28.809,0.000
344.000,-14.160,-72.754,13.184,23.438,0.000
348.000,-2.441,-70.312,12.207,32.715,0.000
352.000,-12.207,-72.754,10.254,30.762,0.000
355.000,-21.973,-73.242,12.695,20.508,0.000
359.000,-22.949,-70.312,11.719,7.324,0.000
363.000,4.395,-64.941,10.742,6.348,0.000
367.000,30.762,-60.059,6.348,3.906,0.000
371.000,24.902,-59.082,4.395,-0.488,0.000
375.000,-26.367,-63.965,5.859,6.836,0.000
379.000,-90.820,-68.848,7.324,14.160,0.000
383.000,-86.426,-61.035,7.812,7.812,0.000
387.000,-64.941,-59.570,7.324,-4.883,0.000
391.000,-61.035,-61.523,7.324,-7.812,0.000
395.000,-49.805,-54.199,6.348,-5.859,0.000
398.000,-40.527,-49.805,7.812,0.977,0.000
402.000,-46.875,-52.734,2.930,5.859,0.000
406.000,-48.828,-55.664,1.465,1.953,0.000
410.000,-41.992,-55.176,1.953,0.000,0.000
414.000,-42.969,-56.641,-4.395,5.859,0.000
418.000,-47.363,-56.152,-4.883,0.977,0.000
422.000,-47.852,-55.176,-9.766,-14.160,0.000
426.000,-51.270,-54.199,-15.137,-29.297,0.000
430.000,-46.875,-47.852,-16.602,-27.344,0.000
434.000,-41.992,-49.316,-18.555,-20.020,0.000
437.000,-51.270,-53.223,-20.020,-26.855,0.000
441.000,-56.152,-51.758,-22.949,-30.762,0.000
445.000,-49.805,-50.293,-21.484,-20.020,0.000
449.000,-41.992,-46.875,-16.602,-22.949,0.000
453.000,-33.691,-46.387,-20.020,-32.227,0.000
457.000,-30.762,-46.875,-22.949,-30.762,0.000
461.000,-16.602,-47.363,-20.020,-26.367,0.000
465.000,-10.742,-45.898,-18.066,-14.648,0.000
469.000,-37.109,-43.945,-17.578,1.953,0.000
473.000,-42.480,-41.992,-15.625,-2.930,0.000
477.000,-17.578,-37.598,-19.043,-7.324,0.000
480.000,10.254,-33.203,-21.973,-24.902,0.000
484.000,17.578,-38.574,-23.926,-30.762,0.000
488.000,-40.039,-41.504,-24.902,-10.742,0.000
492.000,-91.797,-41.016,-20.996,-9.766,0.000
496.000,-75.684,-40.527,-19.531,-19.531,0.000
500.000,-67.871,-37.598,-18.555,-26.367,0.000
504.000,-59.570,-33.691,-18.066,-28.809,0.000
508.000,-40.039,-33.691,-21.484,-16.113,0.000
512.000,-31.738,-30.273,-21.484,-16.113,0.000
516.000,-31.738,-31.738,-23.438,-10.254,0.000
520.000,-33.203,-34.180,-22.949,-9.277,0.000
523.000,-41.016,-35.645,-20.996,-28.320,0.000
527.000,-37.598,-37.598,-24.902,-20.508,0.000
531.000,-33.691,-39.551,-29.297,-13.672,0.000
535.000,-35.156,-36.621,-22.949,-16.113,0.000
539.000,-32.227,-33.691,-20.020,-10.254,0.000
543.000,-37.598,-29.785,-26.855,-20.996,0.000
547.000,-37.598,-31.250,-23.926,-24.902,0.000
551.000,-27.832,-29.785,-26.367,-8.301,0.000
555.000,-16.602,-26.855,-27.832,-7.812,0.000
559.000,-21.484,-28.809,-25.391,-10.254,0.000
562.000,-25.391,-28.320,-33.203,-5.371,0.000
566.000,-19.531,-24.902,-36.133,7.812,0.000
570.000,-38.574,-29.785,-35.645,0.977,0.000
574.000,-41.504,-33.203,-37.109,-14.648,0.000
578.000,-32.715,-25.391,-35.645,-7.812,0.000
582.000,-33.203,-22.461,-33.691,0.488,0.000
586.000,-34.180,-29.785,-37.109,3.418,0.000
590.000,-28.320,-32.227,-39.062,-0.488,0.000
594.000,-21.484,-28.809,-41.504,-8.301,0.000
598.000,-26.855,-26.855,-38.086,0.977,0.000
602.000,-29.785,-23.438,-36.621,-7.324,0.000
605.000,-23.926,-21.484,-41.992,-20.508,0.000
609.000,-34.668,-24.902,-39.551,-3.418,0.000
613.000,-44.922,-23.438,-34.180,-0.977,0.000
617.000,-38.086,-19.531,-34.668,-9.277,0.000
621.000,-34.180,-20.508,-35.645,-8.301,0.000
625.000,-40.527,-22.461,-34.180,-13.184,0.000
629.000,-39.062,-20.020,-33.691,-20.020,0.000
633.000,-31.738,-19.043,-34.180,-17.090,0.000
637.000,-32.227,-22.461,-34.668,-18.066,0.000
641.000,-46.875,-32.715,-36.133,-32.715,0.000
645.000,-58.105,-44.922,-37.109,-38.574,0.000
648.000,-29.785,-43.945,-33.203,-15.625,0.000
652.000,-13.672,-34.180,-24.902,7.812,0.000
656.000,-25.391,-17.578,-33.691,-20.020,0.000
660.000,-39.551,-10.742,-37.109,-52.246,0.000
664.000,-46.875,-15.137,-36.621,-56.152,0.000
668.000,-49.805,-14.648,-44.922,-59.082,0.000
672.000,-50.293,-5.859,-49.316,-58.105,0.000
676.000,-49.316,-3.906,-55.176,-73.242,0.000
680.000,-52.246,0.000,-57.129,-79.590,0.000
684.000,-65.918,1.465,-59.570,-70.801,0.000
687.000,-72.754,0.488,-62.500,-77.637,0.000
691.000,-80.566,-0.977,-67.871,-85.938,0.000
695.000,-82.520,-2.441,-71.289,-80.566,0.000
699.000,-70.312,7.812,-64.941,-72.266,0.000
703.000,-74.707,12.207,-69.336,-97.656,0.000
707.000,-74.219,12.695,-76.660,-111.328,0.000
711.000,-55.176,18.066,-70.801,-90.332,0.000
715.000,-57.129,19.043,-74.707,-83.496,0.000
719.000,-58.105,21.973,-79.590,-86.426,0.000
723.000,-49.316,25.879,-81.055,-90.332,0.000
727.000,-40.039,25.391,-83.496,-93.262,0.000
730.000,-41.016,19.043,-82.520,-92.285,0.000
734.000,-43.457,20.996,-87.891,-88.867,0.000
738.000,-40.039,31.250,-90.332,-85.938,0.000
742.000,-33.203,30.762,-88.379,-83.496,0.000
746.000,-34.180,31.250,-90.332,-82.520,0.000
750.000,-37.598,34.180,-86.426,-84.473,0.000
754.000,-39.551,30.762,-83.496,-78.613,0.000
758.000,-38.086,27.344,-83.496,-65.918,0.000
762.000,-30.273,21.973,-83.984,-65.430,0.000
766.000,-27.832,22.949,-83.984,-63.477,0.000
770.000,-21.973,25.391,-83.496,-53.223,0.000
773.000,-37.598,17.090,-85.449,-64.941,0.000
777.000,-47.852,11.230,-83.008,-63.965,0.000
781.000,-37.109,9.277,-78.613,-57.129,0.000
785.000,-25.391,6.348,-71.777,-46.387,0.000
789.000,-18.555,2.441,-65.918,-35.645,0.000
793.000,-16.602,2.930,-68.848,-37.109,0.000
797.000,-20.508,1.953,-67.871,-43.945,0.000
801.000,-24.414,-0.488,-62.012,-39.062,0.000
805.000,-18.066,4.883,-50.781,-20.996,0.000
809.000,-10.254,5.371,-44.922,-19.531,0.000
812.000,-7.324,3.418,-49.805,-32.227,0.000
816.000,-14.160,0.977,-49.805,-25.879,0.000
820.000,-22.949,-3.906,-46.387,-24.902,0.000
824.000,-20.020,-6.348,-45.898,-26.367,0.000
828.000,-16.113,-3.906,-41.992,-21.484,0.000
832.000,-28.320,-9.766,-38.574,-17.090,0.000
836.000,-32.715,-16.113,-45.898,-17.090,0.000
840.000,-26.367,-11.719,-44.434,-14.160,0.000
844.000,-33.203,-12.695,-44.434,-17.090,0.000
848.000,-40.039,-13.672,-52.246,-30.273,0.000
852.000,-47.363,-11.719,-53.223,-33.691,0.000
855.000,-42.480,-19.043,-50.781,-37.109,0.000
859.000,-38.574,-16.602,-45.410,-35.156,0.000
863.000,-41.504,-11.230,-41.992,-24.414,0.000
867.000,-39.062,-17.578,-40.039,-29.785,0.000
871.000,-36.133,-17.090,-39.551,-26.367,0.000
875.000,-24.902,-15.137,-35.645,-12.207,0.000
879.000,-25.391,-19.043,-30.762,-8.301,0.000
883.000,-40.039,-20.996,-36.621,-20.996,0.000
887.000,-38.086,-20.996,-38.086,-23.926,0.000
891.000,-32.715,-18.555,-29.785,-26.855,0.000
895.000,-42.480,-17.090,-27.832,-34.668,0.000
898.000,-48.828,-17.578,-30.273,-35.645,0.000
902.000,-45.410,-23.926,-32.227,-37.109,0.000
906.000,-40.039,-26.367,-40.527,-38.574,0.000
910.000,-43.457,-23.438,-43.457,-41.016,0.000
914.000,-41.016,-22.461,-38.086,-40.527,0.000
918.000,-42.969,-21.973,-35.156,-40.527,0.000
922.000,-49.316,-14.648,-35.156,-35.156,0.000
926.000,-53.223,-15.625,-36.621,-36.621,0.000
930.000,-43.457,-21.484,-39.062,-43.457,0.000
934.000,-29.785,-22.949,-34.668,-39.551,0.000
937.000,-32.227,-27.344,-32.715,-47.363,0.000
941.000,-33.691,-25.391,-35.645,-42.480,0.000
945.000,-35.156,-23.926,-35.156,-36.133,0.000
949.000,-47.852,-28.809,-35.645,-35.156,0.000
953.000,-55.176,-31.250,-37.109,-26.367,0.000
957.000,-53.711,-31.250,-35.156,-31.738,0.000
961.000,-48.828,-33.203,-36.133,-33.691,0.000
965.000,-35.156,-29.297,-37.598,-30.762,0.000
969.000,-40.039,-28.809,-35.645,-25.391,0.000
973.000,-41.992,-30.762,-35.645,-20.508,0.000
977.000,-45.410,-28.320,-37.598,-24.902,0.000
980.000,-46.875,-28.320,-39.551,-37.109,0.000
984.000,-43.945,-30.273,-40.527,-35.645,0.000
988.000,-49.805,-32.715,-38.086,-29.297,0.000
992.000,-47.852,-32.715,-37.109,-28.320,0.000
996.000,-35.156,-29.785,-30.762,-23.926,0.000
1000.000,-38.574,-31.250,-29.297,-25.391,0.000
1004.000,-53.223,-36.621,-31.738,-28.320,0.000
1008.000,-52.246,-32.715,-30.762,-31.738,0.000
1012.000,-40.039,-29.785,-31.738,-27.832,0.000
1016.000,-37.598,-34.668,-30.273,-15.625,0.000
1020.000,-43.457,-34.180,-23.438,-23.438,0.000
1023.000,-44.434,-35.645,-23.438,-31.250,0.000
1027.000,-41.992,-40.039,-31.738,-33.691,0.000
1031.000,-41.504,-37.109,-36.621,-33.691,0.000
1035.000,-44.434,-35.645,-38.086,-27.344,0.000
1039.000,-50.781,-33.691,-36.621,-31.738,0.000
1043.000,-37.598,-27.344,-35.156,-25.879,0.000
1047.000,-24.414,-29.297,-36.621,-23.926,0.000
1051.000,-40.527,-30.762,-33.691,-26.855,0.000
1055.000,-55.664,-32.715,-32.227,-26.367,0.000
1059.000,-43.457,-33.691,-31.250,-20.508,0.000
1062.000,-31.250,-31.738,-28.320,-15.625,0.000
1066.000,-28.320,-34.180,-30.762,-24.414,0.000
1070.000,-15.625,-31.250,-32.227,-27.832,0.000
1074.000,-29.297,-26.367,-28.320,-19.531,0.000
1078.000,-53.223,-30.762,-28.809,-24.902,0.000
1082.000,-57.617,-31.738,-28.320,-21.973,0.000
1086.000,-55.176,-31.738,-29.297,-22.461,0.000
1090.000,-48.828,-31.738,-30.273,-30.273,0.000
1094.000,-48.340,-30.273,-33.691,-25.879,0.000
1098.000,-51.758,-33.203,-38.574,-30.762,0.000
1102.000,-50.293,-33.203,-35.645,-28.320,0.000
1105.000,-44.922,-31.250,-31.250,-23.926,0.000
1109.000,-43.945,-25.879,-31.738,-28.320,0.000
1113.000,-37.598,-22.461,-31.738,-24.902,0.000
1117.000,-20.020,-20.996,-30.762,-17.578,0.000
1121.000,-5.859,-13.672,-27.832,5.859,0.000
1125.000,-13.184,-20.020,-26.367,-8.789,0.000
1129.000,-33.691,-34.180,-27.344,-39.551,0.000
1133.000,-26.367,-36.133,-19.043,-32.227,0.000
1137.000,-17.090,-38.086,-18.555,-17.578,0.000
1141.000,-30.273,-44.922,-15.625,-12.207,0.000
1145.000,-47.363,-54.199,-8.789,-10.254,0.000
1148.000,-41.504,-60.547,-7.324,-3.418,0.000
1152.000,-34.180,-61.523,-4.883,-11.719,0.000
1156.000,-18.555,-68.848,-5.859,-16.113,0.000
1160.000,-20.508,-75.195,-4.883,-4.395,0.000
1164.000,-54.199,-76.172,-10.254,4.883,0.000
1168.000,-59.570,-73.242,-8.789,6.836,0.000
1172.000,-46.387,-71.289,4.883,3.418,0.000
1176.000,-34.668,-67.383,6.836,14.160,0.000
1180.000,-23.926,-66.895,0.977,23.438,0.000
1184.000,-21.484,-77.148,3.418,25.391,0.000
1187.000,-25.391,-78.613,3.418,22.949,0.000
1191.000,-24.902,-76.660,6.836,23.926,0.000
1195.000,-21.484,-76.660,11.719,14.160,0.000
1199.000,-26.855,-75.195,13.184,19.043,0.000
1203.000,-24.414,-75.684,16.113,28.809,0.000
1207.000,-20.020,-77.637,16.602,15.625,0.000
1211.000,-15.137,-82.031,16.113,22.461,0.000
1215.000,-8.789,-82.520,20.020,30.273,0.000
1219.000,-11.719,-80.566,20.020,20.996,0.000
1223.000,-17.090,-80.566,15.137,16.602,0.000
1227.000,-8.789,-78.613,17.090,16.113,0.000
1230.000,0.488,-74.707,12.695,17.578,0.000
1234.000,-8.301,-74.707,10.254,28.809,0.000
1238.000,-41.016,-75.195,16.602,43.457,0.000
1242.000,-62.500,-76.660,13.184,20.508,0.000
1246.000,-52.246,-80.078,16.113,13.672,0.000
1250.000,-43.457,-78.125,17.090,13.184,0.000
1254.000,-40.039,-74.707,7.812,18.555,0.000
1258.000,-40.039,-78.125,11.719,22.949,0.000
1262.000,-33.691,-73.242,16.113,30.273,0.000
1266.000,-27.344,-70.801,17.090,26.367,0.000
1270.000,-30.762,-70.801,13.672,1.953,0.000
1273.000,-32.715,-62.500,10.254,-4.883,0.000
1277.000,-37.109,-63.965,3.906,-4.395,0.000
1281.000,-27.832,-63.965,5.859,1.953,0.000
1285.000,-24.902,-63.477,14.648,15.625,0.000
1289.000,-24.902,-66.895,6.836,18.066,0.000
1293.000,-18.066,-65.430,-3.418,9.277,0.000
1297.000,-27.344,-64.941,-3.906,4.395,0.000
1301.000,-27.832,-64.453,-0.977,7.812,0.000
1305.000,-19.043,-60.059,4.395,8.789,0.000
1309.000,-10.254,-56.152,5.371,0.977,0.000
1312.000,1.953,-55.664,0.488,0.488,0.000
1316.000,2.930,-56.152,-1.953,8.789,0.000
1320.000,4.395,-50.781,-3.906,9.766,0.000
1324.000,5.859,-49.805,-1.953,0.000,0.000
1328.000,-33.691,-50.781,-0.977,-4.883,0.000
1332.000,-56.152,-42.969,-5.371,-1.465,0.000
1336.000,-41.016,-41.016,-8.301,4.395,0.000
1340.000,-14.648,-41.016,-2.930,11.230,0.000
1344.000,-5.371,-41.504,0.000,15.625,0.000
1348.000,-1.465,-41.992,-2.930,14.160,0.000
1352.000,-12.207,-35.645,0.977,20.996,0.000
1355.000,-53.223,-35.156,0.977,16.113,0.000
1359.000,-55.664,-43.945,-10.254,12.695,0.000
1363.000,-39.551,-48.828,-13.672,13.672,0.000
1367.000,-41.992,-46.387,-11.230,8.301,0.000
1371.000,-39.551,-46.387,-15.137,-1.465,0.000
1375.000,-32.227,-46.875,-15.625,-16.113,0.000
1379.000,-31.250,-47.363,-16.602,-8.301,0.000
1383.000,-20.508,-44.922,-15.625,7.324,0.000
1387.000,-25.879,-44.922,-15.137,-5.371,0.000
1391.000,-30.273,-45.898,-18.066,-11.230,0.000
1395.000,-17.578,-45.410,-19.043,-3.418,0.000
1398.000,-7.812,-41.504,-22.461,-9.766,0.000
1402.000,-11.230,-35.156,-22.949,-19.043,0.000
1406.000,-9.766,-36.133,-19.043,-11.719,0.000
1410.000,-6.348,-43.457,-20.508,-15.137,0.000
1414.000,8.301,-45.410,-23.438,-18.555,0.000
1418.000,13.184,-41.992,-22.949,-5.371,0.000
1422.000,-11.719,-43.945,-20.996,4.883,0.000
1426.000,-23.926,-41.016,-24.414,6.836,0.000
1430.000,-28.320,-38.574,-29.297,-7.324,0.000
1434.000,-41.992,-43.945,-27.832,-13.184,0.000
1437.000,-44.922,-39.551,-32.227,-10.254,0.000
1441.000,-44.434,-33.691,-32.227,-5.859,0.000
1445.000,-36.133,-33.203,-26.367,1.465,0.000
1449.000,-33.691,-33.203,-27.832,7.812,0.000
1453.000,-42.969,-37.109,-28.809,-1.465,0.000
1457.000,-40.039,-40.039,-29.297,-7.812,0.000
1461.000,-31.250,-41.016,-30.762,-3.418,0.000
1465.000,-30.762,-40.527,-30.273,0.488,0.000
1469.000,-32.227,-38.086,-33.203,-3.906,0.000
1473.000,-29.785,-38.086,-33.203,-12.695,0.000
1477.000,-20.020,-43.457,-31.250,-9.766,0.000
1480.000,3.906,-43.945,-31.738,3.418,0.000
1484.000,10.742,-25.879,-35.645,-0.488,0.000
1488.000,-22.949,-19.043,-43.945,-24.902,0.000
1492.000,-46.387,-26.367,-51.758,-38.574,0.000
1496.000,-39.062,-23.438,-58.594,-39.551,0.000
1500.000,-31.250,-15.625,-57.617,-49.316,0.000
1504.000,-60.547,-10.742,-57.129,-59.082,0.000
1508.000,-65.430,-4.395,-63.477,-62.012,0.000
1512.000,-39.062,2.441,-65.918,-69.336,0.000
1516.000,-45.410,8.301,-69.824,-74.707,0.000
1519.000,-42.480,12.207,-73.242,-76.172,0.000
1523.000,-46.875,20.508,-71.289,-72.754,0.000
1527.000,-68.848,23.926,-68.848,-70.312,0.000
1531.000,-73.242,27.832,-69.336,-71.777,0.000
1535.000,-68.359,32.715,-77.148,-76.660,0.000
1539.000,-53.223,36.133,-80.566,-69.336,0.000
1543.000,-57.617,38.574,-78.613,-70.312,0.000
1547.000,-67.871,39.551,-77.637,-75.195,0.000
1551.000,-46.875,41.016,-79.102,-70.312,0.000
1555.000,-54.688,38.086,-85.449,-78.613,0.000
1559.000,-62.500,29.297,-89.844,-85.449,0.000
1562.000,-60.547,29.785,-87.891,-77.148,0.000
1566.000,-60.547,35.156,-82.031,-77.148,0.000
1570.000,-36.621,42.969,-77.637,-73.242,0.000
1574.000,-37.598,46.387,-79.590,-70.801,0.000
1578.000,-46.875,41.504,-83.496,-82.520,0.000
1582.000,-37.598,36.133,-80.566,-71.289,0.000
1586.000,-41.016,34.180,-80.078,-68.359,0.000
1590.000,-44.922,31.738,-84.473,-87.891,0.000
1594.000,-30.273,30.273,-83.984,-83.496,0.000
1598.000,-18.066,33.691,-75.684,-62.988,0.000
1602.000,-29.785,25.879,-74.219,-65.918,0.000
1605.000,-41.016,17.578,-77.637,-75.684,0.000
1609.000,-33.691,18.555,-73.730,-66.895,0.000
1613.000,-27.832,13.672,-72.266,-58.594,0.000
1617.000,-31.738,6.836,-69.336,-54.199,0.000
1621.000,-29.785,6.348,-62.012,-56.152,0.000
1625.000,-20.996,3.418,-66.406,-55.176,0.000
1629.000,-19.531,-1.465,-64.453,-43.945,0.000
1633.000,-28.809,-2.441,-57.617,-50.781,0.000
1637.000,-24.414,-2.441,-57.129,-54.688,0.000
1641.000,-21.973,-5.371,-59.570,-41.016,0.000
1644.000,-28.320,-5.859,-53.711,-24.414,0.000
1648.000,-29.297,-9.277,-51.758,-28.320,0.000
1652.000,-32.715,-10.742,-58.105,-33.203,0.000
1656.000,-35.645,-8.301,-49.805,-29.297,0.000
1660.000,-33.203,-10.254,-49.805,-31.250,0.000
1664.000,-20.508,-9.277,-50.781,-30.762,0.000
1668.000,-31.738,-12.207,-42.480,-30.762,0.000
1672.000,-46.387,-18.066,-41.016,-27.832,0.000
1676.000,-32.715,-15.137,-42.969,-22.461,0.000
1680.000,-27.832,-14.160,-40.039,-27.832,0.000
1684.000,-26.367,-12.695,-42.480,-32.227,0.000
1687.000,-31.250,-15.625,-45.410,-23.438,0.000
1691.000,-28.809,-16.113,-39.551,-14.160,0.000
1695.000,-27.344,-16.602,-39.551,-17.090,0.000
1699.000,-43.945,-19.043,-41.016,-18.555,0.000
1703.000,-47.363,-20.996,-36.133,-16.113,0.000
1707.000,-32.227,-20.996,-39.062,-19.531,0.000
1711.000,-23.438,-21.484,-39.551,-18.555,0.000
1715.000,-24.902,-23.926,-41.016,-26.367,0.000
1719.000,-34.668,-28.320,-46.875,-33.691,0.000
1723.000,-49.316,-27.832,-42.480,-32.227,0.000
1727.000,-37.598,-26.855,-42.969,-34.180,0.000
1730.000,-25.391,-30.762,-42.969,-40.039,0.000
1734.000,-25.879,-27.344,-38.574,-33.203,0.000
1738.000,-35.645,-20.020,-38.574,-35.645,0.000
1742.000,-50.781,-23.438,-36.621,-38.574,0.000
1746.000,-52.246,-27.832,-37.109,-29.785,0.000
1750.000,-38.574,-23.438,-34.668,-28.320,0.000
1754.000,-37.109,-23.438,-31.250,-25.879,0.000
1758.000,-41.504,-21.973,-35.645,-36.621,0.000
1762.000,-41.016,-23.926,-41.016,-46.875,0.000
1766.000,-46.875,-27.344,-37.598,-41.016,0.000
1769.000,-50.293,-26.855,-39.062,-48.828,0.000
1773.000,-54.199,-28.320,-43.945,-52.246,0.000
1777.000,-51.758,-31.250,-41.504,-40.527,0.000
1781.000,-44.922,-30.273,-37.109,-31.738,0.000
1785.000,-47.852,-26.367,-35.156,-37.109,0.000
1789.000,-54.688,-28.320,-35.156,-39.062,0.000
1793.000,-48.340,-28.809,-38.086,-38.086,0.000
1797.000,-33.691,-24.902,-38.086,-34.668,0.000
1801.000,-30.273,-25.879,-37.598,-30.273,0.000
1805.000,-39.551,-28.320,-40.527,-35.156,0.000
1809.000,-45.898,-28.320,-38.086,-36.621,0.000
1812.000,-45.410,-35.645,-38.574,-41.016,0.000
1816.000,-57.617,-35.156,-38.574,-39.551,0.000
1820.000,-62.012,-31.250,-35.645,-29.297,0.000
1824.000,-54.199,-30.273,-36.133,-26.855,0.000
1828.000,-49.316,-26.855,-37.109,-39.551,0.000
1832.000,-47.852,-25.391,-35.156,-32.227,0.000
1836.000,-44.922,-26.367,-35.645,-21.484,0.000
1840.000,-36.621,-26.855,-35.645,-30.273,0.000
1844.000,-42.969,-34.180,-39.551,-31.250,0.000
1848.000,-45.898,-34.180,-41.016,-23.438,0.000
1852.000,-47.363,-33.691,-38.086,-26.855,0.000
1855.000,-47.852,-39.062,-39.062,-27.344,0.000
1859.000,-40.039,-42.480,-37.109,-25.879,0.000
1863.000,-41.992,-38.574,-36.133,-26.855,0.000
1867.000,-47.852,-34.180,-34.668,-25.391,0.000
1871.000,-51.758,-38.574,-34.180,-26.855,0.000
1875.000,-53.711,-36.621,-28.809,-33.691,0.000
1879.000,-49.316,-32.227,-26.367,-31.738,0.000
1883.000,-47.363,-35.645,-27.832,-23.926,0.000
1887.000,-42.480,-36.133,-29.785,-18.066,0.000
1891.000,-37.109,-33.691,-33.203,-19.043,0.000
1894.000,-23.438,-31.250,-32.227,-21.484,0.000
1898.000,-13.184,-28.320,-30.762,-16.113,0.000
1902.000,-30.273,-25.391,-32.227,-10.254,0.000
1906.000,-42.480,-25.879,-35.156,-9.277,0.000
1910.000,-39.062,-31.250,-34.668,-14.648,0.000
1914.000,-39.062,-32.715,-36.621,-13.184,0.000
1918.000,-41.504,-30.762,-34.180,-12.695,0.000
1922.000,-35.156,-31.250,-31.250,-16.113,0.000
1926.000,-32.227,-31.250,-32.715,-21.484,0.000
1930.000,-38.574,-30.762,-31.738,-25.391,0.000
1934.000,-35.645,-33.691,-29.297,-28.809,0.000
1937.000,-31.738,-32.715,-32.227,-35.156,0.000
1941.000,-35.156,-33.691,-38.086,-34.180,0.000
1945.000,-38.086,-34.180,-40.527,-14.648,0.000
1949.000,-50.293,-31.738,-35.156,-8.301,0.000
1953.000,-76.660,-41.992,-28.320,-41.016,0.000
1957.000,-76.660,-47.852,-23.926,-51.758,0.000
1961.000,-61.035,-42.480,-24.414,-24.414,0.000
1965.000,-59.082,-45.410,-26.367,-22.461,0.000
1969.000,-60.059,-50.293,-19.531,-29.297,0.000
1973.000,-60.059,-54.688,-11.719,-28.809,0.000
1977.000,-57.617,-55.664,-10.254,-37.598,0.000
1980.000,-52.246,-63.477,-11.230,-34.668,0.000
1984.000,-50.781,-67.871,-9.766,-20.508,0.000
1988.000,-54.199,-70.801,-8.301,-21.973,0.000
1992.000,-50.781,-75.195,-3.906,-20.020,0.000
1996.000,-38.574,-71.777,1.953,-10.742,0.000
2000.000,-33.203,-74.219,1.465,-10.742,0.000
2004.000,-38.086,-81.543,4.395,-5.371,0.000
2008.000,-44.434,-80.566,6.348,-6.348,0.000
2012.000,-42.969,-81.543,1.465,-13.184,0.000
2016.000,-52.734,-81.543,9.766,-0.488,0.000
2019.000,-66.895,-77.637,16.602,3.418,0.000
2023.000,-58.105,-82.031,7.324,-7.324,0.000
2027.000,-58.105,-86.426,6.836,-8.301,0.000
2031.000,-65.918,-90.332,11.230,1.465,0.000
2035.000,-62.012,-92.773,15.137,5.859,0.000
2039.000,-56.641,-89.844,11.719,-7.324,0.000
2043.000,-65.430,-91.309,15.625,-6.348,0.000
2047.000,-75.684,-87.402,23.438,9.277,0.000
2051.000,-75.684,-81.543,28.809,12.695,0.000
2055.000,-65.918,-84.961,29.297,0.000,0.000
2059.000,-61.523,-87.402,25.391,-4.883,0.000
2062.000,-58.105,-89.355,25.391,1.953,0.000
2066.000,-53.223,-88.379,21.973,7.812,0.000
2070.000,-52.734,-84.961,20.020,4.395,0.000
2074.000,-46.875,-79.590,26.367,10.254,0.000
2078.000,-38.574,-77.148,27.344,15.137,0.000
2082.000,-35.156,-77.637,26.367,4.883,0.000
2086.000,-34.668,-73.730,22.461,-4.395,0.000
2090.000,-16.113,-67.871,16.602,5.371,0.000
2094.000,20.020,-62.500,22.949,16.602,0.000
2098.000,2.441,-68.359,18.555,14.648,0.000
2102.000,-48.340,-66.895,16.602,25.391,0.000
2105.000,-52.246,-60.547,22.949,29.785,0.000
2109.000,-37.598,-61.035,17.090,26.367,0.000
2113.000,-30.273,-63.965,12.695,25.879,0.000
2117.000,-30.273,-66.406,13.184,25.879,0.000
2121.000,-21.973,-58.105,11.230,27.832,0.000
2125.000,1.953,-54.199,8.789,32.227,0.000
2129.000,11.230,-57.129,7.812,35.645,0.000
2133.000,-5.371,-55.176,5.371,36.621,0.000
2137.000,-20.020,-52.734,0.000,28.809,0.000
2141.000,-17.090,-54.199,-5.371,24.414,0.000
2144.000,-12.695,-53.711,-5.859,16.602,0.000
2148.000,-13.184,-52.246,-1.465,10.254,0.000
2152.000,-9.766,-50.781,-5.859,18.555,0.000
2156.000,-6.836,-51.270,-6.348,20.020,0.000
2160.000,-9.766,-50.781,-2.930,0.977,0.000
2164.000,-12.207,-47.852,-8.301,-2.441,0.000
2168.000,-16.602,-49.805,-12.207,7.324,0.000
2172.000,-16.113,-44.434,-11.230,9.766,0.000
2176.000,-4.883,-39.551,-15.137,0.488,0.000
2180.000,9.277,-39.551,-17.090,3.418,0.000
2184.000,23.926,-40.039,-13.184,14.648,0.000
2187.000,22.461,-40.527,-14.648,5.859,0.000
2191.000,6.348,-43.457,-16.113,4.883,0.000
2195.000,-15.137,-45.898,-17.578,13.672,0.000
2199.000,-38.086,-45.898,-16.113,11.230,0.000
2203.000,-45.410,-43.945,-14.648,0.000,0.000
2207.000,-42.480,-44.434,-14.160,-5.859,0.000
2211.000,-26.367,-44.434,-15.137,0.977,0.000
2215.000,-16.602,-44.434,-16.602,-5.859,0.000
2219.000,-18.066,-41.992,-15.625,-3.418,0.000
2223.000,-27.344,-43.457,-19.043,-3.418,0.000
2227.000,-31.250,-46.387,-22.461,-7.812,0.000
2230.000,-20.996,-39.551,-18.555,6.836,0.000
2234.000,-24.902,-38.574,-15.137,5.371,0.000
2238.000,-41.016,-43.945,-18.555,-13.184,0.000
2242.000,-33.691,-44.922,-22.461,-14.160,0.000
2246.000,-20.020,-40.039,-22.461,-17.090,0.000
2250.000,-25.879,-33.203,-23.926,-15.137,0.000
2254.000,-29.297,-31.738,-28.320,-9.277,0.000
2258.000,-30.762,-29.785,-31.738,-19.043,0.000
2262.000,-30.762,-30.762,-36.621,-15.625,0.000
2266.000,-31.250,-36.133,-39.062,-2.930,0.000
2269.000,-29.785,-36.621,-40.527,-10.254,0.000
2273.000,-25.879,-36.133,-41.504,-16.113,0.000
2277.000,-30.273,-34.180,-37.109,-10.254,0.000
2281.000,-23.438,-28.320,-36.133,-9.277,0.000
2285.000,-12.695,-27.832,-38.086,-25.391,0.000
2289.000,-14.648,-33.203,-45.898,-31.250,0.000
2293.000,-24.414,-35.645,-47.363,-29.785,0.000
2297.000,-15.625,-30.273,-44.922,-22.461,0.000
2301.000,-7.812,-27.344,-41.016,-17.578,0.000
2305.000,-17.090,-33.203,-40.527,-22.461,0.000
2309.000,-13.672,-31.250,-45.410,-10.742,0.000
2312.000,-11.719,-26.855,-44.922,3.906,0.000
2316.000,-22.461,-25.879,-41.016,-3.906,0.000
2320.000,-24.414,-22.461,-40.039,-13.672,0.000
2324.000,-13.672,-25.879,-41.016,-22.461,0.000
2328.000,-5.371,-33.691,-44.434,-33.203,0.000
2332.000,-12.207,-31.738,-42.480,-26.367,0.000
2336.000,-22.461,-28.320,-39.551,-21.484,0.000
2340.000,-27.344,-33.203,-41.016,-26.855,0.000
2344.000,-36.133,-35.156,-38.574,-24.414,0.000
2348.000,-54.199,-37.109,-33.691,-23.438,0.000
2352.000,-50.781,-41.016,-32.715,-21.973,0.000
2355.000,-28.320,-35.645,-32.715,-8.789,0.000
2359.000,-38.574,-21.973,-44.434,-17.090,0.000
2363.000,-58.105,-20.508,-52.246,-46.875,0.000
2367.000,-63.477,-24.414,-52.734,-61.035,0.000
2371.000,-68.848,-23.438,-51.758,-64.453,0.000
2375.000,-68.848,-14.160,-52.734,-67.871,0.000
2379.000,-73.242,-9.277,-60.059,-77.148,0.000
2383.000,-62.988,-6.836,-61.035,-83.984,0.000
2387.000,-70.801,-4.883,-60.059,-83.984,0.000
2391.000,-93.262,-0.977,-68.848,-84.473,0.000
2394.000,-79.590,6.348,-74.219,-94.727,0.000
2398.000,-85.449,8.301,-78.613,-116.211,0.000
2402.000,-82.520,13.184,-81.055,-116.211,0.000
2406.000,-62.012,21.484,-79.590,-104.980,0.000
2410.000,-60.547,21.973,-84.473,-109.863,0.000
2414.000,-55.176,26.855,-86.426,-110.352,0.000
2418.000,-72.266,27.832,-88.867,-112.793,0.000
2422.000,-83.496,24.902,-88.379,-116.699,0.000
2426.000,-83.984,26.855,-85.938,-110.840,0.000
2430.000,-88.379,28.320,-90.332,-113.770,0.000
2434.000,-78.125,27.832,-91.309,-116.211,0.000
2437.000,-69.336,29.297,-90.332,-110.840,0.000
2441.000,-75.195,27.832,-89.844,-111.816,0.000
2445.000,-83.984,25.391,-91.309,-107.422,0.000
2449.000,-85.449,26.367,-90.820,-104.492,0.000
2453.000,-87.402,23.438,-88.867,-104.492,0.000
2457.000,-82.031,17.578,-88.379,-101.562,0.000
2461.000,-82.031,17.090,-85.449,-94.238,0.000
2465.000,-68.848,20.020,-83.496,-84.473,0.000
2469.000,-57.617,17.578,-81.055,-73.730,0.000
2473.000,-49.316,11.719,-77.637,-78.613,0.000
2477.000,-46.387,9.277,-69.336,-74.707,0.000
2480.000,-58.594,7.324,-65.918,-59.570,0.000
2484.000,-55.664,3.906,-67.871,-66.895,0.000
2488.000,-43.457,2.930,-60.059,-62.988,0.000
2492.000,-37.598,0.000,-57.617,-54.199,0.000
2496.000,-34.668,-0.488,-57.617,-55.664,0.000
2500.000,-34.180,0.000,-52.734,-58.594,0.000
2504.000,-29.297,-2.930,-52.246,-55.176,0.000
2508.000,-25.391,-3.906,-52.246,-53.223,0.000
2512.000,-24.414,-9.766,-49.805,-50.781,0.000
2516.000,-25.879,-9.766,-50.781,-44.434,0.000
2519.000,-40.039,-13.184,-51.270,-46.387,0.000
2523.000,-49.316,-15.137,-48.340,-40.527,0.000
2527.000,-52.246,-11.230,-42.969,-30.762,0.000
2531.000,-60.547,-14.648,-45.898,-35.645,0.000
2535.000,-59.570,-13.672,-44.922,-42.969,0.000
2539.000,-50.781,-10.742,-37.598,-44.922,0.000
2543.000,-46.387,-11.719,-38.574,-40.039,0.000
2547.000,-43.945,-15.625,-44.922,-32.227,0.000
2551.000,-43.945,-14.160,-41.504,-34.668,0.000
2555.000,-41.504,-13.672,-35.645,-41.016,0.000
2559.000,-31.250,-14.160,-35.645,-30.273,0.000
2562.000,-20.996,-17.090,-36.621,-21.973,0.000
2566.000,-34.180,-21.973,-38.086,-24.414,0.000
2570.000,-48.828,-20.508,-35.645,-26.855,0.000
2574.000,-39.551,-19.531,-32.715,-24.414,0.000
2578.000,-31.250,-22.461,-36.621,-25.391,0.000
2582.000,-30.273,-21.484,-39.551,-28.809,0.000
2586.000,-26.367,-18.555,-38.574,-33.203,0.000
2590.000,-25.391,-18.555,-35.156,-31.738,0.000
2594.000,-26.855,-19.043,-32.715,-27.832,0.000
2598.000,-22.949,-19.531,-28.320,-33.203,0.000
2602.000,-24.414,-18.555,-32.227,-29.785,0.000
2605.000,-22.949,-20.996,-41.504,-20.996,0.000
2609.000,-29.785,-27.832,-43.457,-23.926,0.000
2613.000,-34.180,-28.809,-39.062,-26.367,0.000
2617.000,-38.086,-25.391,-35.156,-23.926,0.000
2621.000,-49.316,-23.438,-36.133,-23.926,0.000
2625.000,-49.805,-23.926,-37.598,-25.391,0.000
2629.000,-35.645,-22.461,-35.156,-26.367,0.000
2633.000,-29.297,-22.461,-35.645,-22.461,0.000
2637.000,-49.805,-23.926,-40.039,-25.391,0.000
2641.000,-44.922,-26.367,-38.574,-30.273,0.000
2644.000,-32.715,-27.832,-36.133,-25.879,0.000
2648.000,-30.273,-27.832,-36.133,-31.738,0.000
2652.000,-27.344,-28.320,-35.645,-26.855,0.000
2656.000,-39.551,-30.762,-35.645,-22.949,0.000
2660.000,-31.738,-26.367,-33.691,-28.320,0.000
2664.000,-26.367,-19.531,-27.344,-24.414,0.000
2668.000,-35.156,-20.996,-28.320,-24.902,0.000
2672.000,-38.086,-22.949,-34.180,-27.832,0.000
2676.000,-36.133,-22.461,-35.645,-17.578,0.000
2680.000,-27.344,-25.391,-35.156,-20.020,0.000
2684.000,-25.879,-28.809,-39.062,-37.109,0.000
2687.000,-26.367,-28.320,-34.668,-36.133,0.000
2691.000,-27.832,-23.438,-28.809,-31.250,0.000
2695.000,-34.668,-23.926,-31.738,-32.715,0.000
2699.000,-27.832,-25.879,-35.645,-31.738,0.000
2703.000,-36.133,-26.855,-32.227,-27.832,0.000
2707.000,-49.805,-27.832,-27.344,-24.902,0.000
2711.000,-51.270,-29.297,-28.809,-30.273,0.000
2715.000,-50.781,-30.273,-31.250,-32.715,0.000
2719.000,-46.387,-29.297,-29.785,-26.367,0.000
2723.000,-52.246,-33.203,-30.273,-21.973,0.000
2726.000,-59.082,-32.715,-34.668,-24.414,0.000
2730.000,-55.176,-33.691,-33.203,-32.715,0.000
2734.000,-56.641,-41.016,-27.832,-36.133,0.000
2738.000,-59.082,-40.039,-25.391,-31.250,0.000
2742.000,-53.711,-36.621,-24.414,-24.414,0.000
2746.000,-51.758,-39.551,-26.367,-20.996,0.000
2750.000,-35.645,-35.156,-22.949,0.000,0.000
2754.000,-16.602,-24.902,-16.113,20.020,0.000
2758.000,-34.668,-32.715,-24.414,-7.812,0.000
2762.000,-47.363,-41.504,-24.414,-21.973,0.000
2766.000,-40.527,-40.527,-18.555,-7.324,0.000
2769.000,-33.203,-41.504,-16.113,0.000,0.000
2773.000,-22.949,-42.480,-11.230,-6.348,0.000
2777.000,-32.715,-46.875,-13.672,-7.324,0.000
2781.000,-38.086,-60.059,-17.090,-8.789,0.000
2785.000,-37.598,-69.336,-10.742,-2.930,0.000
2789.000,-38.086,-70.312,-7.812,9.277,0.000
2793.000,-20.996,-77.148,-15.625,-6.836,0.000
2797.000,-8.301,-82.520,-8.789,-7.812,0.000
2801.000,-27.832,-80.078,6.348,15.137,0.000
2805.000,-41.016,-79.102,7.324,22.461,0.000
2809.000,-37.109,-82.031,1.465,19.043,0.000
2812.000,-41.992,-83.984,0.977,19.043,0.000
2816.000,-40.039,-81.543,-0.488,14.648,0.000
2820.000,-39.551,-83.496,-1.953,12.695,0.000
2824.000,-39.062,-83.496,1.465,14.160,0.000
2828.000,-26.367,-82.031,5.371,13.672,0.000
2832.000,-23.926,-80.566,3.906,11.230,0.000
2836.000,-31.250,-82.031,2.930,9.766,0.000
2840.000,-33.203,-86.426,6.348,17.090,0.000
2844.000,-33.203,-86.914,9.766,26.367,0.000
2848.000,-25.391,-85.449,12.207,24.902,0.000
2851.000,-23.438,-83.008,12.695,28.809,0.000
2855.000,-15.625,-79.102,16.113,33.203,0.000
2859.000,-9.766,-78.613,19.531,25.879,0.000
2863.000,-13.184,-81.055,23.438,24.902,0.000
2867.000,-15.625,-80.566,19.043,14.160,0.000
2871.000,-16.113,-75.684,15.137,6.348,0.000
2875.000,-15.625,-72.754,19.043,8.301,0.000
2879.000,-15.625,-71.289,18.555,11.719,0.000
2883.000,-6.836,-71.777,20.020,9.277,0.000
2887.000,-8.789,-69.336,19.531,4.883,0.000
2891.000,-27.344,-69.336,16.113,6.348,0.000
2894.000,-41.504,-69.824,20.020,8.789,0.000
2898.000,-49.316,-67.383,21.973,12.207,0.000
2902.000,-66.895,-70.801,21.484,12.207,0.000
2906.000,-69.824,-75.684,19.531,8.301,0.000
2910.000,-47.852,-70.312,17.090,0.488,0.000
2914.000,-40.039,-67.871,15.137,-4.395,0.000
2918.000,-38.086,-69.824,14.160,-3.906,0.000
2922.000,-40.527,-68.848,14.160,-0.977,0.000
2926.000,-47.852,-68.359,8.301,-1.953,0.000
2930.000,-41.992,-66.895,5.859,3.418,0.000
2934.000,-28.320,-62.012,6.348,8.789,0.000
2937.000,-20.996,-58.105,5.371,-4.883,0.000
2941.000,-17.090,-58.594,-2.441,-12.207,0.000
2945.000,-22.461,-59.082,-3.906,1.465,0.000
2949.000,-29.785,-54.688,0.488,7.812,0.000
2953.000,-30.273,-51.758,-4.395,-1.953,0.000
2957.000,-19.531,-45.410,-5.371,-4.395,0.000
2961.000,-14.160,-39.551,-8.789,-7.812,0.000
2965.000,-17.578,-41.992,-14.648,-9.277,0.000
2969.000,-13.672,-46.875,-14.160,-7.812,0.000
2973.000,-3.418,-45.410,-13.184,-17.090,0.000
2976.000,5.371,-46.387,-14.648,-12.695,0.000
2980.000,15.137,-44.922,-14.160,-7.324,0.000
2984.000,0.000,-41.016,-12.695,-1.953,0.000
2988.000,-69.336,-48.828,-9.766,9.277,0.000
2992.000,-80.078,-52.246,-11.230,1.953,0.000
2996.000,-46.875,-44.922,-15.137,-10.254,0.000
3000.000,-43.457,-45.410,-12.695,-20.020,0.000
3004.000,-43.945,-45.898,-12.207,-19.043,0.000
3008.000,-40.039,-40.039,-14.648,-6.348,0.000
3012.000,-49.316,-41.016,-21.973,-7.324,0.000
3016.000,-53.223,-42.969,-19.531,-10.742,0.000
3019.000,-52.734,-38.086,-14.648,-4.395,0.000
3023.000,-42.969,-32.227,-18.555,-4.883,0.000
3027.000,-33.203,-35.156,-24.902,-11.230,0.000
3031.000,-29.785,-37.598,-22.949,-10.742,0.000
3035.000,-33.203,-39.551,-19.531,-11.719,0.000
3039.000,-32.227,-39.551,-20.996,-17.090,0.000
3043.000,-31.250,-40.527,-21.484,-14.160,0.000
3047.000,-35.645,-41.504,-25.391,-22.461,0.000
3051.000,-34.180,-37.598,-24.414,-22.949,0.000
3055.000,-29.785,-33.691,-18.066,-9.277,0.000
3059.000,-26.367,-31.250,-20.996,-8.301,0.000
3062.000,-24.414,-31.738,-25.879,-13.184,0.000
3066.000,-12.695,-33.203,-25.879,-16.602,0.000
3070.000,-13.672,-33.203,-28.320,-20.996,0.000
3074.000,-24.414,-38.086,-35.156,-22.949,0.000
3078.000,-19.043,-39.062,-37.598,-20.020,0.000
3082.000,-15.625,-31.250,-31.738,-16.602,0.000
3086.000,-22.461,-33.691,-30.273,-8.789,0.000
3090.000,-20.996,-32.715,-30.273,-10.742,0.000
3094.000,-24.902,-26.367,-29.297,-19.043,0.000
3098.000,-51.270,-30.273,-31.738,-18.066,0.000
3101.000,-45.898,-28.809,-30.762,-13.672,0.000
3105.000,-33.691,-30.273,-30.762,-21.973,0.000
3109.000,-39.062,-32.227,-31.738,-19.043,0.000
3113.000,-33.691,-30.273,-31.738,-14.160,0.000
3117.000,-33.691,-28.320,-32.227,-24.414,0.000
3121.000,-31.250,-26.367,-36.133,-26.367,0.000
3125.000,-36.133,-33.691,-40.527,-25.391,0.000
3129.000,-39.551,-37.598,-41.504,-24.414,0.000
3133.000,-30.762,-34.180,-39.062,-17.090,0.000
3137.000,-29.297,-35.156,-40.527,-19.531,0.000
3141.000,-34.180,-38.086,-44.434,-30.762,0.000
3144.000,-30.762,-34.668,-45.410,-27.832,0.000
3148.000,-35.156,-28.809,-42.969,-21.973,0.000
3152.000,-29.297,-32.715,-42.969,-23.438,0.000
3156.000,-16.602,-35.645,-41.992,-15.625,0.000
3160.000,-17.090,-36.133,-41.992,-22.949,0.000
3164.000,-21.484,-34.180,-44.922,-32.715,0.000
3168.000,-25.391,-29.297,-37.109,-17.578,0.000
3172.000,-26.367,-34.668,-38.574,-18.066,0.000
3176.000,-25.879,-37.109,-47.852,-24.902,0.000
3180.000,-28.809,-32.227,-38.086,-18.066,0.000
3184.000,-35.156,-31.738,-31.250,-14.648,0.000
3187.000,-33.691,-34.180,-32.227,-23.926,0.000
3191.000,-30.273,-33.691,-32.227,-28.809,0.000
3195.000,-39.062,-28.809,-33.203,-21.484,0.000
3199.000,-46.387,-33.203,-29.785,-31.250,0.000
3203.000,-42.969,-39.062,-26.367,-31.250,0.000
3207.000,-18.066,-34.180,-25.391,-10.742,0.000
3211.000,-2.441,-20.996,-32.227,-10.254,0.000
3215.000,-18.555,-11.230,-38.086,-22.949,0.000
3219.000,-29.785,-11.230,-41.504,-34.180,0.000
3223.000,-35.156,-13.672,-50.781,-52.246,0.000
3226.000,-55.176,-16.602,-51.758,-61.035,0.000
3230.000,-71.289,-9.766,-50.293,-61.523,0.000
3234.000,-66.895,-4.395,-53.711,-64.941,0.000
3238.000,-69.336,-0.488,-54.688,-66.406,0.000
3242.000,-80.078,2.441,-62.012,-87.402,0.000
3246.000,-78.613,2.441,-70.801,-98.145,0.000
3250.000,-81.543,5.859,-67.871,-101.562,0.000
3254.000,-90.332,13.672,-70.312,-105.469,0.000
3258.000,-85.938,14.648,-72.266,-106.934,0.000
3262.000,-64.941,14.648,-68.359,-106.445,0.000
3266.000,-54.688,17.090,-71.289,-95.703,0.000
3269.000,-83.496,22.461,-75.684,-95.703,0.000
3273.000,-91.797,23.926,-78.125,-103.027,0.000
3277.000,-80.078,25.391,-85.449,-104.004,0.000
3281.000,-69.824,32.227,-84.473,-94.238,0.000
3285.000,-67.383,24.902,-83.496,-91.309,0.000
3289.000,-73.730,25.391,-85.449,-98.633,0.000
3293.000,-74.219,32.227,-84.473,-96.191,0.000
3297.000,-78.613,29.297,-83.984,-86.426,0.000
3301.000,-67.871,30.762,-84.473,-72.266,0.000
3305.000,-61.035,35.645,-81.543,-77.148,0.000
3309.000,-52.246,37.109,-82.031,-83.984,0.000
3312.000,-34.668,35.645,-85.938,-89.844,0.000
3316.000,-28.320,30.762,-83.008,-86.914,0.000
3320.000,-54.688,25.391,-82.520,-76.660,0.000
3324.000,-74.219,24.902,-80.566,-82.031,0.000
3328.000,-63.965,24.902,-74.219,-70.801,0.000
3332.000,-61.035,26.855,-75.195,-65.430,0.000
3336.000,-62.012,22.949,-73.242,-64.453,0.000
3340.000,-55.176,19.043,-72.754,-58.105,0.000
3344.000,-51.758,17.090,-72.266,-60.059,0.000
3348.000,-55.664,6.348,-74.219,-67.383,0.000
3351.000,-49.316,0.488,-67.871,-68.359,0.000
3355.000,-44.434,0.000,-64.453,-56.641,0.000
3359.000,-41.992,-7.812,-66.895,-48.828,0.000
3363.000,-33.691,-7.324,-63.477,-55.664,0.000
3367.000,-34.180,-2.930,-63.477,-62.500,0.000
3371.000,-35.645,-11.719,-64.453,-63.477,0.000
3375.000,-22.949,-14.648,-61.523,-59.570,0.000
3379.000,-33.691,-9.766,-58.105,-49.316,0.000
3383.000,-48.828,-11.719,-58.105,-49.316,0.000
3387.000,-44.434,-12.207,-55.664,-53.711,0.000
3391.000,-36.133,-13.672,-53.711,-60.059,0.000
3394.000,-30.273,-17.578,-55.176,-62.012,0.000
3398.000,-30.762,-20.508,-53.711,-51.270,0.000
3402.000,-41.016,-17.578,-52.246,-40.039,0.000
3406.000,-41.992,-14.648,-47.363,-30.273,0.000
3410.000,-41.504,-18.066,-44.434,-29.785,0.000
3414.000,-52.734,-19.531,-46.387,-33.203,0.000
3418.000,-39.551,-17.090,-41.992,-40.039,0.000
3422.000,-35.156,-21.484,-41.016,-41.992,0.000
3426.000,-41.016,-23.438,-37.598,-38.086,0.000
3430.000,-46.875,-23.926,-34.668,-35.156,0.000
3434.000,-53.711,-25.391,-35.156,-29.785,0.000
3437.000,-52.246,-21.973,-35.645,-26.855,0.000
3441.000,-39.551,-19.531,-34.180,-27.832,0.000
3445.000,-23.926,-20.020,-36.133,-24.414,0.000
3449.000,-25.879,-20.020,-33.203,-25.391,0.000
3453.000,-35.645,-12.695,-26.855,-20.020,0.000
3457.000,-30.762,-16.602,-30.762,-21.973,0.000
3461.000,-23.438,-19.531,-34.180,-26.367,0.000
3465.000,-34.668,-17.578,-38.574,-34.668,0.000
3469.000,-48.340,-26.855,-42.969,-53.711,0.000
3473.000,-51.270,-29.785,-43.457,-57.617,0.000
3476.000,-46.875,-27.344,-42.969,-45.410,0.000
3480.000,-34.668,-23.926,-39.551,-38.086,0.000
3484.000,-32.715,-21.484,-37.598,-41.504,0.000
3488.000,-45.898,-20.508,-33.691,-36.621,0.000
3492.000,-41.016,-23.926,-31.250,-31.250,0.000
3496.000,-32.227,-28.320,-36.621,-33.691,0.000
3500.000,-24.902,-25.879,-40.527,-34.180,0.000
3504.000,-30.273,-23.438,-41.992,-23.438,0.000
3508.000,-38.086,-22.949,-40.527,-21.973,0.000
3512.000,-30.762,-23.926,-38.574,-36.621,0.000
3516.000,-33.203,-24.902,-39.062,-40.039,0.000
3519.000,-39.062,-27.344,-38.086,-35.645,0.000
3523.000,-44.922,-30.762,-35.645,-36.133,0.000
3527.000,-38.086,-25.391,-36.621,-38.086,0.000
3531.000,-35.156,-26.367,-37.109,-31.250,0.000
3535.000,-44.434,-33.203,-32.227,-32.227,0.000
3539.000,-40.039,-38.086,-37.598,-33.691,0.000
3543.000,-35.645,-36.621,-41.016,-20.996,0.000
3547.000,-26.855,-25.879,-36.133,-23.926,0.000
3551.000,-22.949,-25.879,-34.668,-25.391,0.000
3555.000,-26.855,-28.809,-35.645,-24.414,0.000
3559.000,-21.973,-24.902,-37.109,-26.855,0.000
3562.000,-31.250,-22.461,-37.109,-25.391,0.000
3566.000,-41.016,-24.414,-39.551,-32.715,0.000
3570.000,-44.922,-29.297,-40.527,-29.785,0.000
3574.000,-48.828,-32.227,-32.715,-29.297,0.000
3578.000,-51.758,-29.785,-29.297,-30.273,0.000
3582.000,-38.086,-29.297,-32.715,-21.484,0.000
3586.000,-28.320,-27.344,-30.762,-25.391,0.000
3590.000,-32.715,-24.902,-32.227,-29.785,0.000
3594.000,-28.320,-28.809,-33.691,-31.250,0.000
3598.000,-35.645,-27.832,-31.738,-31.250,0.000
3601.000,-38.574,-24.902,-31.738,-23.926,0.000
3605.000,-38.574,-21.973,-31.738,-14.648,0.000
3609.000,-50.293,-21.484,-31.738,-14.160,0.000
3613.000,-48.340,-27.344,-33.691,-16.602,0.000
3617.000,-32.715,-28.320,-34.668,-14.160,0.000
3621.000,-39.062,-28.320,-34.180,-15.137,0.000
3625.000,-53.711,-32.227,-32.227,-20.508,0.000
3629.000,-44.434,-26.367,-31.250,-17.578,0.000
3633.000,-37.109,-20.020,-27.832,-23.926,0.000
3637.000,-35.156,-24.902,-24.902,-25.879,0.000
3641.000,-31.738,-25.391,-30.273,-18.555,0.000
3644.000,-28.809,-25.391,-37.109,-30.762,0.000
3648.000,-22.949,-29.785,-37.109,-43.457,0.000
3652.000,-19.531,-29.785,-36.133,-46.387,0.000
3656.000,-20.020,-29.785,-42.969,-43.945,0.000
3660.000,-7.324,-29.785,-43.945,-32.715,0.000
3664.000,-24.902,-23.926,-33.691,-31.250,0.000
3668.000,-77.148,-32.715,-29.297,-44.922,0.000
3672.000,-95.703,-40.527,-28.320,-58.594,0.000
3676.000,-89.844,-45.898,-27.832,-59.082,0.000
3680.000,-94.727,-55.176,-25.391,-58.594,0.000
3684.000,-109.863,-57.617,-18.066,-73.242,0.000
3687.000,-115.234,-59.082,-12.207,-80.566,0.000
3691.000,-109.863,-63.477,-7.324,-83.984,0.000
3695.000,-120.605,-67.383,0.977,-90.332,0.000
3699.000,-136.230,-71.289,10.742,-90.332,0.000
3703.000,-136.719,-70.312,17.090,-87.402,0.000
3707.000,-147.461,-74.219,5.371,-109.375,0.000
3711.000,-149.414,-83.496,0.488,-110.352,0.000
3715.000,-141.602,-82.520,13.184,-93.750,0.000
3719.000,-148.926,-81.543,22.461,-88.867,0.000
3723.000,-149.414,-85.938,20.996,-84.473,0.000
3726.000,-142.578,-93.750,21.484,-92.773,0.000
3730.000,-142.578,-100.098,26.855,-97.656,0.000
3734.000,-140.625,-98.633,28.809,-93.750,0.000
3738.000,-127.441,-94.238,31.738,-75.684,0.000
3742.000,-124.023,-100.586,33.203,-74.219,0.000
3746.000,-130.859,-109.375,33.691,-80.078,0.000
3750.000,-120.605,-106.445,29.297,-81.543,0.000
3754.000,-101.562,-99.609,27.344,-74.707,0.000
3758.000,-96.191,-100.098,32.227,-59.570,0.000
3762.000,-88.379,-97.168,33.691,-51.758,0.000
3766.000,-89.844,-97.168,30.762,-38.574,0.000
3769.000,-116.699,-102.051,30.762,-35.156,0.000
3773.000,-114.746,-97.656,30.273,-27.344,0.000
3777.000,-85.938,-94.238,26.855,-20.996,0.000
3781.000,-72.266,-91.309,26.367,-30.762,0.000
3785.000,-70.801,-85.938,26.855,-18.066,0.000
3789.000,-70.312,-83.984,19.531,-10.254,0.000
3793.000,-61.523,-85.449,20.020,1.465,0.000
3797.000,-49.316,-85.449,21.973,8.789,0.000
3801.000,-42.480,-76.172,20.508,14.160,0.000
3805.000,-36.621,-74.219,22.949,34.668,0.000
3809.000,-23.926,-75.195,21.484,41.992,0.000
3812.000,-20.508,-73.242,17.090,25.391,0.000
3816.000,-20.020,-68.848,11.719,18.066,0.000
3820.000,-4.883,-67.871,10.254,22.949,0.000
3824.000,4.883,-69.824,10.254,30.273,0.000
3828.000,-4.883,-63.965,6.836,24.902,0.000
3832.000,-12.695,-61.035,1.953,19.043,0.000
3836.000,0.000,-59.082,-1.465,34.180,0.000
3840.000,12.695,-49.805,1.465,41.992,0.000
3844.000,10.742,-45.410,-0.977,37.109,0.000
3848.000,5.371,-47.363,-3.418,30.762,0.000
3851.000,11.230,-45.898,-4.883,39.551,0.000
3855.000,7.324,-46.387,-5.371,42.969,0.000
3859.000,5.371,-47.363,-7.812,30.762,0.000
3863.000,24.902,-48.828,-14.160,29.785,0.000
3867.000,29.297,-53.223,-13.672,35.645,0.000
3871.000,13.184,-49.805,-16.113,35.645,0.000
3875.000,16.602,-42.480,-19.531,36.133,0.000
3879.000,11.719,-42.969,-14.648,32.715,0.000
3883.000,-4.883,-43.945,-18.066,25.391,0.000
3887.000,-11.719,-46.875,-12.207,23.926,0.000
3891.000,-10.254,-50.781,-5.371,40.039,0.000
3894.000,0.977,-42.969,-15.625,44.434,0.000
3898.000,-7.324,-40.527,-21.484,30.273,0.000
3902.000,-16.602,-44.922,-18.555,19.043,0.000
3906.000,-2.930,-41.504,-17.578,21.484,0.000
3910.000,-0.488,-42.480,-20.996,18.555,0.000
3914.000,-4.395,-41.504,-21.973,14.160,0.000
3918.000,1.953,-32.715,-20.508,17.578,0.000
3922.000,1.465,-32.715,-21.973,9.766,0.000
3926.000,3.906,-34.668,-22.461,5.371,0.000
3930.000,4.883,-30.762,-26.855,5.859,0.000
3934.000,1.465,-31.738,-29.785,7.812,0.000
3937.000,-0.977,-30.273,-26.855,2.441,0.000
3941.000,-2.441,-27.832,-29.297,5.371,0.000
3945.000,4.883,-28.809,-33.203,9.277,0.000
3949.000,-4.883,-29.785,-31.250,7.812,0.000
3953.000,-13.184,-31.250,-27.344,7.812,0.000
3957.000,-1.953,-31.738,-30.273,1.953,0.000
3961.000,9.277,-31.250,-32.227,-3.906,0.000
3965.000,-2.930,-35.645,-33.691,-4.883,0.000
3969.000,-24.902,-37.598,-39.551,4.883,0.000
3973.000,-26.855,-33.691,-41.992,6.348,0.000
3976.000,-10.742,-31.738,-39.551,4.395,0.000
3980.000,-2.930,-30.273,-41.992,3.906,0.000
3984.000,-21.973,-27.344,-44.922,7.324,0.000
3988.000,-34.180,-29.785,-42.969,-4.395,0.000
3992.000,-25.391,-32.227,-46.875,-22.949,0.000
3996.000,-18.555,-31.738,-46.387,-16.602,0.000
4000.000,-24.902,-31.250,-42.969,-13.184,0.000
4004.000,-18.066,-31.738,-43.945,-21.484,0.000
4008.000,-8.301,-28.809,-45.410,-28.809,0.000
4012.000,-9.766,-33.203,-46.387,-26.855,0.000
4016.000,-13.184,-35.645,-45.410,-16.602,0.000
4019.000,-24.414,-33.691,-43.457,-20.508,0.000
4023.000,-21.484,-30.273,-41.992,-17.578,0.000
4027.000,-12.207,-29.297,-35.645,-5.859,0.000
4031.000,-8.301,-29.297,-38.086,-11.719,0.000
4035.000,0.488,-25.391,-42.480,-22.461,0.000
4039.000,10.742,-28.320,-44.434,-26.855,0.000
4043.000,-1.465,-31.250,-41.504,-27.344,0.000
4047.000,-34.668,-26.367,-38.086,-19.043,0.000
4051.000,-56.152,-24.414,-36.621,-7.324,0.000
4055.000,-43.945,-20.508,-35.156,-4.883,0.000
4058.000,-32.227,-25.879,-40.039,-9.766,0.000
4062.000,-23.438,-34.668,-43.945,-17.578,0.000
4066.000,-18.555,-27.344,-42.480,-13.672,0.000
4070.000,-19.043,-23.438,-36.621,-8.301,0.000
4074.000,-29.297,-26.367,-33.203,-1.953,0.000
4078.000,-44.434,-28.809,-34.180,-14.648,0.000
4082.000,-45.898,-27.832,-33.691,-28.809,0.000
4086.000,-47.852,-25.879,-39.551,-22.949,0.000
4090.000,-46.387,-29.297,-42.480,-22.949,0.000
4094.000,-27.832,-29.785,-41.016,-20.996,0.000
4098.000,-21.484,-27.832,-39.062,-14.160,0.000
4101.000,-24.414,-26.855,-33.691,-7.812,0.000
4105.000,-30.762,-33.203,-29.785,-11.719,0.000
4109.000,-18.066,-39.551,-29.297,-3.906,0.000
4113.000,6.836,-30.762,-26.367,10.742,0.000
4117.000,1.953,-18.555,-35.156,-2.930,0.000
4121.000,-19.531,-20.996,-42.969,-26.367,0.000
4125.000,-30.273,-18.555,-46.387,-46.387,0.000
4129.000,-33.203,-9.277,-49.805,-48.828,0.000
4133.000,-40.527,-3.906,-48.828,-47.363,0.000
4137.000,-60.547,-2.441,-55.176,-58.594,0.000
4141.000,-64.941,1.953,-54.688,-59.570,0.000
4144.000,-64.941,-1.465,-57.617,-64.941,0.000
4148.000,-77.637,-1.465,-61.523,-77.148,0.000
4152.000,-83.008,8.301,-59.570,-85.449,0.000
4156.000,-91.797,10.742,-65.918,-113.770,0.000
4160.000,-84.961,13.672,-70.801,-117.188,0.000
4164.000,-87.891,22.461,-71.777,-99.121,0.000
4168.000,-116.211,20.996,-75.684,-117.188,0.000
4172.000,-106.445,20.996,-79.102,-121.094,0.000
4176.000,-96.680,20.996,-86.426,-110.840,0.000
4180.000,-97.656,18.066,-88.379,-104.980,0.000
4183.000,-95.215,25.391,-87.402,-101.074,0.000
4187.000,-100.098,32.227,-86.426,-107.910,0.000
4191.000,-73.730,32.715,-79.102,-101.074,0.000
4195.000,-52.246,34.668,-76.660,-92.285,0.000
4199.000,-57.617,33.691,-80.078,-100.586,0.000
4203.000,-61.035,31.250,-80.078,-98.145,0.000
4207.000,-52.246,30.762,-75.195,-81.055,0.000
4211.000,-42.969,31.738,-76.172,-75.195,0.000
4215.000,-53.223,31.738,-79.102,-93.262,0.000
4219.000,-54.199,24.902,-76.660,-100.098,0.000
4223.000,-53.711,24.414,-76.660,-91.309,0.000
4226.000,-51.758,26.855,-74.219,-84.961,0.000
4230.000,-32.227,21.973,-74.707,-83.496,0.000
4234.000,-32.227,18.555,-71.777,-71.289,0.000
4238.000,-25.879,14.648,-67.871,-63.477,0.000
4242.000,-14.160,6.836,-69.824,-63.477,0.000
4246.000,-20.508,4.883,-69.824,-60.059,0.000
4250.000,-20.020,8.301,-62.988,-62.012,0.000
4254.000,-27.344,4.395,-59.082,-55.176,0.000
4258.000,-57.129,-2.930,-60.547,-48.340,0.000
4262.000,-60.547,-7.812,-54.199,-42.969,0.000
4266.000,-51.270,-8.789,-51.758,-41.992,0.000
4269.000,-42.969,-8.789,-52.734,-41.992,0.000
4273.000,-27.832,-15.625,-48.828,-40.039,0.000
4277.000,-23.926,-15.137,-51.758,-38.574,0.000
4281.000,-44.434,-9.277,-52.734,-31.250,0.000
4285.000,-54.688,-12.207,-49.805,-34.180,0.000
4289.000,-42.969,-14.648,-51.270,-37.109,0.000
4293.000,-26.367,-7.324,-51.270,-33.691,0.000
4297.000,-24.414,-12.695,-50.293,-37.598,0.000
4301.000,-27.832,-18.555,-49.316,-31.738,0.000
4305.000,-24.902,-18.066,-50.781,-32.715,0.000
4308.000,-14.648,-21.973,-48.340,-37.109,0.000
4312.000,-12.207,-21.484,-41.016,-33.203,0.000
4316.000,-12.695,-17.090,-41.016,-24.902,0.000
4320.000,-4.883,-15.137,-42.480,-24.902,0.000
4324.000,5.859,-15.625,-38.086,-27.832,0.000
4328.000,15.625,-16.602,-39.551,-28.809,0.000
4332.000,7.324,-18.066,-45.898,-37.598,0.000
4336.000,-13.184,-19.531,-44.434,-35.645,0.000
4340.000,-22.949,-24.902,-44.434,-27.832,0.000
4344.000,-36.621,-26.855,-46.875,-19.043,0.000
4348.000,-45.410,-27.344,-46.387,-20.996,0.000
4351.000,-39.062,-29.297,-45.410,-35.156,0.000
4355.000,-26.367,-29.785,-40.039,-40.527,0.000
4359.000,-18.555,-29.785,-36.621,-33.203,0.000
4363.000,-20.996,-28.320,-40.527,-26.855,0.000
4367.000,-15.625,-27.344,-41.504,-28.320,0.000
4371.000,-23.438,-29.297,-38.574,-25.879,0.000
4375.000,-41.016,-36.621,-39.551,-24.414,0.000
4379.000,-37.598,-31.250,-39.551,-26.367,0.000
4383.000,-24.902,-29.297,-38.574,-34.180,0.000
4387.000,-17.578,-29.297,-32.227,-28.320,0.000
4391.000,-16.602,-25.391,-22.461,-21.484,0.000
4394.000,-14.160,-27.832,-22.461,-18.066,0.000
4398.000,-12.695,-26.855,-28.320,-13.184,0.000
4402.000,-15.137,-26.855,-33.691,-29.785,0.000
4406.000,-7.324,-21.484,-31.738,-32.715,0.000
4410.000,-1.953,-18.555,-27.832,-24.902,0.000
4414.000,-20.020,-23.438,-30.273,-18.066,0.000
4418.000,-37.109,-25.391,-32.715,-12.207,0.000
4422.000,-33.691,-18.555,-31.738,-11.719,0.000
4426.000,-26.367,-17.090,-34.668,-9.766,0.000
4430.000,-21.484,-17.578,-32.715,-8.301,0.000
4433.000,-27.832,-13.672,-27.832,-6.836,0.000
4437.000,-30.273,-20.508,-28.320,-12.695,0.000
4441.000,-20.508,-26.367,-31.738,-28.809,0.000
4445.000,-36.133,-23.438,-30.273,-31.738,0.000
4449.000,-59.082,-21.484,-31.250,-20.996,0.000
4453.000,-54.688,-26.855,-33.691,-21.973,0.000
4457.000,-41.992,-23.926,-33.203,-29.297,0.000
4461.000,-29.297,-20.996,-32.715,-24.414,0.000
4465.000,-30.273,-21.973,-26.855,-8.789,0.000
4469.000,-31.738,-20.020,-23.438,-3.906,0.000
4473.000,-32.227,-24.902,-20.996,-11.719,0.000
4476.000,-39.062,-29.785,-24.902,-17.578,0.000
4480.000,-38.574,-29.297,-29.785,-8.301,0.000
4484.000,-36.133,-31.738,-27.344,-7.324,0.000
4488.000,-33.203,-28.809,-26.367,-13.184,0.000
4492.000,-24.414,-29.297,-23.438,-10.742,0.000
4496.000,-20.508,-31.738,-21.973,-8.789,0.000
4500.000,-24.902,-24.902,-21.484,-12.207,0.000
4504.000,-23.438,-23.438,-21.484,-13.184,0.000
4508.000,-0.488,-23.926,-29.297,-13.672,0.000
4512.000,-1.953,-21.484,-26.855,-11.230,0.000
4516.000,-25.879,-26.855,-25.391,-6.348,0.000
4519.000,-37.598,-28.809,-27.344,0.000,0.000
4523.000,-16.602,-21.973,-21.484,20.020,0.000
4527.000,-3.418,-19.043,-15.625,24.902,0.000
4531.000,-18.066,-27.832,-16.113,-5.859,0.000
4535.000,-20.996,-33.203,-17.578,-23.438,0.000
4539.000,-10.742,-40.039,-15.625,-13.672,0.000
4543.000,-12.695,-46.387,-14.648,4.883,0.000
4547.000,-44.434,-53.711,-10.742,-2.441,0.000
4551.000,-55.176,-58.594,-9.277,-9.277,0.000
4555.000,-39.551,-56.152,-10.742,7.324,0.000
4558.000,-30.762,-56.641,-7.324,16.602,0.000
4562.000,-28.809,-63.477,-2.441,6.348,0.000
4566.000,-32.227,-70.312,-3.418,-3.418,0.000
4570.000,-31.250,-68.848,-3.906,12.695,0.000
4574.000,-27.344,-69.824,-1.465,28.320,0.000
4578.000,-29.297,-75.195,-0.977,22.949,0.000
4582.000,-24.902,-72.754,0.977,13.184,0.000
4586.000,-19.531,-69.336,0.488,22.949,0.000
4590.000,-20.508,-72.754,-1.465,7.812,0.000
4594.000,-7.812,-77.637,-2.441,-10.742,0.000
4598.000,2.930,-79.590,0.000,6.348,0.000
4601.000,-11.719,-80.566,11.230,24.414,0.000
4605.000,-34.668,-78.613,15.625,25.879,0.000
4609.000,-24.902,-75.684,15.625,20.508,0.000
4613.000,3.418,-74.219,17.578,13.672,0.000
4617.000,5.371,-76.172,14.160,14.648,0.000
4621.000,-13.672,-81.055,13.672,17.090,0.000
4625.000,-54.688,-83.496,14.160,18.555,0.000
4629.000,-63.965,-81.055,9.277,29.297,0.000
4633.000,-47.363,-80.078,8.789,29.297,0.000
4637.000,-48.828,-77.148,7.812,20.508,0.000
4641.000,-41.016,-77.637,3.906,29.785,0.000
4644.000,-25.391,-81.055,1.953,30.273,0.000
4648.000,-19.043,-80.078,5.371,22.949,0.000
4652.000,-26.367,-74.219,7.812,30.273,0.000
4656.000,-29.297,-68.359,4.883,26.367,0.000
4660.000,-23.438,-71.289,-1.953,17.090,0.000
4664.000,-17.090,-70.312,2.441,19.043,0.000
4668.000,-18.555,-68.848,5.859,22.949,0.000
4672.000,-23.438,-70.312,6.836,21.484,0.000
4676.000,-22.949,-68.848,7.812,8.301,0.000
4680.000,-20.508,-64.941,4.395,3.418,0.000
4683.000,-21.484,-63.965,5.859,4.883,0.000
4687.000,-18.555,-66.406,2.441,0.000,0.000
4691.000,-9.766,-66.895,0.977,-4.395,0.000
4695.000,-28.320,-66.895,-1.953,-11.719,0.000
4699.000,-44.434,-64.941,-3.906,-13.672,0.000
4703.000,-41.016,-60.059,3.418,-12.207,0.000
4707.000,-48.828,-62.500,3.906,-18.066,0.000
4711.000,-42.969,-62.012,-0.977,-17.090,0.000
4715.000,-23.438,-56.152,-0.977,-5.859,0.000
4719.000,-35.645,-55.176,-0.488,0.977,0.000
4723.000,-47.852,-58.594,-2.441,2.441,0.000
4726.000,-43.457,-63.965,-1.465,-1.465,0.000
4730.000,-44.922,-62.500,-0.977,-4.883,0.000
4734.000,-33.691,-56.152,-4.883,-3.418,0.000
4738.000,-35.645,-57.617,-6.836,-10.742,0.000
4742.000,-43.457,-57.129,-3.418,-15.625,0.000
4746.000,-35.156,-52.246,-7.324,-3.418,0.000
4750.000,-23.926,-48.828,-8.301,1.953,0.000
4754.000,-29.297,-46.875,-8.301,-10.742,0.000
4758.000,-37.598,-47.852,-16.602,-11.230,0.000
4762.000,-36.133,-53.223,-19.531,-1.953,0.000
4766.000,-38.086,-53.223,-12.695,-13.672,0.000
4769.000,-39.062,-49.316,-10.254,-28.320,0.000
4773.000,-31.738,-50.293,-9.766,-16.602,0.000
4777.000,-30.762,-51.270,-9.766,-20.996,0.000
4781.000,-20.996,-50.293,-9.766,-26.855,0.000
4785.000,-11.230,-50.781,-8.789,-6.348,0.000
4789.000,-12.695,-46.875,-9.766,-15.137,0.000
4793.000,-21.973,-41.992,-14.160,-31.250,0.000
4797.000,-25.391,-43.945,-13.672,-17.090,0.000
4801.000,-22.461,-47.363,-16.113,-15.137,0.000
4805.000,-33.203,-45.898,-20.508,-26.855,0.000
4808.000,-41.992,-45.410,-19.531,-22.461,0.000
4812.000,-43.945,-41.992,-19.043,-18.066,0.000
4816.000,-34.180,-40.039,-21.973,-20.996,0.000
4820.000,-28.809,-42.969,-21.484,-10.254,0.000
4824.000,-55.176,-42.480,-19.531,-11.719,0.000
4828.000,-60.547,-41.992,-25.391,-24.902,0.000
4832.000,-41.992,-40.527,-26.367,-26.855,0.000
4836.000,-49.805,-39.062,-25.391,-24.414,0.000
4840.000,-61.523,-44.434,-23.926,-18.555,0.000
4844.000,-55.176,-42.969,-23.926,-18.555,0.000
4848.000,-37.109,-38.574,-28.320,-22.461,0.000
4851.000,-32.227,-36.621,-25.391,-15.137,0.000
4855.000,-34.180,-34.180,-26.855,-9.766,0.000
4859.000,-32.715,-32.715,-30.762,-22.949,0.000
4863.000,-22.949,-33.691,-27.832,-22.461,0.000
4867.000,-17.578,-32.715,-28.320,-19.043,0.000
4871.000,-21.484,-27.832,-29.297,-9.277,0.000
4875.000,-12.695,-23.926,-24.414,2.441,0.000
4879.000,-13.672,-24.902,-20.996,-3.418,0.000
4883.000,-16.602,-25.391,-21.973,-12.695,0.000
4887.000,-14.648,-25.879,-24.414,-13.672,0.000
4891.000,-21.484,-32.715,-27.832,-12.695,0.000
4894.000,-12.695,-37.598,-30.762,-22.461,0.000
4898.000,-7.812,-32.227,-31.250,-20.020,0.000
4902.000,-24.414,-32.227,-32.227,-18.066,0.000
4906.000,-18.555,-31.250,-31.738,-17.578,0.000
4910.000,3.906,-27.344,-27.344,-11.719,0.000
4914.000,0.000,-27.344,-26.855,-12.695,0.000
4918.000,-15.137,-28.809,-25.879,-28.320,0.000
4922.000,-39.062,-38.086,-32.715,-33.203,0.000
4926.000,-46.875,-43.457,-31.738,-6.348,0.000
4930.000,-40.527,-33.691,-27.344,8.789,0.000
4933.000,-55.176,-21.973,-41.992,-18.066,0.000
4937.000,-62.500,-18.555,-48.340,-41.504,0.000
4941.000,-54.688,-19.043,-44.922,-50.293,0.000
4945.000,-50.293,-15.137,-52.246,-62.988,0.000
4949.000,-55.664,-13.672,-61.035,-70.312,0.000
4953.000,-60.547,-8.789,-68.359,-62.988,0.000
4957.000,-54.688,-5.371,-70.801,-68.848,0.000
4961.000,-53.223,-2.930,-74.707,-84.473,0.000
4965.000,-60.547,7.324,-74.707,-89.355,0.000
4969.000,-67.871,14.648,-68.848,-83.496,0.000
4973.000,-62.500,20.508,-70.801,-85.449,0.000
4976.000,-49.805,20.996,-76.660,-79.102,0.000
4980.000,-54.688,20.996,-76.660,-86.426,0.000
4984.000,-65.918,23.438,-75.684,-98.145,0.000
4988.000,-59.082,22.949,-78.125,-87.402,0.000
4992.000,-61.035,20.996,-81.055,-92.773,0.000
4996.000,-60.059,28.320,-83.496,-97.656,0.000
5000.000,-60.547,36.621,-81.543,-98.633,0.000
5004.000,-64.941,37.109,-83.984,-102.051,0.000
5008.000,-53.711,35.645,-87.402,-91.797,0.000
5012.000,-45.410,36.621,-81.543,-86.914,0.000
5016.000,-54.199,35.156,-83.008,-94.727,0.000
5019.000,-38.086,34.180,-88.379,-95.215,0.000
5023.000,-24.414,35.645,-88.379,-91.309,0.000
5027.000,-30.273,33.203,-85.938,-92.773,0.000
5031.000,-44.434,29.785,-84.473,-88.379,0.000
5035.000,-67.383,32.715,-85.449,-87.891,0.000
5039.000,-69.824,31.738,-87.891,-80.078,0.000
5043.000,-71.777,31.250,-80.566,-72.754,0.000
5047.000,-67.871,32.715,-74.707,-78.125,0.000
5051.000,-59.082,24.414,-79.102,-80.566,0.000
5055.000,-48.828,19.043,-79.590,-71.777,0.000
5058.000,-43.945,15.137,-76.172,-61.035,0.000
5062.000,-40.039,12.695,-70.312,-60.059,0.000
5066.000,-40.039,6.348,-71.289,-56.152,0.000
5070.000,-43.457,0.000,-72.754,-54.199,0.000
5074.000,-38.574,-3.418,-71.777,-59.082,0.000
5078.000,-31.738,-1.465,-71.289,-43.945,0.000
5082.000,-21.973,2.441,-67.871,-39.551,0.000
5086.000,-18.555,-1.465,-62.012,-40.039,0.000
5090.000,-25.391,-3.906,-60.547,-37.598,0.000
5094.000,-22.461,-7.324,-61.523,-44.434,0.000
5098.000,-22.949,-8.789,-61.523,-37.598,0.000
5101.000,-22.949,-5.859,-58.594,-32.227,0.000
5105.000,-20.020,-6.348,-52.734,-33.691,0.000
5109.000,-13.672,-4.395,-47.363,-23.438,0.000
5113.000,-9.277,-4.395,-47.363,-24.414,0.000
5117.000,-18.066,-7.324,-51.270,-31.250,0.000
5121.000,-24.902,-12.207,-51.270,-32.715,0.000
5125.000,-26.367,-11.719,-44.434,-21.973,0.000
5129.000,-20.020,-7.324,-40.527,-15.625,0.000
5133.000,-16.113,-7.812,-38.574,-22.461,0.000
5137.000,-5.859,-6.836,-38.574,-22.949,0.000
5141.000,-4.395,-8.789,-34.668,-21.973,0.000
5144.000,-15.625,-15.137,-34.180,-19.043,0.000
5148.000,-21.973,-18.555,-35.645,-13.672,0.000
5152.000,-22.949,-15.137,-29.785,-20.020,0.000
5156.000,-30.273,-10.254,-29.297,-15.625,0.000
5160.000,-31.250,-16.602,-39.062,-18.066,0.000
5164.000,-23.926,-17.578,-39.062,-26.367,0.000
5168.000,-17.578,-12.207,-31.738,-21.973,0.000
5172.000,-17.578,-19.043,-35.156,-23.438,0.000
5176.000,-21.973,-18.555,-36.621,-21.973,0.000
5180.000,-29.297,-11.719,-29.785,-9.277,0.000
5183.000,-36.621,-10.742,-25.391,-9.766,0.000
5187.000,-31.250,-13.672,-29.785,-19.531,0.000
5191.000,-23.438,-11.230,-31.250,-22.461,0.000
5195.000,-32.227,-13.184,-29.297,-20.996,0.000
5199.000,-38.086,-17.090,-33.691,-17.090,0.000
5203.000,-44.434,-20.508,-40.527,-22.949,0.000
5207.000,-52.734,-18.555,-41.016,-29.785,0.000
5211.000,-44.922,-15.625,-36.621,-31.250,0.000
5215.000,-27.344,-17.578,-33.691,-30.762,0.000
5219.000,-21.484,-16.113,-32.227,-31.738,0.000
5223.000,-24.414,-12.207,-29.297,-29.297,0.000
5226.000,-27.832,-12.207,-27.344,-19.531,0.000
5230.000,-32.227,-20.508,-28.809,-23.438,0.000
5234.000,-47.363,-27.344,-29.785,-22.461,0.000
5238.000,-57.617,-24.414,-27.344,-22.949,0.000
5242.000,-47.363,-25.391,-29.785,-30.273,0.000
5246.000,-41.504,-25.391,-28.320,-20.508,0.000
5250.000,-43.945,-20.020,-23.926,-23.438,0.000
5254.000,-43.457,-22.461,-29.297,-26.855,0.000
5258.000,-30.762,-27.832,-30.762,-25.391,0.000
5262.000,-31.250,-30.762,-31.250,-36.621,0.000
5266.000,-32.227,-29.785,-34.668,-38.086,0.000
5269.000,-33.203,-26.855,-35.156,-35.156,0.000
5273.000,-46.875,-29.785,-32.715,-34.180,0.000
5277.000,-37.109,-28.809,-30.273,-33.691,0.000
5281.000,-28.320,-27.832,-30.273,-38.574,0.000
5285.000,-33.691,-28.809,-32.227,-45.410,0.000
5289.000,-21.484,-26.367,-30.762,-28.320,0.000
5293.000,-23.926,-26.855,-30.762,-19.043,0.000
5297.000,-54.688,-29.297,-34.180,-26.367,0.000
5301.000,-58.105,-26.367,-32.227,-28.809,0.000
5305.000,-48.340,-25.391,-30.273,-26.855,0.000
5308.000,-46.387,-26.367,-35.156,-24.902,0.000
5312.000,-41.504,-22.461,-37.598,-24.414,0.000
5316.000,-39.551,-24.414,-35.156,-25.879,0.000
5320.000,-35.645,-23.438,-35.645,-40.039,0.000
5324.000,-28.320,-19.531,-35.156,-37.109,0.000
5328.000,-26.367,-22.949,-37.109,-29.785,0.000
5332.000,-25.879,-21.484,-35.645,-33.203,0.000
5336.000,-35.156,-20.020,-36.621,-25.879,0.000
5340.000,-36.621,-24.414,-38.086,-25.879,0.000
5344.000,-29.785,-31.250,-37.598,-26.855,0.000
5348.000,-34.668,-30.273,-32.227,-22.949,0.000
5351.000,-50.781,-25.879,-25.391,-22.949,0.000
5355.000,-52.734,-28.809,-27.832,-25.391,0.000
5359.000,-35.156,-36.133,-32.227,-25.391,0.000
5363.000,-20.508,-36.133,-31.250,-31.738,0.000
5367.000,-11.719,-32.227,-28.809,-38.574,0.000
5371.000,-14.160,-36.621,-34.668,-42.969,0.000
5375.000,-29.297,-36.133,-37.109,-38.574,0.000
5379.000,-24.902,-31.250,-30.273,-9.766,0.000
5383.000,-18.555,-34.180,-24.902,-2.930,0.000
5387.000,-45.898,-41.016,-22.461,-31.738,0.000
5391.000,-53.711,-43.945,-19.043,-28.320,0.000
5394.000,-34.180,-42.969,-14.648,-6.836,0.000
5398.000,-27.344,-49.316,-11.230,-6.836,0.000
5402.000,-31.738,-62.500,-10.742,-15.625,0.000
5406.000,-26.367,-64.453,-8.301,-9.766,0.000
5410.000,-11.719,-62.012,-1.465,5.371,0.000
5414.000,-9.766,-67.871,1.465,10.742,0.000
5418.000,-12.695,-65.918,-1.953,8.789,0.000
5422.000,-18.555,-67.383,-1.953,12.207,0.000
5426.000,-36.133,-74.707,0.977,22.949,0.000
5430.000,-51.270,-78.613,-3.906,20.020,0.000
5433.000,-47.852,-77.637,-3.418,23.438,0.000
5437.000,-41.992,-78.613,4.395,21.484,0.000
5441.000,-32.715,-79.590,5.859,13.672,0.000
5445.000,-26.367,-81.055,0.488,24.414,0.000
5449.000,-30.762,-83.984,-0.488,36.133,0.000
5453.000,-40.527,-81.543,6.348,33.203,0.000
5457.000,-31.250,-80.078,8.789,28.809,0.000
5461.000,-17.578,-79.102,8.301,17.578,0.000
5465.000,-13.672,-76.660,5.371,12.207,0.000
5469.000,-20.508,-74.707,6.348,10.742,0.000
5473.000,-29.785,-76.172,3.418,7.812,0.000
5476.000,-33.203,-76.172,-4.883,8.301,0.000
5480.000,-32.715,-73.730,0.488,15.625,0.000
5484.000,-25.391,-74.219,3.418,27.832,0.000
5488.000,-7.324,-71.777,3.418,28.809,0.000
5492.000,-10.742,-71.289,4.883,19.043,0.000
5496.000,-15.625,-69.824,6.836,21.484,0.000
5500.000,-10.254,-68.848,6.836,17.090,0.000
5504.000,-0.488,-69.336,11.230,12.695,0.000
5508.000,1.953,-65.918,16.602,20.020,0.000
5512.000,-20.996,-65.430,10.254,16.602,0.000
5515.000,-38.574,-68.359,7.812,17.578,0.000
5519.000,-35.645,-66.406,13.184,22.949,0.000
5523.000,-22.461,-67.383,11.230,19.531,0.000
5527.000,-14.648,-72.266,4.395,7.324,0.000
5531.000,-12.695,-67.871,1.465,1.465,0.000
5535.000,-11.719,-61.523,0.488,10.742,0.000
5539.000,-9.766,-59.082,-2.441,16.113,0.000
5543.000,-33.691,-60.059,-2.930,23.438,0.000
5547.000,-57.129,-63.477,-2.930,34.180,0.000
5551.000,-41.992,-63.965,-0.488,29.785,0.000
5555.000,-34.668,-67.383,-2.441,20.508,0.000
5558.000,-29.785,-65.430,-4.883,15.137,0.000
5562.000,-22.461,-57.617,-2.441,12.695,0.000
5566.000,-26.855,-55.664,-3.418,0.000,0.000
5570.000,-29.297,-54.688,-3.906,7.324,0.000
5574.000,-22.949,-51.758,-4.395,17.578,0.000
5578.000,-19.043,-54.688,-4.395,-0.977,0.000
5582.000,-20.996,-60.547,-3.418,-19.043,0.000
5586.000,-14.648,-55.176,0.000,-4.883,0.000
5590.000,-10.254,-46.387,8.301,10.254,0.000
5594.000,-10.742,-50.293,5.859,0.488,0.000
5598.000,-8.301,-56.641,0.488,-12.695,0.000
5601.000,-12.207,-54.199,-1.465,-7.812,0.000
5605.000,-15.625,-51.758,-8.301,1.953,0.000
5609.000,-9.277,-54.199,-14.648,6.836,0.000
5613.000,-6.836,-52.734,-7.324,17.090,0.000
5617.000,-25.879,-49.316,-2.441,0.977,0.000
5621.000,-29.785,-46.875,-4.395,-5.371,0.000
5625.000,-11.230,-45.410,0.977,7.812,0.000
5629.000,-6.348,-41.504,1.465,-3.906,0.000
5633.000,6.836,-43.457,-3.418,-2.441,0.000
5637.000,9.277,-43.945,-1.465,9.766,0.000
5640.000,-36.621,-46.875,-3.418,7.812,0.000
5644.000,-57.617,-51.270,-6.836,5.859,0.000
5648.000,-47.363,-43.945,-6.348,19.043,0.000
5652.000,-47.363,-39.062,-9.277,4.395,0.000
5656.000,-41.016,-39.062,-10.742,-8.301,0.000
5660.000,-35.645,-43.457,-13.672,-9.277,0.000
5664.000,-38.574,-41.504,-17.578,-18.066,0.000
5668.000,-42.969,-38.574,-17.578,-19.531,0.000
5672.000,-46.875,-42.480,-20.508,-26.367,0.000
5676.000,-40.039,-44.434,-21.484,-24.414,0.000
5680.000,-33.691,-42.969,-21.973,-16.113,0.000
5683.000,-35.645,-41.992,-19.531,-17.090,0.000
5687.000,-33.203,-42.969,-18.066,-21.973,0.000
5691.000,-34.180,-40.039,-21.484,-22.461,0.000
5695.000,-35.156,-39.062,-19.531,-15.137,0.000
5699.000,-37.598,-36.133,-19.043,-15.625,0.000
5703.000,-35.156,-39.062,-22.949,-19.531,0.000
5707.000,-29.785,-42.480,-23.438,-14.648,0.000
5711.000,-23.438,-39.551,-25.879,-8.301,0.000
5715.000,-15.137,-41.504,-29.785,-14.648,0.000
5719.000,-11.230,-42.480,-31.250,-26.367,0.000
5723.000,-16.602,-41.504,-30.273,-27.344,0.000
5726.000,-24.902,-37.598,-28.809,-20.508,0.000
5730.000,-36.133,-34.180,-29.297,-29.297,0.000
5734.000,-68.359,-33.691,-25.879,-37.109,0.000
5738.000,-78.613,-35.645,-19.531,-28.320,0.000
5742.000,-66.406,-41.016,-23.926,-21.973,0.000
5746.000,-36.133,-37.598,-24.902,-13.184,0.000
5750.000,-25.879,-23.926,-31.250,-20.508,0.000
5754.000,-37.109,-20.508,-40.527,-45.898,0.000
5758.000,-41.504,-22.949,-44.922,-58.594,0.000
5762.000,-51.270,-18.066,-48.340,-63.965,0.000
5765.000,-60.547,-13.672,-50.781,-70.801,0.000
5769.000,-76.172,-9.766,-54.199,-83.008,0.000
5773.000,-77.637,-5.371,-58.594,-73.730,0.000
5777.000,-82.031,-6.836,-62.988,-79.590,0.000
5781.000,-104.492,-9.277,-61.035,-95.703,0.000
5785.000,-102.539,-6.348,-60.547,-94.727,0.000
5789.000,-84.961,-1.953,-67.871,-97.168,0.000
5793.000,-77.637,-0.977,-68.359,-94.727,0.000
5797.000,-76.172,5.859,-62.012,-91.309,0.000
5801.000,-70.801,12.695,-66.895,-84.473,0.000
5805.000,-61.035,11.719,-72.754,-93.750,0.000
5808.000,-62.012,15.625,-69.824,-103.027,0.000
5812.000,-61.035,15.625,-71.289,-97.168,0.000
5816.000,-60.547,17.578,-74.707,-101.562,0.000
5820.000,-62.988,22.949,-80.078,-103.027,0.000
5824.000,-54.688,25.391,-79.590,-101.074,0.000
5828.000,-54.199,26.855,-78.613,-102.539,0.000
5832.000,-59.082,29.785,-78.125,-98.145,0.000
5836.000,-60.059,30.762,-77.148,-100.586,0.000
5840.000,-52.246,28.809,-77.637,-108.887,0.000
5844.000,-26.367,27.832,-77.637,-93.262,0.000
5848.000,-32.715,26.855,-87.402,-90.820,0.000
5851.000,-45.410,28.320,-87.402,-93.750,0.000
5855.000,-44.922,28.320,-79.102,-79.590,0.000
5859.000,-59.570,23.926,-73.242,-79.590,0.000
5863.000,-60.547,25.391,-70.312,-82.520,0.000
5867.000,-50.781,22.949,-72.754,-80.566,0.000
5871.000,-40.527,17.578,-70.801,-71.777,0.000
5875.000,-36.621,16.113,-67.383,-62.012,0.000
5879.000,-41.992,16.113,-68.359,-62.988,0.000
5883.000,-40.527,10.742,-67.383,-57.617,0.000
5887.000,-31.738,10.254,-66.406,-53.223,0.000
5890.000,-22.949,10.742,-60.547,-50.293,0.000
5894.000,-19.531,10.254,-55.664,-49.805,0.000
5898.000,-23.926,10.254,-52.734,-45.898,0.000
5902.000,-25.879,3.418,-53.223,-39.062,0.000
5906.000,-23.438,-3.906,-56.641,-36.621,0.000
5910.000,-19.043,-4.883,-56.152,-38.086,0.000
5914.000,-27.344,-4.395,-52.246,-36.133,0.000
5918.000,-40.039,-5.371,-47.852,-30.273,0.000
5922.000,-35.645,-0.488,-48.340,-33.691,0.000
5926.000,-28.809,-2.930,-45.410,-28.320,0.000
5930.000,-26.367,-7.324,-45.898,-26.855,0.000
5933.000,-22.949,-6.836,-45.898,-31.250,0.000
5937.000,-24.902,-9.277,-44.434,-28.320,0.000
5941.000,-27.832,-13.672,-43.457,-35.156,0.000
5945.000,-25.391,-16.113,-44.922,-42.969,0.000
5949.000,-35.156,-17.578,-47.363,-42.480,0.000
5953.000,-29.785,-18.066,-43.945,-38.086,0.000
5957.000,-14.648,-16.602,-40.527,-33.691,0.000
5961.000,-25.879,-18.066,-42.969,-33.691,0.000
5965.000,-41.992,-19.043,-41.504,-32.227,0.000
5969.000,-50.781,-19.043,-34.668,-29.297,0.000
5973.000,-48.340,-20.508,-36.621,-28.809,0.000
5976.000,-45.898,-24.414,-37.109,-26.855,0.000
5980.000,-36.133,-20.996,-32.227,-19.043,0.000
5984.000,-35.645,-18.555,-31.250,-21.973,0.000
5988.000,-38.574,-21.484,-32.715,-24.414,0.000
5992.000,-39.062,-24.902,-36.133,-21.973,0.000
5996.000,-45.898,-26.855,-37.598,-19.043,0.000
6000.000,-41.016,-21.484,-36.133,-19.531,0.000
6004.000,-32.227,-19.043,-34.180,-16.113,0.000
6008.000,-27.344,-18.066,-30.273,0.000,0.000
6012.000,-26.855,-22.461,-31.738,-6.836,0.000
6015.000,-27.344,-29.297,-34.668,-24.902,0.000
6019.000,-24.414,-28.320,-30.762,-20.508,0.000
6023.000,-26.855,-32.227,-32.227,-11.230,0.000
6027.000,-14.160,-31.738,-31.250,-11.719,0.000
6031.000,-7.324,-26.367,-29.297,-13.184,0.000
6035.000,-11.719,-20.996,-31.738,-11.719,0.000
6039.000,-4.395,-21.973,-30.273,-10.742,0.000
6043.000,11.719,-23.438,-31.738,-13.672,0.000
6047.000,-1.465,-21.484,-33.203,-19.043,0.000
6051.000,-25.391,-19.531,-35.645,-12.207,0.000
6055.000,-21.973,-20.508,-33.203,-7.812,0.000
6058.000,-32.227,-23.926,-35.156,-16.113,0.000
6062.000,-46.387,-25.879,-39.551,-19.043,0.000
6066.000,-29.297,-25.879,-37.109,-20.020,0.000
6070.000,-27.832,-20.020,-32.715,-15.137,0.000
6074.000,-30.762,-17.578,-25.391,-3.906,0.000
6078.000,-28.320,-20.508,-26.367,-5.371,0.000
6082.000,-37.109,-18.555,-27.832,-9.277,0.000
6086.000,-46.875,-18.066,-26.855,-7.812,0.000
6090.000,-42.480,-21.484,-32.227,-13.672,0.000
6094.000,-33.691,-22.461,-33.203,-22.949,0.000
6098.000,-36.133,-22.949,-33.691,-27.832,0.000
6101.000,-38.086,-23.926,-34.668,-28.809,0.000
6105.000,-39.551,-20.996,-31.738,-37.109,0.000
6109.000,-41.992,-20.996,-33.203,-41.992,0.000
6113.000,-36.133,-21.484,-35.156,-41.016,0.000
6117.000,-32.715,-19.043,-36.133,-44.922,0.000
6121.000,-38.574,-18.555,-38.086,-41.992,0.000
6125.000,-36.621,-16.602,-29.785,-32.715,0.000
6129.000,-22.949,-17.578,-24.902,-30.762,0.000
6133.000,-29.297,-22.461,-31.250,-33.691,0.000
6137.000,-41.992,-24.414,-35.156,-41.016,0.000
6140.000,-31.738,-21.973,-37.109,-39.062,0.000
6144.000,-37.598,-21.484,-37.598,-29.297,0.000
6148.000,-52.734,-24.902,-37.109,-40.039,0.000
6152.000,-56.641,-26.855,-32.715,-40.039,0.000
6156.000,-42.480,-24.902,-28.809,-29.297,0.000
6160.000,-17.578,-22.461,-31.738,-27.832,0.000
6164.000,-12.695,-25.391,-33.691,-31.738,0.000
6168.000,-18.555,-28.320,-39.062,-32.715,0.000
6172.000,-27.832,-26.367,-41.504,-31.738,0.000
6176.000,-35.156,-27.344,-39.551,-31.738,0.000
6180.000,-60.059,-33.203,-41.016,-27.832,0.000
6183.000,-76.660,-35.156,-38.086,-21.973,0.000
6187.000,-66.406,-32.227,-36.621,-20.020,0.000
6191.000,-64.453,-29.297,-34.668,-18.066,0.000
6195.000,-57.129,-28.320,-29.785,-22.461,0.000
6199.000,-41.992,-27.832,-25.879,-32.227,0.000
6203.000,-40.527,-31.250,-26.855,-38.086,0.000
6207.000,-41.992,-28.320,-28.320,-34.180,0.000
6211.000,-33.203,-21.973,-29.785,-28.809,0.000
6215.000,-30.762,-20.020,-30.762,-29.297,0.000
6219.000,-30.762,-23.926,-30.273,-30.273,0.000
6223.000,-33.691,-21.973,-30.762,-25.391,0.000
6226.000,-46.875,-20.996,-30.273,-20.020,0.000
6230.000,-53.711,-29.297,-31.738,-21.484,0.000
6234.000,-50.781,-33.691,-31.250,-14.160,0.000
6238.000,-46.875,-35.156,-32.715,-24.902,0.000
6242.000,-44.434,-31.250,-35.156,-30.273,0.000
6246.000,-32.715,-29.785,-33.691,-24.414,0.000
6250.000,-17.578,-34.668,-33.203,-28.320,0.000
6254.000,-3.906,-27.832,-31.250,-29.297,0.000
6258.000,-0.977,-26.855,-29.785,-29.785,0.000
6262.000,-6.348,-30.762,-29.785,0.000,0.000
6265.000,-31.738,-29.297,-22.949,24.902,0.000
6269.000,-59.082,-29.785,-18.066,-11.230,0.000
6273.000,-64.941,-37.598,-19.531,-25.879,0.000
6277.000,-53.223,-44.922,-20.996,-11.719,0.000
6281.000,-49.316,-46.387,-19.043,-9.277,0.000
6285.000,-40.039,-47.852,-13.672,-13.672,0.000
6289.000,-17.090,-53.223,-9.766,-8.301,0.000
6293.000,-24.414,-60.059,-7.812,-9.277,0.000
6297.000,-44.922,-59.570,-5.371,-12.695,0.000
6301.000,-39.062,-61.035,-7.812,1.953,0.000
6305.000,-41.992,-66.895,-5.859,3.418,0.000
6308.000,-36.133,-68.848,-0.488,-7.324,0.000
6312.000,-24.414,-73.242,-4.395,4.883,0.000
6316.000,-30.273,-75.195,0.488,13.672,0.000
6320.000,-41.992,-79.590,3.906,2.441,0.000
6324.000,-40.527,-78.613,-2.441,13.672,0.000
6328.000,-32.227,-74.219,0.000,24.902,0.000
6332.000,-32.227,-75.684,2.930,19.043,0.000
6336.000,-41.016,-78.613,5.859,18.066,0.000
6340.000,-37.598,-79.102,5.859,16.113,0.000
6344.000,-23.926,-77.637,-0.977,14.648,0.000
6348.000,-22.461,-76.172,3.906,18.066,0.000
6351.000,-24.902,-77.148,9.766,11.719,0.000
6355.000,-23.926,-81.055,11.719,6.836,0.000
6359.000,-25.879,-79.102,12.207,14.160,0.000
6363.000,-27.832,-78.125,5.859,14.160,0.000
6367.000,-28.320,-82.031,5.859,9.766,0.000
6371.000,-19.043,-76.172,6.348,10.742,0.000
6375.000,5.859,-67.383,4.883,1.953,0.000
6379.000,-1.465,-67.871,5.371,2.930,0.000
6383.000,-33.203,-69.824,5.859,2.930,0.000
6387.000,-46.875,-70.312,6.348,0.488,0.000
6390.000,-28.320,-70.312,10.254,5.859,0.000
6394.000,-7.324,-67.383,9.277,11.230,0.000
6398.000,-43.457,-69.824,7.324,12.695,0.000
6402.000,-75.195,-75.684,4.883,-2.441,0.000
6406.000,-59.570,-73.242,5.371,-17.578,0.000
6410.000,-44.434,-64.453,9.766,-1.953,0.000
6414.000,-35.645,-59.082,14.160,13.184,0.000
6418.000,-42.969,-59.570,11.230,7.812,0.000
6422.000,-42.969,-61.523,5.371,-7.324,0.000
6426.000,-29.297,-59.570,4.883,-10.742,0.000
6430.000,-23.926,-60.059,4.883,-1.953,0.000
6433.000,-20.996,-59.570,5.859,1.465,0.000
6437.000,-20.020,-57.617,4.395,-10.742,0.000
6441.000,-7.812,-55.176,0.977,-9.766,0.000
6445.000,-1.953,-57.129,-5.371,-1.953,0.000
6449.000,-15.625,-56.641,-5.859,-6.348,0.000
6453.000,-23.438,-56.641,-5.859,-18.555,0.000
6457.000,-14.648,-55.664,-12.695,-19.531,0.000
6461.000,-1.465,-53.223,-11.230,-0.488,0.000
6465.000,-2.930,-54.688,-8.301,-0.977,0.000
6469.000,-33.691,-57.617,-10.254,-7.812,0.000
6473.000,-59.570,-59.082,-9.277,-7.324,0.000
6476.000,-39.062,-53.223,-8.789,-2.930,0.000
6480.000,-22.949,-45.898,-4.883,7.324,0.000
6484.000,-28.320,-45.410,-0.977,0.488,0.000
6488.000,-21.484,-46.875,-5.859,-2.930,0.000
6492.000,-25.391,-49.805,-7.812,13.672,0.000
6496.000,-44.434,-48.828,-9.277,20.508,0.000
6500.000,-43.457,-47.363,-10.254,16.113,0.000
6504.000,-31.738,-45.898,-7.324,26.367,0.000
6508.000,-22.949,-46.387,-7.324,29.785,0.000
6512.000,-15.137,-44.922,-11.719,19.531,0.000
6515.000,-9.277,-41.992,-12.207,14.648,0.000
6519.000,-12.695,-44.922,-7.812,17.090,0.000
6523.000,-19.043,-45.898,-15.137,14.648,0.000
6527.000,-21.973,-42.969,-23.438,2.441,0.000
6531.000,-20.020,-43.945,-19.043,6.348,0.000
6535.000,-9.766,-38.086,-13.672,16.113,0.000
6539.000,-3.418,-32.715,-15.137,8.789,0.000
6543.000,-5.371,-35.156,-19.043,2.930,0.000
6547.000,0.000,-33.691,-15.137,1.953,0.000
6551.000,9.277,-35.645,-16.113,-4.395,0.000
6555.000,16.113,-40.039,-24.902,-9.766,0.000
6558.000,15.137,-36.133,-29.297,-12.695,0.000
6562.000,9.277,-34.180,-26.855,-4.395,0.000
6566.000,-29.785,-45.410,-24.414,-8.789,0.000
6570.000,-58.594,-43.457,-24.414,-15.137,0.000
6574.000,-58.594,-39.551,-23.926,-10.742,0.000
6578.000,-51.270,-46.387,-22.949,-10.254,0.000
6582.000,-36.621,-43.945,-19.531,-12.207,0.000
6586.000,-32.227,-38.574,-15.137,-8.789,0.000
6590.000,-32.227,-39.551,-15.625,-6.836,0.000
6594.000,-28.320,-37.109,-20.020,0.977,0.000
6598.000,-26.367,-37.109,-17.578,-0.488,0.000
6601.000,-19.043,-35.645,-19.043,-21.484,0.000
6605.000,-9.766,-31.250,-22.461,-20.020,0.000
6609.000,-4.395,-37.598,-22.461,-13.184,0.000
6613.000,-4.395,-38.086,-17.090,-13.672,0.000
6617.000,-23.438,-37.598,-19.043,-10.254,0.000
6621.000,-59.082,-41.504,-21.973,-7.812,0.000
6625.000,-70.801,-41.016,-21.973,-10.742,0.000
6629.000,-49.805,-37.598,-21.973,-12.695,0.000
6633.000,-27.832,-36.133,-22.461,-16.602,0.000
6637.000,-18.066,-36.133,-20.996,-25.879,0.000
6640.000,-11.230,-38.574,-24.902,-27.344,0.000
6644.000,-22.949,-41.016,-30.273,-17.090,0.000
6648.000,-39.062,-43.945,-29.785,-15.137,0.000
6652.000,-43.945,-47.852,-28.809,-15.137,0.000
6656.000,-44.434,-41.504,-32.227,-18.066,0.000
6660.000,-43.457,-38.574,-33.691,-25.391,0.000
6664.000,-50.781,-38.086,-32.227,-23.438,0.000
6668.000,-47.852,-35.645,-32.227,-24.414,0.000
6672.000,-42.969,-35.156,-32.715,-24.902,0.000
6676.000,-28.809,-33.203,-30.762,-20.996,0.000
6680.000,-16.602,-32.715,-35.645,-24.414,0.000
6683.000,-19.043,-26.855,-32.227,-22.949,0.000
6687.000,-29.297,-32.715,-31.738,-22.461,0.000
6691.000,-36.133,-34.180,-36.621,-26.855,0.000
6695.000,-41.016,-29.785,-32.715,-23.438,0.000
6699.000,-32.227,-29.297,-32.227,-27.344,0.000
6703.000,-28.320,-28.809,-32.227,-36.133,0.000
6707.000,-29.785,-29.785,-31.738,-33.691,0.000
6711.000,-23.438,-30.762,-36.133,-25.879,0.000
6715.000,-26.367,-32.227,-39.551,-28.320,0.000
6719.000,-26.367,-31.738,-36.133,-23.438,0.000
6722.000,-26.367,-33.203,-30.762,-18.066,0.000
6726.000,-44.434,-35.156,-25.879,-23.438,0.000
6730.000,-60.547,-35.645,-25.391,-15.137,0.000
6734.000,-61.035,-33.691,-27.344,-17.090,0.000
6738.000,-56.641,-33.203,-25.391,-20.508,0.000
6742.000,-48.828,-35.156,-30.273,-22.461,0.000
6746.000,-45.898,-34.180,-33.691,-20.020,0.000
6750.000,-47.363,-32.227,-30.762,-21.973,0.000
6754.000,-46.875,-35.156,-31.250,-34.668,0.000
6758.000,-33.691,-34.180,-28.809,-30.762,0.000
6762.000,-24.902,-34.180,-24.902,-17.578,0.000
6765.000,-36.621,-35.645,-25.879,-10.742,0.000
6769.000,-43.457,-31.250,-30.762,-25.391,0.000
6773.000,-30.762,-25.391,-24.902,-26.367,0.000
6777.000,-14.648,-26.855,-20.996,-30.762,0.000
6781.000,-10.254,-24.902,-29.297,-38.574,0.000
6785.000,-11.230,-23.438,-30.273,-28.809,0.000
6789.000,-29.297,-29.785,-31.250,-26.367,0.000
6793.000,-41.504,-27.344,-36.621,-19.531,0.000
6797.000,-23.438,-29.297,-37.598,-22.949,0.000
6801.000,-14.648,-28.809,-30.273,-20.020,0.000
6805.000,-22.461,-21.484,-28.809,-8.301,0.000
6808.000,-28.320,-26.367,-32.227,-12.207,0.000
6812.000,-40.039,-27.344,-29.297,-18.555,0.000
6816.000,-47.363,-26.855,-29.785,-14.160,0.000
6820.000,-41.504,-34.668,-29.297,-7.324,0.000
6824.000,-55.176,-43.457,-35.645,-15.625,0.000
6828.000,-50.293,-44.434,-40.527,-23.438,0.000
6832.000,-29.297,-32.715,-38.574,-17.578,0.000
6836.000,-31.250,-30.273,-34.180,-18.555,0.000
6840.000,-31.738,-34.180,-36.133,-33.203,0.000
6844.000,-28.320,-33.203,-40.039,-42.969,0.000
6847.000,-33.691,-31.738,-43.945,-55.176,0.000
6851.000,-34.180,-30.273,-46.387,-65.430,0.000
6855.000,-50.781,-26.855,-38.574,-56.152,0.000
6859.000,-78.125,-25.879,-40.527,-47.852,0.000
6863.000,-99.121,-31.250,-45.898,-56.152,0.000
6867.000,-84.473,-29.785,-40.527,-62.988,0.000
6871.000,-69.336,-28.809,-44.922,-65.918,0.000
6875.000,-52.246,-26.367,-47.852,-60.059,0.000
6879.000,-49.805,-19.043,-50.781,-51.758,0.000
6883.000,-79.590,-20.996,-55.664,-54.688,0.000
6887.000,-90.332,-20.508,-53.711,-52.246,0.000
6890.000,-79.102,-16.113,-50.293,-55.176,0.000
6894.000,-62.012,-10.254,-53.223,-63.477,0.000
6898.000,-56.641,-3.418,-58.105,-60.059,0.000
6902.000,-61.035,1.953,-59.570,-62.500,0.000
6906.000,-62.012,2.441,-61.523,-70.312,0.000
6910.000,-62.012,5.371,-62.988,-70.312,0.000
6914.000,-64.453,8.301,-63.965,-74.219,0.000
6918.000,-52.734,11.719,-65.430,-73.730,0.000
6922.000,-50.781,12.207,-64.941,-73.242,0.000
6926.000,-49.316,12.695,-65.430,-65.918,0.000
6930.000,-42.969,14.648,-64.941,-62.988,0.000
6933.000,-40.039,16.113,-62.012,-69.824,0.000
6937.000,-26.367,18.555,-61.523,-65.430,0.000
6941.000,-15.625,20.508,-60.547,-69.336,0.000
6945.000,-18.555,18.555,-58.594,-75.195,0.000
6949.000,-24.414,23.438,-61.523,-68.359,0.000
6953.000,-23.438,34.180,-61.035,-65.430,0.000
6957.000,-15.137,38.086,-59.082,-60.547,0.000
6961.000,-23.438,34.180,-61.035,-56.152,0.000
6965.000,-23.926,30.273,-62.988,-57.617,0.000
6969.000,-17.090,26.855,-65.918,-52.246,0.000
6972.000,-26.367,26.855,-68.359,-56.152,0.000
6976.000,-25.879,30.762,-71.289,-65.918,0.000
6980.000,-22.949,26.855,-64.453,-52.246,0.000
6984.000,-26.367,17.578,-59.570,-47.852,0.000
6988.000,-33.691,14.648,-64.941,-62.012,0.000
6992.000,-38.086,13.672,-66.895,-58.594,0.000
6996.000,-25.879,8.789,-64.453,-46.875,0.000
7000.000,-28.809,8.301,-60.547,-48.340,0.000
7004.000,-34.668,9.766,-61.035,-51.270,0.000
7008.000,-28.320,10.254,-61.035,-50.781,0.000
7012.000,-22.949,11.230,-56.641,-49.316,0.000
7015.000,-15.137,7.812,-51.758,-39.551,0.000
7019.000,-24.902,-0.488,-51.758,-48.828,0.000
7023.000,-18.555,-0.488,-53.711,-56.152,0.000
7027.000,-6.348,3.418,-52.246,-45.410,0.000
7031.000,-21.973,3.418,-47.852,-44.922,0.000
7035.000,-22.461,4.883,-45.898,-40.527,0.000
7039.000,-21.484,2.441,-46.387,-27.832,0.000
7043.000,-26.855,-6.348,-49.316,-34.180,0.000
7047.000,-29.785,-9.766,-48.828,-31.250,0.000
7051.000,-25.879,-6.836,-41.016,-22.461,0.000
7055.000,-34.668,-8.301,-41.016,-24.902,0.000
7058.000,-28.320,-2.930,-37.109,-15.137,0.000
7062.000,-16.113,-3.418,-35.156,-12.207,0.000
7066.000,-17.578,-8.789,-35.645,-22.461,0.000
7070.000,-1.953,-9.277,-34.668,-17.578,0.000
7074.000,23.926,-10.254,-35.156,-9.277,0.000
7078.000,15.625,-16.602,-37.109,-12.207,0.000
7082.000,-10.742,-15.137,-39.551,-23.438,0.000
7086.000,-36.133,-10.742,-41.016,-46.387,0.000
7090.000,-48.340,-13.184,-44.434,-63.965,0.000
7094.000,-30.273,-13.672,-41.016,-50.781,0.000
7097.000,-40.527,-15.625,-34.668,-50.293,0.000
7101.000,-46.387,-16.602,-36.621,-57.617,0.000
7105.000,-48.340,-15.625,-41.992,-60.547,0.000
7109.000,-51.758,-16.602,-44.922,-67.871,0.000
7113.000,-48.340,-14.648,-42.969,-61.035,0.000
7117.000,-51.758,-14.648,-38.574,-64.941,0.000
7121.000,-41.504,-18.555,-38.086,-67.871,0.000
7125.000,-40.527,-21.484,-41.992,-62.500,0.000
7129.000,-37.598,-17.578,-43.945,-50.781,0.000
7133.000,-41.992,-20.020,-43.945,-42.480,0.000
7137.000,-47.852,-23.926,-38.086,-42.480,0.000
7140.000,-42.969,-20.996,-41.504,-43.945,0.000
7144.000,-35.645,-18.066,-41.992,-37.598,0.000
7148.000,-39.551,-16.602,-33.691,-35.156,0.000
7152.000,-44.922,-22.461,-39.062,-31.250,0.000
7156.000,-44.922,-24.902,-44.922,-37.598,0.000
7160.000,-41.504,-26.367,-39.062,-42.480,0.000
7164.000,-29.297,-26.855,-33.203,-41.016,0.000
7168.000,-37.109,-24.902,-36.621,-41.992,0.000
7172.000,-48.340,-24.414,-42.480,-35.645,0.000
7176.000,-39.062,-25.391,-37.598,-39.551,0.000
7180.000,-44.922,-28.809,-38.086,-48.828,0.000
7183.000,-52.246,-27.832,-40.039,-59.082,0.000
7187.000,-49.805,-25.391,-36.621,-56.152,0.000
7191.000,-45.898,-26.855,-35.156,-49.316,0.000
7195.000,-48.340,-25.391,-37.598,-48.828,0.000
7199.000,-50.781,-23.438,-37.109,-49.805,0.000
7203.000,-57.617,-25.391,-37.598,-52.246,0.000
7207.000,-59.570,-24.902,-36.133,-41.992,0.000
7211.000,-49.805,-25.391,-40.039,-32.227,0.000
7215.000,-39.062,-29.297,-41.016,-37.598,0.000
7219.000,-43.457,-29.785,-37.109,-41.992,0.000
7222.000,-48.340,-24.902,-35.156,-37.109,0.000
7226.000,-32.715,-22.461,-32.715,-26.855,0.000
7230.000,-22.949,-23.438,-24.414,-23.438,0.000
7234.000,-36.621,-21.973,-23.438,-12.695,0.000
7238.000,-41.992,-22.949,-26.855,-2.441,0.000
7242.000,-42.480,-28.320,-30.273,-7.324,0.000
7246.000,-49.805,-26.367,-34.180,-9.766,0.000
7250.000,-44.922,-22.461,-30.273,-10.254,0.000
7254.000,-36.621,-24.414,-31.250,-14.648,0.000
7258.000,-16.113,-20.996,-35.645,-24.902,0.000
7262.000,3.906,-21.484,-38.086,-28.320,0.000
7265.000,-8.789,-25.879,-40.039,-29.297,0.000
7269.000,-38.086,-23.926,-39.551,-22.949,0.000
7273.000,-51.758,-25.879,-40.527,-13.184,0.000
7277.000,-57.617,-29.785,-41.504,-20.996,0.000
7281.000,-58.594,-31.250,-41.504,-24.902,0.000
7285.000,-52.734,-29.297,-39.062,-20.508,0.000
7289.000,-52.246,-28.320,-37.598,-25.391,0.000
7293.000,-50.293,-33.203,-37.598,-31.738,0.000
7297.000,-41.504,-31.250,-38.574,-33.691,0.000
7301.000,-41.504,-30.273,-39.062,-25.879,0.000
7305.000,-43.457,-32.715,-35.156,-8.301,0.000
7308.000,-38.086,-28.809,-39.062,-8.789,0.000
7312.000,-27.832,-27.344,-43.945,-12.695,0.000
7316.000,-32.227,-27.344,-33.691,-1.465,0.000
7320.000,-61.523,-30.762,-27.344,-22.461,0.000
7324.000,-65.430,-37.598,-28.320,-42.480,0.000
7328.000,-47.363,-44.922,-24.902,-29.297,0.000
7332.000,-44.922,-48.340,-20.020,-32.715,0.000
7336.000,-49.316,-52.246,-20.996,-48.828,0.000
7340.000,-43.457,-52.246,-12.207,-32.715,0.000
7344.000,-41.016,-54.199,-4.883,-22.949,0.000
7347.000,-51.270,-59.082,-5.859,-26.855,0.000
7351.000,-62.012,-62.988,-7.812,-30.273,0.000
7355.000,-62.500,-62.012,-3.418,-28.809,0.000
