timestamp,TP9,AF7,AF8,TP10,Right AUX
0.000,-21.484,-20.020,-39.551,-27.344,0.000
4.000,-7.812,-13.672,-38.574,-33.203,0.000
8.000,3.906,-12.207,-39.062,-45.898,0.000
12.000,-1.465,-14.648,-36.133,-43.457,0.000
16.000,-22.461,-17.090,-33.203,-33.691,0.000
20.000,-51.270,-23.438,-33.691,-37.109,0.000
23.000,-45.410,-20.020,-30.273,-46.387,0.000
27.000,-37.598,-13.672,-29.297,-46.875,0.000
31.000,-44.922,-15.137,-28.809,-36.621,0.000
35.000,-36.621,-18.066,-26.855,-34.668,0.000
39.000,-34.668,-25.879,-32.227,-37.598,0.000
43.000,-31.250,-28.320,-36.133,-32.715,0.000
47.000,-33.691,-23.438,-31.250,-25.879,0.000
51.000,-28.809,-24.414,-27.832,-33.203,0.000
55.000,-25.391,-26.367,-25.391,-48.828,0.000
59.000,-25.391,-25.879,-20.020,-35.156,0.000
62.000,-30.273,-24.414,-20.508,-25.879,0.000
66.000,-38.086,-28.320,-21.484,-25.879,0.000
70.000,-50.293,-31.738,-21.973,-26.855,0.000
74.000,-78.125,-37.598,-25.391,-41.016,0.000
78.000,-80.078,-40.039,-32.227,-43.457,0.000
82.000,-63.477,-40.527,-34.668,-44.434,0.000
86.000,-51.758,-41.016,-32.715,-48.340,0.000
90.000,-52.734,-41.992,-33.203,-41.504,0.000
94.000,-59.082,-42.480,-30.273,-45.898,0.000
98.000,-56.641,-40.039,-28.320,-38.574,0.000
102.000,-49.316,-41.016,-28.809,-29.297,0.000
105.000,-33.203,-38.574,-26.367,-38.086,0.000
109.000,-23.438,-36.133,-26.367,-31.738,0.000
113.000,-28.809,-40.527,-29.785,-32.227,0.000
117.000,-29.297,-37.598,-26.855,-41.016,0.000
121.000,-32.715,-36.621,-27.344,-32.227,0.000
125.000,-27.344,-41.016,-29.297,-30.273,0.000
129.000,-22.949,-40.039,-29.785,-28.809,0.000
133.000,-20.996,-39.551,-28.320,-37.109,0.000
137.000,-29.785,-39.551,-27.344,-40.039,0.000
141.000,-52.734,-42.480,-31.738,-44.922,0.000
145.000,-45.898,-41.016,-31.250,-46.875,0.000
148.000,-31.738,-39.551,-23.926,-40.039,0.000
152.000,-17.090,-37.109,-18.066,-37.109,0.000
156.000,-14.160,-34.668,-18.066,-31.250,0.000
160.000,-31.250,-37.109,-20.020,-24.414,0.000
164.000,-29.297,-31.738,-23.438,-25.391,0.000
168.000,-44.434,-36.133,-32.227,-41.992,0.000
172.000,-44.434,-39.551,-36.133,-31.250,0.000
176.000,-23.438,-39.551,-23.926,-11.230,0.000
180.000,-32.715,-45.898,-14.648,-10.254,0.000
184.000,-49.805,-50.781,-20.020,-34.668,0.000
187.000,-50.293,-53.223,-21.484,-40.039,0.000
191.000,-42.969,-54.199,-14.648,-21.973,0.000
195.000,-50.781,-62.988,-14.160,-37.109,0.000
199.000,-63.477,-70.312,-15.625,-54.688,0.000
203.000,-62.012,-73.730,-5.859,-45.898,0.000
207.000,-66.895,-74.707,1.953,-52.734,0.000
211.000,-57.617,-73.730,5.859,-51.758,0.000
215.000,-50.293,-80.078,2.930,-52.246,0.000
219.000,-52.246,-84.473,1.953,-65.430,0.000
223.000,-59.570,-87.891,6.348,-64.453,0.000
227.000,-83.496,-92.773,7.812,-54.688,0.000
230.000,-87.891,-94.727,8.301,-47.852,0.000
234.000,-87.402,-92.773,7.812,-53.711,0.000
238.000,-92.285,-92.285,7.324,-56.641,0.000
242.000,-83.496,-92.285,10.742,-46.387,0.000
246.000,-84.473,-90.820,14.160,-53.223,0.000
250.000,-111.328,-96.191,18.066,-63.477,0.000
254.000,-120.117,-97.656,18.555,-48.828,0.000
258.000,-110.352,-97.656,15.137,-43.457,0.000
262.000,-113.281,-103.027,14.648,-53.223,0.000
266.000,-117.188,-101.074,13.184,-54.688,0.000
270.000,-110.352,-101.074,14.648,-47.363,0.000
273.000,-96.680,-98.145,13.184,-41.504,0.000
277.000,-94.727,-97.168,3.906,-38.574,0.000
281.000,-107.422,-101.074,-3.418,-44.922,0.000
285.000,-107.910,-100.098,-2.930,-54.199,0.000
289.000,-90.332,-98.145,-3.418,-55.664,0.000
293.000,-74.219,-95.703,-1.465,-46.387,0.000
297.000,-68.848,-90.332,1.953,-36.621,0.000
301.000,-71.289,-86.914,2.930,-41.016,0.000
305.000,-67.871,-82.520,-1.465,-41.504,0.000
309.000,-67.383,-77.148,-6.348,-34.180,0.000
312.000,-69.824,-72.266,-9.277,-30.762,0.000
316.000,-55.664,-66.895,-11.230,-31.738,0.000
320.000,-45.410,-63.965,-11.230,-32.715,0.000
324.000,-26.855,-56.641,-8.789,-30.762,0.000
328.000,-24.902,-54.199,-11.230,-30.762,0.000
332.000,-54.688,-51.270,-15.137,-26.855,0.000
336.000,-66.406,-45.410,-10.254,-25.879,0.000
340.000,-75.195,-45.898,-6.836,-29.785,0.000
344.000,-76.172,-44.434,-9.277,-29.297,0.000
348.000,-63.477,-35.645,-13.184,-23.926,0.000
352.000,-48.828,-37.109,-16.602,-29.297,0.000
355.000,-51.270,-41.016,-17.090,-29.785,0.000
359.000,-70.312,-42.480,-23.438,-21.484,0.000
363.000,-74.707,-46.387,-25.879,-21.973,0.000
367.000,-67.871,-47.363,-24.902,-33.691,0.000
371.000,-62.500,-44.922,-23.926,-34.668,0.000
375.000,-46.875,-38.574,-23.926,-31.250,0.000
379.000,-44.922,-37.598,-28.809,-40.527,0.000
383.000,-49.316,-35.156,-28.809,-43.945,0.000
387.000,-41.016,-32.715,-26.367,-38.574,0.000
391.000,-42.480,-33.203,-26.367,-41.992,0.000
395.000,-49.316,-38.086,-24.414,-41.504,0.000
398.000,-54.688,-41.504,-22.461,-28.809,0.000
402.000,-43.945,-42.480,-26.367,-25.879,0.000
406.000,-34.180,-39.551,-27.344,-29.297,0.000
410.000,-35.645,-34.668,-25.879,-29.297,0.000
414.000,-33.691,-32.227,-25.879,-29.297,0.000
418.000,-28.809,-29.785,-24.902,-41.504,0.000
422.000,-20.020,-32.227,-27.832,-47.363,0.000
426.000,-18.555,-36.133,-29.297,-32.227,0.000
430.000,-38.574,-38.086,-29.785,-27.832,0.000
434.000,-62.500,-36.133,-30.273,-33.203,0.000
437.000,-68.848,-33.203,-30.762,-34.668,0.000
441.000,-62.500,-32.227,-29.785,-30.273,0.000
445.000,-49.805,-29.785,-25.879,-17.578,0.000
449.000,-45.898,-24.902,-24.414,-10.742,0.000
453.000,-40.527,-24.414,-24.414,-23.438,0.000
457.000,-32.227,-29.785,-22.949,-26.855,0.000
461.000,-39.551,-26.855,-21.484,-12.207,0.000
465.000,-38.574,-24.414,-25.879,-17.578,0.000
469.000,-37.598,-27.344,-24.902,-29.785,0.000
473.000,-35.645,-30.762,-26.855,-32.715,0.000
477.000,-39.062,-28.809,-36.621,-24.414,0.000
480.000,-51.270,-25.391,-37.598,-17.090,0.000
484.000,-46.387,-29.297,-34.180,-22.949,0.000
488.000,-37.109,-34.180,-35.645,-28.809,0.000
492.000,-35.156,-31.250,-34.180,-20.020,0.000
496.000,-29.297,-29.297,-33.203,-18.555,0.000
500.000,-24.902,-25.879,-31.738,-32.227,0.000
504.000,-34.180,-20.996,-25.879,-38.574,0.000
508.000,-23.926,-25.391,-26.855,-38.574,0.000
512.000,-17.090,-34.180,-31.738,-38.574,0.000
516.000,-27.832,-32.715,-29.785,-24.902,0.000
520.000,-35.645,-32.715,-23.926,-19.043,0.000
523.000,-64.941,-34.180,-23.438,-21.973,0.000
527.000,-63.477,-29.785,-26.367,-12.695,0.000
531.000,-41.016,-30.273,-29.297,-19.043,0.000
535.000,-26.367,-31.250,-28.320,-30.273,0.000
539.000,-22.949,-27.344,-26.367,-17.090,0.000
543.000,-51.270,-28.809,-27.344,-14.648,0.000
547.000,-79.102,-31.738,-22.949,-24.414,0.000
551.000,-66.406,-27.344,-20.020,-28.320,0.000
555.000,-48.828,-22.461,-20.996,-34.668,0.000
559.000,-55.664,-25.391,-25.391,-32.227,0.000
562.000,-55.664,-26.367,-31.738,-25.879,0.000
566.000,-50.293,-22.949,-35.156,-26.367,0.000
570.000,-50.781,-29.297,-35.156,-32.227,0.000
574.000,-52.246,-39.551,-38.574,-28.809,0.000
578.000,-43.457,-32.715,-40.527,-24.414,0.000
582.000,-40.039,-28.320,-38.086,-25.391,0.000
586.000,-38.086,-29.297,-35.156,-31.738,0.000
590.000,-42.969,-26.367,-33.691,-38.574,0.000
594.000,-53.223,-26.367,-32.715,-27.832,0.000
598.000,-51.270,-26.367,-30.762,-24.902,0.000
602.000,-48.340,-29.785,-34.180,-41.504,0.000
605.000,-41.504,-34.668,-35.645,-59.570,0.000
609.000,-43.457,-34.668,-34.180,-55.664,0.000
613.000,-48.828,-34.668,-31.250,-36.133,0.000
617.000,-35.645,-35.645,-29.297,-30.273,0.000
621.000,-20.020,-35.156,-29.785,-41.016,0.000
625.000,-30.762,-34.180,-25.391,-37.598,0.000
629.000,-38.086,-34.668,-18.555,-22.949,0.000
633.000,-40.527,-35.645,-20.508,-20.508,0.000
637.000,-40.527,-34.180,-22.461,-10.254,0.000
641.000,-24.902,-30.762,-20.020,-5.371,0.000
645.000,-43.457,-23.926,-19.043,-19.531,0.000
648.000,-52.734,-19.531,-21.973,-29.785,0.000
652.000,-32.715,-15.137,-20.996,-25.391,0.000
656.000,-23.438,-13.672,-24.414,-29.297,0.000
660.000,-30.762,-13.672,-30.762,-32.227,0.000
664.000,-34.180,-8.789,-27.344,-23.926,0.000
668.000,-32.227,-0.488,-28.809,-28.809,0.000
672.000,-12.695,6.836,-37.109,-24.414,0.000
676.000,-9.766,11.230,-46.387,-13.184,0.000
680.000,-26.367,6.348,-50.293,-21.484,0.000
684.000,-27.832,7.324,-52.246,-28.809,0.000
687.000,-17.090,16.602,-55.176,-17.578,0.000
691.000,-2.441,17.578,-59.570,-21.973,0.000
695.000,-0.977,15.137,-62.988,-38.574,0.000
699.000,-10.742,17.578,-62.012,-35.156,0.000
703.000,-20.996,21.973,-57.617,-36.621,0.000
707.000,-17.090,23.438,-62.500,-37.109,0.000
711.000,-6.348,26.855,-66.895,-35.156,0.000
715.000,-22.949,29.785,-60.547,-39.551,0.000
719.000,-37.598,33.691,-59.082,-38.574,0.000
723.000,-13.184,36.621,-65.430,-47.852,0.000
727.000,-20.508,36.621,-62.988,-38.574,0.000
730.000,-22.461,36.621,-50.781,-20.508,0.000
734.000,-17.090,33.203,-55.664,-32.715,0.000
738.000,-25.391,32.715,-65.918,-42.969,0.000
742.000,-15.137,35.156,-64.941,-33.203,0.000
746.000,0.000,36.621,-62.012,-13.184,0.000
750.000,-3.418,38.086,-54.688,-6.348,0.000
754.000,-0.977,42.480,-55.176,-18.555,0.000
758.000,0.000,36.621,-63.965,-20.996,0.000
762.000,10.254,30.273,-64.453,-13.184,0.000
766.000,32.227,33.203,-58.105,-13.672,0.000
770.000,29.297,31.738,-58.594,-21.484,0.000
773.000,31.250,33.203,-63.477,-29.297,0.000
777.000,14.160,35.156,-60.059,-16.113,0.000
781.000,6.348,29.785,-56.641,-7.324,0.000
785.000,-5.859,26.367,-56.152,-15.625,0.000
789.000,-11.719,32.715,-54.688,-12.695,0.000
793.000,14.160,32.715,-55.664,-2.930,0.000
797.000,24.902,30.762,-55.664,-12.207,0.000
801.000,5.859,30.762,-58.594,-33.691,0.000
805.000,-14.160,25.391,-51.758,-15.137,0.000
809.000,-14.160,23.438,-51.270,-7.324,0.000
812.000,-6.836,21.484,-51.758,-24.414,0.000
816.000,-1.953,23.438,-51.270,-30.762,0.000
820.000,-7.324,22.949,-55.176,-39.551,0.000
824.000,-3.906,20.508,-55.664,-26.367,0.000
828.000,-7.812,18.066,-56.641,-23.438,0.000
832.000,-11.719,15.137,-53.711,-29.297,0.000
836.000,-6.836,17.090,-51.270,-28.320,0.000
840.000,-0.977,10.254,-50.781,-38.574,0.000
844.000,-6.348,0.977,-49.316,-38.086,0.000
848.000,-6.836,1.465,-51.758,-20.020,0.000
852.000,-23.926,1.953,-50.781,-32.715,0.000
855.000,-37.109,0.977,-44.434,-48.828,0.000
859.000,-21.973,0.977,-40.039,-41.992,0.000
863.000,-16.602,-2.930,-44.434,-42.969,0.000
867.000,-3.906,-6.348,-47.852,-36.621,0.000
871.000,-9.277,-6.348,-46.387,-33.203,0.000
875.000,-34.180,-8.301,-43.457,-37.109,0.000
879.000,-30.273,-7.812,-38.574,-22.461,0.000
883.000,-29.297,-9.766,-36.621,-27.344,0.000
887.000,-35.156,-14.160,-36.133,-41.016,0.000
891.000,-25.879,-14.160,-31.738,-40.527,0.000
895.000,-33.691,-14.160,-31.738,-35.645,0.000
898.000,-46.875,-18.066,-37.598,-24.902,0.000
902.000,-37.598,-21.484,-40.039,-23.438,0.000
906.000,-22.461,-20.020,-37.109,-25.391,0.000
910.000,-18.555,-25.391,-34.668,-18.066,0.000
914.000,-28.320,-30.762,-33.691,-13.672,0.000
918.000,-23.926,-27.344,-30.273,-20.020,0.000
922.000,-17.090,-24.414,-28.809,-22.461,0.000
926.000,-33.691,-25.879,-28.809,-15.137,0.000
930.000,-54.199,-27.832,-27.832,-21.973,0.000
934.000,-41.504,-30.273,-24.414,-35.645,0.000
937.000,-21.484,-31.738,-24.902,-33.203,0.000
941.000,-33.691,-32.715,-30.273,-29.297,0.000
945.000,-40.039,-37.109,-31.738,-33.691,0.000
949.000,-31.738,-43.945,-29.785,-37.598,0.000
953.000,-26.855,-38.086,-28.809,-41.504,0.000
957.000,-28.809,-38.086,-19.531,-41.504,0.000
961.000,-33.203,-39.062,-17.578,-42.480,0.000
965.000,-42.969,-40.039,-26.855,-57.617,0.000
969.000,-65.918,-51.270,-26.367,-60.547,0.000
973.000,-59.570,-50.781,-19.043,-44.922,0.000
977.000,-48.828,-50.781,-14.648,-45.410,0.000
980.000,-62.012,-58.594,-16.602,-47.363,0.000
984.000,-78.613,-63.965,-17.578,-54.199,0.000
988.000,-91.309,-69.336,-19.043,-75.684,0.000
992.000,-79.590,-73.242,-19.531,-76.660,0.000
996.000,-84.473,-71.289,-15.137,-74.219,0.000
1000.000,-92.773,-69.824,-16.113,-85.938,0.000
1004.000,-88.867,-74.707,-13.184,-83.496,0.000
1008.000,-94.727,-81.543,-5.371,-71.289,0.000
1012.000,-98.145,-79.590,-4.883,-70.801,0.000
1016.000,-104.004,-78.613,-3.906,-64.941,0.000
1019.000,-102.051,-86.914,-1.465,-65.430,0.000
1023.000,-92.773,-91.797,0.488,-74.707,0.000
1027.000,-104.980,-93.750,7.324,-72.266,0.000
1031.000,-113.281,-98.145,7.324,-71.777,0.000
1035.000,-104.980,-98.633,5.859,-88.867,0.000
1039.000,-101.562,-101.562,6.836,-91.309,0.000
1043.000,-108.398,-103.516,14.648,-70.801,0.000
1047.000,-112.305,-101.562,17.090,-56.152,0.000
1051.000,-105.469,-98.633,12.207,-55.664,0.000
1055.000,-113.770,-97.168,11.230,-58.594,0.000
1059.000,-120.117,-100.586,11.230,-50.293,0.000
1062.000,-111.328,-102.539,12.695,-39.062,0.000
1066.000,-94.238,-102.051,10.254,-45.898,0.000
1070.000,-75.195,-100.586,5.371,-53.223,0.000
1074.000,-69.336,-99.609,6.836,-50.293,0.000
1078.000,-83.984,-100.586,9.766,-45.410,0.000
1082.000,-87.891,-99.121,7.324,-35.645,0.000
1086.000,-85.449,-97.168,0.977,-35.645,0.000
1090.000,-85.938,-91.797,-2.930,-34.180,0.000
1094.000,-66.406,-84.473,-2.930,-27.344,0.000
1098.000,-52.734,-80.566,0.000,-27.832,0.000
1102.000,-41.504,-77.148,3.418,-33.691,0.000
1105.000,-41.016,-78.125,-2.441,-35.645,0.000
1109.000,-39.062,-71.289,-8.301,-22.949,0.000
1113.000,-44.434,-66.895,-9.766,-12.207,0.000
1117.000,-62.988,-66.895,-12.695,-16.602,0.000
1121.000,-62.988,-65.918,-14.648,-20.020,0.000
1125.000,-44.434,-64.453,-15.137,-20.996,0.000
1129.000,-24.414,-57.617,-15.625,-20.020,0.000
1133.000,-22.461,-51.758,-15.625,-24.902,0.000
1137.000,-29.297,-47.852,-16.113,-22.461,0.000
1141.000,-35.156,-49.316,-14.160,-19.531,0.000
1144.000,-39.062,-50.293,-13.672,-22.461,0.000
1148.000,-47.852,-53.223,-16.602,-28.809,0.000
1152.000,-59.082,-58.594,-18.066,-26.855,0.000
1156.000,-69.336,-54.688,-15.625,-24.902,0.000
1160.000,-62.988,-50.293,-9.766,-24.414,0.000
1164.000,-60.059,-51.270,-15.625,-26.855,0.000
1168.000,-63.477,-48.340,-17.090,-28.320,0.000
1172.000,-45.410,-44.434,-13.672,-25.391,0.000
1176.000,-37.598,-39.551,-14.648,-20.508,0.000
1180.000,-33.691,-32.715,-17.090,-15.137,0.000
1184.000,-38.574,-34.668,-18.066,-22.949,0.000
1187.000,-47.852,-41.504,-19.531,-20.020,0.000
1191.000,-45.410,-39.062,-20.020,-23.926,0.000
1195.000,-43.945,-33.203,-19.531,-33.203,0.000
1199.000,-37.109,-39.062,-21.484,-25.879,0.000
1203.000,-24.414,-41.992,-22.461,-29.297,0.000
1207.000,2.930,-32.227,-23.438,-31.738,0.000
1211.000,-13.184,-28.809,-20.508,-21.973,0.000
1215.000,-59.082,-39.062,-25.391,-25.879,0.000
1219.000,-53.223,-39.551,-29.297,-34.668,0.000
1223.000,-28.809,-33.203,-21.973,-26.855,0.000
1227.000,-18.066,-34.180,-18.066,-17.578,0.000
1230.000,-29.785,-39.551,-22.949,-17.578,0.000
1234.000,-44.922,-40.527,-27.832,-23.438,0.000
1238.000,-49.316,-41.504,-27.832,-32.715,0.000
1242.000,-55.664,-43.457,-24.414,-20.020,0.000
1246.000,-59.082,-40.527,-24.414,-18.555,0.000
1250.000,-47.852,-37.598,-24.902,-34.180,0.000
1254.000,-34.180,-30.273,-23.926,-31.738,0.000
1258.000,-25.879,-27.832,-25.879,-30.762,0.000
1262.000,-37.109,-31.738,-26.855,-30.273,0.000
1266.000,-58.594,-28.809,-27.344,-35.645,0.000
1269.000,-58.105,-32.227,-25.391,-41.992,0.000
1273.000,-50.293,-30.762,-25.879,-26.367,0.000
1277.000,-48.340,-22.461,-23.926,-15.137,0.000
1281.000,-52.734,-20.020,-19.043,-23.438,0.000
1285.000,-46.387,-16.602,-13.672,-12.695,0.000
1289.000,-20.020,-14.648,-16.602,12.695,0.000
1293.000,-21.973,-17.578,-20.996,5.371,0.000
1297.000,-47.363,-24.902,-20.020,-29.785,0.000
1301.000,-49.805,-29.785,-15.137,-43.945,0.000
1305.000,-42.480,-30.273,-8.789,-41.504,0.000
1309.000,-27.832,-32.227,-8.301,-27.344,0.000
1312.000,-15.137,-37.598,-11.719,-21.973,0.000
1316.000,-27.344,-42.969,-16.602,-33.203,0.000
1320.000,-10.742,-41.016,-17.578,-26.855,0.000
1324.000,2.930,-34.180,-15.625,-4.395,0.000
1328.000,-4.395,-38.574,-14.648,1.953,0.000
1332.000,-10.254,-45.898,-19.043,-2.930,0.000
1336.000,-44.434,-43.457,-12.695,4.395,0.000
1340.000,-48.340,-35.645,-11.719,13.672,0.000
1344.000,-39.551,-32.715,-18.066,12.207,0.000
1348.000,-40.039,-39.551,-20.020,10.254,0.000
1352.000,-39.062,-44.922,-24.414,1.465,0.000
1355.000,-39.551,-40.039,-24.414,-11.230,0.000
1359.000,-41.992,-38.574,-22.461,-5.859,0.000
1363.000,-39.551,-43.457,-21.484,1.953,0.000
1367.000,-33.203,-39.062,-21.973,-11.230,0.000
1371.000,-24.414,-33.203,-26.367,-18.555,0.000
1375.000,-21.973,-35.645,-27.832,-11.230,0.000
1379.000,-32.715,-40.039,-20.996,-7.812,0.000
1383.000,-32.715,-35.156,-19.043,-13.184,0.000
1387.000,-27.832,-34.180,-22.949,-16.113,0.000
1391.000,-26.367,-37.598,-26.367,-9.766,0.000
1394.000,-28.320,-34.668,-26.855,4.883,0.000
1398.000,-24.414,-37.598,-24.902,10.254,0.000
1402.000,3.418,-36.621,-26.855,22.949,0.000
1406.000,-12.695,-27.344,-32.715,11.230,0.000
1410.000,-28.809,-23.438,-40.527,-33.203,0.000
1414.000,0.977,-23.438,-42.969,-34.180,0.000
1418.000,39.062,-15.625,-41.016,-17.578,0.000
1422.000,41.016,-8.789,-44.434,-21.973,0.000
1426.000,-19.043,-11.230,-50.781,-14.160,0.000
1430.000,-54.688,-12.207,-47.363,-6.348,0.000
1434.000,-48.340,-7.324,-42.480,1.953,0.000
1437.000,-34.180,-1.465,-44.434,4.395,0.000
1441.000,-25.879,0.977,-48.340,-6.836,0.000
1445.000,-12.207,4.395,-51.270,-4.395,0.000
1449.000,-10.742,2.930,-50.293,-2.930,0.000
1453.000,-10.742,0.977,-52.246,-17.090,0.000
1457.000,-1.465,5.371,-53.711,-21.973,0.000
1461.000,-0.488,6.348,-54.199,-21.484,0.000
1465.000,-12.207,2.930,-53.223,-17.090,0.000
1469.000,-3.418,4.395,-55.176,-20.996,0.000
1473.000,15.625,10.254,-60.059,-28.809,0.000
1477.000,19.531,12.207,-55.664,-29.785,0.000
1480.000,30.762,16.602,-47.363,-23.926,0.000
1484.000,11.719,18.066,-50.293,-21.973,0.000
1488.000,-1.465,20.996,-55.176,-21.484,0.000
1492.000,2.441,28.809,-49.316,-7.324,0.000
1496.000,-4.395,25.391,-49.805,-14.160,0.000
1500.000,-0.488,26.855,-47.852,-11.230,0.000
1504.000,-16.602,26.367,-49.805,-17.090,0.000
1508.000,-26.855,24.414,-53.711,-21.484,0.000
1512.000,-12.695,33.691,-52.246,-11.230,0.000
1516.000,-0.488,34.668,-51.758,-6.836,0.000
1519.000,15.137,35.156,-55.664,-1.465,0.000
1523.000,8.301,32.715,-62.500,-8.789,0.000
1527.000,-3.418,27.832,-61.035,2.441,0.000
1531.000,-9.766,23.438,-55.664,13.672,0.000
1535.000,-5.859,19.531,-58.594,-5.371,0.000
1539.000,16.113,26.367,-62.988,-11.230,0.000
1543.000,21.484,28.320,-61.035,4.883,0.000
1547.000,4.883,24.414,-63.477,-2.930,0.000
1551.000,7.812,23.438,-65.918,-15.137,0.000
1555.000,16.113,26.367,-58.594,0.977,0.000
1559.000,2.441,28.809,-57.129,13.184,0.000
1562.000,1.465,29.785,-59.570,15.137,0.000
1566.000,17.090,33.203,-57.617,9.277,0.000
1570.000,15.137,33.203,-56.152,-10.742,0.000
1574.000,3.906,28.320,-57.129,-10.254,0.000
1578.000,-3.418,24.414,-58.105,2.930,0.000
1582.000,-9.766,19.531,-56.152,3.418,0.000
1586.000,-11.719,18.555,-54.199,-2.930,0.000
1590.000,-9.277,23.438,-55.664,-10.254,0.000
1594.000,-8.789,22.949,-58.105,-7.812,0.000
1598.000,-3.418,24.902,-59.082,-5.859,0.000
1602.000,-1.465,24.902,-60.059,-3.418,0.000
1605.000,-11.719,20.996,-62.500,-7.324,0.000
1609.000,-4.395,20.508,-62.988,-11.230,0.000
1613.000,1.953,21.484,-58.594,-6.836,0.000
1617.000,-6.348,19.043,-52.246,-8.301,0.000
1621.000,-5.859,14.648,-49.805,-12.695,0.000
1625.000,-9.766,15.137,-49.316,-14.648,0.000
1629.000,10.254,17.578,-47.363,-8.301,0.000
1633.000,29.297,19.531,-46.387,0.000,0.000
1637.000,-3.418,17.090,-46.875,-3.906,0.000
1641.000,-31.250,16.113,-44.434,-1.953,0.000
1644.000,-9.277,20.508,-37.598,1.465,0.000
1648.000,3.418,15.137,-38.574,-2.441,0.000
1652.000,-16.602,11.719,-43.457,-12.695,0.000
1656.000,-32.715,12.207,-42.969,-24.902,0.000
1660.000,-37.109,3.418,-41.992,-15.625,0.000
1664.000,-37.109,1.953,-41.504,-3.906,0.000
1668.000,-35.156,1.953,-45.898,-19.043,0.000
1672.000,-34.668,-2.930,-46.875,-36.133,0.000
1676.000,-28.320,0.000,-40.039,-35.156,0.000
1680.000,-21.973,-0.488,-38.574,-30.762,0.000
1684.000,-13.184,-8.301,-37.598,-28.320,0.000
1687.000,-24.414,-13.184,-31.738,-12.695,0.000
1691.000,-41.016,-15.137,-32.715,-2.441,0.000
1695.000,-33.691,-11.719,-31.738,-6.836,0.000
1699.000,-28.809,-14.160,-30.762,-9.766,0.000
1703.000,-26.367,-20.508,-32.227,-15.137,0.000
1707.000,-9.766,-21.484,-32.227,-18.555,0.000
1711.000,-12.207,-22.461,-33.203,-23.926,0.000
1715.000,-30.273,-27.344,-32.227,-20.508,0.000
1719.000,-36.621,-30.273,-24.414,-12.695,0.000
1723.000,-41.016,-25.879,-20.996,-18.066,0.000
1727.000,-34.668,-31.250,-29.297,-21.973,0.000
1730.000,-39.062,-35.156,-31.250,-20.508,0.000
1734.000,-54.688,-32.715,-26.367,-21.484,0.000
1738.000,-52.246,-34.668,-28.320,-30.762,0.000
1742.000,-57.617,-33.203,-33.691,-36.133,0.000
1746.000,-70.801,-30.762,-32.715,-29.297,0.000
1750.000,-50.293,-27.832,-34.668,-32.227,0.000
1754.000,-24.414,-29.297,-35.156,-41.504,0.000
1758.000,-28.809,-34.668,-33.691,-35.645,0.000
1762.000,-43.945,-38.086,-35.156,-31.250,0.000
1766.000,-45.898,-37.598,-30.273,-28.809,0.000
1769.000,-43.457,-37.598,-27.344,-34.668,0.000
1773.000,-41.016,-41.992,-31.738,-51.758,0.000
1777.000,-36.621,-41.504,-35.156,-42.480,0.000
1781.000,-37.109,-47.363,-26.367,-38.574,0.000
1785.000,-43.457,-52.246,-18.555,-64.453,0.000
1789.000,-53.711,-55.176,-21.973,-71.777,0.000
1793.000,-62.500,-62.012,-24.902,-67.383,0.000
1797.000,-53.711,-63.477,-23.438,-68.359,0.000
1801.000,-54.199,-62.012,-15.625,-65.430,0.000
1805.000,-76.660,-66.895,-13.672,-56.152,0.000
1809.000,-81.055,-67.383,-16.113,-56.152,0.000
1812.000,-76.660,-62.500,-9.766,-51.758,0.000
1816.000,-78.613,-71.777,-4.395,-53.223,0.000
1820.000,-85.938,-78.125,-2.930,-54.199,0.000
1824.000,-89.844,-71.777,1.953,-44.922,0.000
1828.000,-94.727,-79.102,4.883,-47.852,0.000
1832.000,-87.891,-87.891,5.371,-48.828,0.000
1836.000,-82.031,-88.867,3.906,-54.199,0.000
1840.000,-105.469,-96.680,0.000,-56.152,0.000
1844.000,-115.234,-100.586,-3.906,-47.852,0.000
1848.000,-112.305,-104.492,0.488,-48.340,0.000
1851.000,-108.887,-106.445,7.812,-52.246,0.000
1855.000,-107.422,-106.934,5.859,-57.129,0.000
1859.000,-99.121,-107.910,3.906,-45.410,0.000
1863.000,-89.844,-108.887,6.348,-42.969,0.000
1867.000,-86.914,-105.957,10.254,-45.410,0.000
1871.000,-83.496,-99.609,12.695,-37.109,0.000
1875.000,-91.797,-98.145,9.766,-36.621,0.000
1879.000,-84.961,-98.633,5.859,-41.992,0.000
1883.000,-65.918,-99.121,7.812,-48.340,0.000
1887.000,-58.105,-97.168,6.836,-53.711,0.000
1891.000,-62.500,-98.145,6.836,-45.898,0.000
1894.000,-90.332,-98.633,7.812,-32.227,0.000
1898.000,-104.004,-93.750,5.371,-30.273,0.000
1902.000,-90.820,-95.703,1.465,-33.203,0.000
1906.000,-78.613,-94.238,0.488,-29.785,0.000
1910.000,-84.961,-90.332,-0.488,-22.461,0.000
1914.000,-97.656,-88.867,-1.465,-19.531,0.000
1918.000,-89.355,-83.008,0.977,-33.203,0.000
1922.000,-73.730,-78.613,-2.930,-43.457,0.000
1926.000,-65.430,-79.102,-5.371,-35.645,0.000
1930.000,-67.383,-73.242,-7.812,-24.902,0.000
1934.000,-59.082,-65.430,-11.230,-25.879,0.000
1937.000,-44.922,-63.965,-8.789,-31.738,0.000
1941.000,-48.340,-63.965,-8.301,-27.832,0.000
1945.000,-54.688,-57.129,-7.812,-17.090,0.000
1949.000,-53.223,-50.293,-6.836,-11.230,0.000
1953.000,-54.199,-53.711,-11.230,-24.902,0.000
1957.000,-53.223,-50.781,-10.742,-32.227,0.000
1961.000,-45.410,-48.340,-11.230,-22.949,0.000
1965.000,-31.250,-49.316,-14.160,-15.625,0.000
1969.000,-25.391,-49.316,-15.137,-24.414,0.000
1973.000,-27.344,-49.316,-13.672,-28.320,0.000
1976.000,-23.438,-49.316,-19.531,-21.973,0.000
1980.000,-37.598,-49.316,-23.926,-16.602,0.000
1984.000,-47.852,-47.852,-21.484,-20.508,0.000
1988.000,-34.668,-45.898,-25.879,-34.668,0.000
1992.000,-20.508,-43.945,-26.855,-37.598,0.000
1996.000,-19.531,-43.945,-25.879,-34.668,0.000
2000.000,-24.414,-39.551,-30.762,-41.992,0.000
2004.000,-29.785,-35.645,-32.715,-46.387,0.000
2008.000,-42.480,-34.668,-29.785,-32.227,0.000
2012.000,-55.664,-33.203,-32.715,-18.066,0.000
2016.000,-53.223,-33.203,-31.250,-24.414,0.000
2019.000,-39.062,-30.762,-24.902,-36.133,0.000
2023.000,-22.461,-31.250,-23.926,-43.945,0.000
2027.000,-36.621,-36.133,-25.391,-32.715,0.000
2031.000,-65.918,-38.574,-24.902,-27.832,0.000
2035.000,-64.941,-32.715,-17.578,-31.250,0.000
2039.000,-51.270,-28.809,-21.484,-26.855,0.000
2043.000,-45.898,-32.227,-26.855,-29.785,0.000
2047.000,-42.969,-34.668,-26.855,-32.715,0.000
2051.000,-29.785,-33.203,-29.785,-44.434,0.000
2055.000,-22.949,-33.691,-36.133,-53.223,0.000
2059.000,-28.320,-40.039,-34.180,-50.293,0.000
2062.000,-47.363,-41.992,-30.762,-56.641,0.000
2066.000,-60.547,-34.180,-36.133,-56.641,0.000
2070.000,-54.688,-30.273,-39.062,-52.246,0.000
2074.000,-41.992,-29.785,-39.551,-51.758,0.000
2078.000,-41.504,-28.809,-34.668,-44.434,0.000
2082.000,-50.781,-30.762,-29.297,-48.828,0.000
2086.000,-41.504,-29.785,-30.273,-65.430,0.000
2090.000,-41.016,-30.273,-32.227,-68.359,0.000
2094.000,-50.781,-30.762,-33.203,-60.059,0.000
2098.000,-50.293,-31.738,-29.297,-57.617,0.000
2101.000,-51.270,-34.668,-29.297,-62.500,0.000
2105.000,-33.691,-35.156,-30.273,-62.500,0.000
2109.000,-7.812,-31.250,-31.738,-52.734,0.000
2113.000,-14.160,-30.273,-33.691,-42.969,0.000
2117.000,-42.480,-32.227,-33.691,-41.992,0.000
2121.000,-42.480,-31.738,-29.785,-33.691,0.000
2125.000,-54.688,-29.297,-27.832,-25.879,0.000
2129.000,-67.383,-31.250,-34.180,-26.855,0.000
2133.000,-61.035,-30.762,-29.297,-27.344,0.000
2137.000,-66.406,-31.250,-30.762,-36.621,0.000
2141.000,-53.223,-30.762,-30.273,-22.461,0.000
2144.000,-42.969,-24.902,-26.367,-13.672,0.000
2148.000,-50.781,-30.762,-30.273,-27.344,0.000
2152.000,-50.293,-34.668,-30.762,-30.273,0.000
2156.000,-40.527,-35.645,-29.785,-28.320,0.000
2160.000,-39.551,-34.180,-27.344,-22.461,0.000
2164.000,-37.109,-29.785,-29.297,-23.926,0.000
2168.000,-35.645,-31.738,-28.809,-30.762,0.000
2172.000,-52.246,-35.156,-27.832,-32.227,0.000
2176.000,-59.082,-37.598,-28.809,-30.762,0.000
2180.000,-51.270,-34.668,-24.902,-28.320,0.000
2184.000,-51.758,-33.203,-22.461,-30.273,0.000
2187.000,-41.016,-32.715,-20.996,-34.180,0.000
2191.000,-22.949,-30.762,-22.949,-41.016,0.000
2195.000,-23.438,-27.832,-28.809,-33.691,0.000
2199.000,-16.602,-24.414,-30.273,-27.832,0.000
2203.000,-20.996,-26.855,-25.879,-16.602,0.000
2207.000,-35.645,-27.344,-24.414,-2.441,0.000
2211.000,-56.152,-25.391,-27.344,-25.391,0.000
2215.000,-56.641,-22.461,-34.668,-43.945,0.000
2219.000,-23.438,-13.672,-39.551,-28.809,0.000
2223.000,-6.836,-4.395,-33.691,-13.184,0.000
2226.000,-28.320,-3.906,-35.645,-10.742,0.000
2230.000,-42.969,-4.395,-43.457,-15.625,0.000
2234.000,-10.254,6.348,-46.875,-16.113,0.000
2238.000,19.043,8.789,-43.457,-14.648,0.000
2242.000,12.207,7.812,-41.016,-16.113,0.000
2246.000,-0.488,11.230,-46.387,-16.602,0.000
2250.000,-10.742,11.230,-48.340,-26.855,0.000
2254.000,-6.836,14.648,-52.734,-22.949,0.000
2258.000,16.113,20.996,-53.711,-17.090,0.000
2262.000,16.602,20.508,-54.688,-9.277,0.000
2266.000,16.602,25.879,-56.152,1.465,0.000
2269.000,34.668,31.738,-55.176,-0.977,0.000
2273.000,25.879,29.785,-49.316,-4.395,0.000
2277.000,20.996,33.203,-44.922,11.230,0.000
2281.000,33.203,39.062,-49.316,11.719,0.000
2285.000,5.859,40.039,-58.105,-15.625,0.000
2289.000,9.766,39.551,-63.477,-15.625,0.000
2293.000,22.461,35.645,-63.477,0.000,0.000
2297.000,10.254,38.086,-62.012,-3.906,0.000
2301.000,24.414,44.434,-62.988,-0.977,0.000
2305.000,13.672,37.109,-58.594,-4.395,0.000
2309.000,9.766,31.738,-57.617,-5.859,0.000
2312.000,3.906,29.297,-62.012,-6.348,0.000
2316.000,-11.719,30.762,-59.082,-5.371,0.000
2320.000,-6.348,33.691,-61.035,-13.672,0.000
2324.000,-11.230,27.344,-65.430,-19.043,0.000
2328.000,1.953,29.785,-64.941,-6.348,0.000
2332.000,19.531,34.180,-64.453,-6.836,0.000
2336.000,27.344,32.715,-62.988,-3.906,0.000
2340.000,40.527,29.785,-60.059,-4.395,0.000
2344.000,27.344,30.762,-59.570,-10.254,0.000
2348.000,16.602,33.691,-55.664,-14.648,0.000
2351.000,8.301,25.391,-57.129,-17.578,0.000
2355.000,5.371,21.973,-61.035,-19.043,0.000
2359.000,14.160,28.320,-57.129,-13.672,0.000
2363.000,18.555,27.832,-57.617,-9.766,0.000
2367.000,20.508,25.391,-50.781,0.488,0.000
2371.000,12.207,30.273,-45.410,11.230,0.000
2375.000,5.859,27.344,-47.363,-5.371,0.000
2379.000,-0.977,21.484,-48.340,-8.789,0.000
2383.000,-9.277,19.531,-50.781,-7.812,0.000
2387.000,1.465,15.625,-50.781,-13.184,0.000
2391.000,0.488,9.277,-52.246,-20.996,0.000
2394.000,-29.297,6.836,-51.758,-17.090,0.000
2398.000,-31.250,10.254,-43.945,-9.277,0.000
2402.000,-17.578,10.742,-45.898,-21.484,0.000
2406.000,-10.742,7.812,-45.410,-26.367,0.000
2410.000,1.953,9.277,-42.480,-10.742,0.000
2414.000,-4.883,10.254,-46.387,-15.137,0.000
2418.000,-9.766,4.883,-49.316,-27.344,0.000
2422.000,8.789,1.465,-54.688,-36.621,0.000
2426.000,9.766,-4.883,-52.734,-39.062,0.000
2430.000,-18.555,-14.648,-50.293,-27.832,0.000
2434.000,-48.828,-17.090,-47.363,-28.809,0.000
2437.000,-56.152,-14.648,-42.969,-24.414,0.000
2441.000,-51.758,-8.789,-37.598,-30.273,0.000
2445.000,-32.227,-9.766,-36.621,-39.062,0.000
2449.000,-29.297,-12.207,-39.062,-38.086,0.000
2453.000,-30.273,-9.766,-40.039,-41.504,0.000
2457.000,-22.949,-10.742,-39.551,-21.484,0.000
2461.000,-31.738,-9.766,-34.180,-10.254,0.000
2465.000,-41.992,-8.789,-39.062,-26.367,0.000
2469.000,-36.621,-14.160,-46.387,-33.691,0.000
2473.000,-41.992,-17.578,-42.969,-30.273,0.000
2476.000,-48.340,-21.973,-38.574,-26.855,0.000
2480.000,-47.852,-23.926,-38.574,-20.508,0.000
2484.000,-43.945,-20.508,-40.039,-15.137,0.000
2488.000,-20.020,-16.113,-37.598,-19.043,0.000
2492.000,-9.766,-20.020,-34.180,-24.414,0.000
2496.000,-15.625,-24.414,-30.273,-29.785,0.000
2500.000,-8.789,-21.973,-34.668,-40.039,0.000
2504.000,7.812,-20.020,-39.551,-40.039,0.000
2508.000,-5.859,-16.602,-34.668,-31.738,0.000
2512.000,-26.367,-13.672,-31.738,-31.738,0.000
2516.000,-19.531,-11.230,-29.297,-36.133,0.000
2519.000,-31.738,-13.184,-25.879,-41.992,0.000
2523.000,-44.922,-22.461,-26.367,-38.086,0.000
2527.000,-42.969,-23.438,-27.344,-30.273,0.000
2531.000,-43.457,-27.832,-30.762,-36.621,0.000
2535.000,-35.156,-32.227,-31.250,-38.574,0.000
2539.000,-32.715,-30.273,-30.762,-38.574,0.000
2543.000,-29.297,-30.273,-33.203,-33.203,0.000
2547.000,-31.738,-27.344,-30.762,-26.367,0.000
2551.000,-45.898,-24.902,-26.855,-35.645,0.000
2555.000,-36.621,-24.414,-25.391,-43.457,0.000
2559.000,-46.875,-25.391,-25.391,-41.992,0.000
2562.000,-45.898,-29.297,-25.391,-34.668,0.000
2566.000,-32.715,-30.273,-24.902,-38.086,0.000
2570.000,-46.875,-27.344,-26.855,-46.387,0.000
2574.000,-44.434,-25.879,-29.297,-38.574,0.000
2578.000,-35.645,-29.297,-31.738,-31.738,0.000
2582.000,-37.109,-36.133,-33.203,-34.180,0.000
2586.000,-26.367,-39.551,-33.691,-38.574,0.000
2590.000,0.488,-35.156,-33.691,-38.086,0.000
2594.000,3.906,-29.297,-34.180,-39.551,0.000
2598.000,-10.742,-29.297,-36.133,-38.574,0.000
2601.000,-23.438,-30.762,-34.180,-31.250,0.000
2605.000,-34.180,-29.297,-27.832,-29.785,0.000
2609.000,-23.438,-35.645,-26.367,-29.297,0.000
2613.000,-13.672,-36.133,-32.715,-33.203,0.000
2617.000,-12.695,-31.250,-36.133,-31.250,0.000
2621.000,-10.254,-27.344,-32.227,-33.691,0.000
2625.000,-21.484,-26.367,-29.297,-47.363,0.000
2629.000,-31.738,-27.344,-26.367,-29.297,0.000
2633.000,-23.926,-22.949,-23.438,-20.020,0.000
2637.000,-25.879,-20.996,-18.066,-36.621,0.000
2641.000,-12.207,-24.414,-20.020,-33.691,0.000
2644.000,-1.465,-21.484,-22.949,-22.949,0.000
2648.000,7.812,-20.508,-23.926,-29.297,0.000
2652.000,-10.254,-29.785,-24.414,-31.250,0.000
2656.000,-45.898,-32.227,-26.855,-26.855,0.000
2660.000,-54.199,-33.691,-31.250,-30.762,0.000
2664.000,-42.969,-30.762,-31.738,-3.906,0.000
2668.000,-10.742,-27.344,-24.414,10.254,0.000
2672.000,-18.066,-39.062,-10.742,-3.906,0.000
2676.000,-39.062,-38.086,-13.672,-11.719,0.000
2680.000,-31.738,-35.645,-18.555,-10.254,0.000
2683.000,-22.461,-39.062,-10.742,-27.832,0.000
2687.000,-24.902,-48.828,-7.812,-42.480,0.000
2691.000,-40.527,-55.664,-9.766,-42.969,0.000
2695.000,-45.898,-62.012,-6.836,-48.828,0.000
2699.000,-48.828,-69.824,-4.883,-46.387,0.000
2703.000,-43.945,-73.730,-5.859,-55.664,0.000
2707.000,-38.086,-77.148,-0.488,-57.617,0.000
2711.000,-58.105,-83.496,4.883,-50.781,0.000
2715.000,-78.125,-89.844,9.277,-61.523,0.000
2719.000,-78.125,-89.844,1.953,-62.500,0.000
2723.000,-69.824,-87.891,0.488,-45.898,0.000
2726.000,-78.125,-89.844,7.324,-47.363,0.000
2730.000,-102.051,-96.680,7.812,-57.617,0.000
2734.000,-95.703,-94.727,12.695,-49.316,0.000
2738.000,-89.355,-93.262,12.695,-50.781,0.000
2742.000,-93.262,-96.680,19.043,-45.898,0.000
2746.000,-77.148,-94.727,23.438,-40.039,0.000
2750.000,-79.102,-94.238,8.301,-61.035,0.000
2754.000,-77.637,-97.656,9.277,-58.594,0.000
2758.000,-80.566,-100.098,16.602,-47.363,0.000
2762.000,-106.445,-100.586,15.137,-40.527,0.000
2766.000,-123.535,-106.934,15.137,-42.480,0.000
2769.000,-111.328,-105.957,11.230,-44.434,0.000
2773.000,-99.121,-97.656,11.719,-37.109,0.000
2777.000,-98.633,-98.145,14.648,-31.250,0.000
2781.000,-91.309,-100.098,10.742,-35.645,0.000
2785.000,-87.891,-94.727,5.859,-42.969,0.000
2789.000,-80.078,-92.285,3.906,-35.645,0.000
2793.000,-66.406,-87.891,5.371,-23.438,0.000
2797.000,-66.895,-83.008,6.348,-22.461,0.000
2801.000,-65.430,-84.473,1.465,-34.180,0.000
2805.000,-58.105,-78.125,-2.930,-45.898,0.000
2808.000,-53.223,-75.684,-7.812,-44.434,0.000
2812.000,-47.852,-79.590,-13.672,-27.832,0.000
2816.000,-59.082,-75.195,-10.742,-23.926,0.000
2820.000,-62.500,-75.195,-10.254,-35.645,0.000
2824.000,-59.570,-73.242,-18.066,-46.875,0.000
2828.000,-56.641,-67.871,-20.020,-43.457,0.000
2832.000,-46.875,-70.312,-20.996,-42.480,0.000
2836.000,-30.762,-65.918,-18.555,-53.711,0.000
2840.000,-15.137,-59.082,-11.230,-27.344,0.000
2844.000,-22.949,-60.547,-14.160,-0.977,0.000
2848.000,-67.383,-55.664,-19.043,-20.020,0.000
2851.000,-94.238,-51.758,-22.949,-52.246,0.000
2855.000,-65.918,-46.875,-27.832,-55.176,0.000
2859.000,-52.246,-36.621,-36.133,-38.574,0.000
2863.000,-61.523,-27.832,-42.480,-29.785,0.000
2867.000,-40.527,-14.648,-39.551,-14.648,0.000
2871.000,-22.461,-4.395,-36.621,-17.578,0.000
2875.000,-27.832,-7.812,-38.086,-25.879,0.000
2879.000,-29.297,-8.789,-41.992,-21.973,0.000
2883.000,-25.879,-2.930,-52.734,-31.738,0.000
2887.000,-21.484,1.465,-57.617,-37.109,0.000
2891.000,-3.906,7.324,-58.105,-20.020,0.000
2894.000,-1.953,9.766,-56.641,-9.277,0.000
2898.000,-1.953,9.766,-55.176,-25.879,0.000
2902.000,6.836,13.184,-58.594,-26.855,0.000
2906.000,6.348,14.160,-54.688,-19.043,0.000
2910.000,7.324,17.578,-52.734,-12.695,0.000
2914.000,11.719,24.414,-56.641,-21.484,0.000
2918.000,24.902,22.949,-55.176,-31.738,0.000
2922.000,31.738,26.367,-50.781,-29.297,0.000
2926.000,48.340,30.762,-50.293,-22.949,0.000
2930.000,43.945,27.832,-55.664,-20.508,0.000
2933.000,20.020,23.438,-57.617,-37.109,0.000
2937.000,20.996,20.996,-56.152,-30.762,0.000
2941.000,9.277,18.066,-53.223,-14.648,0.000
2945.000,-22.461,11.230,-52.734,-19.531,0.000
2949.000,-41.016,10.254,-51.270,-30.762,0.000
2953.000,-36.621,6.348,-48.828,-37.109,0.000
2957.000,-17.090,5.859,-47.363,-30.273,0.000
2961.000,-4.395,4.395,-50.293,-29.785,0.000
2965.000,-2.441,2.930,-52.734,-25.391,0.000
2969.000,-15.625,5.371,-47.852,-29.785,0.000
2973.000,-26.367,3.418,-49.316,-42.969,0.000
2976.000,-26.367,4.395,-52.246,-19.531,0.000
2980.000,-28.320,5.371,-53.711,-14.160,0.000
2984.000,-28.320,2.930,-51.270,-33.691,0.000
2988.000,-26.367,8.789,-48.340,-30.273,0.000
2992.000,-22.461,6.836,-47.363,-15.625,0.000
2996.000,-14.160,1.465,-48.340,-20.020,0.000
3000.000,-7.324,3.418,-47.363,-26.855,0.000
3004.000,-2.930,3.418,-45.898,-32.227,0.000
3008.000,7.324,4.395,-43.457,-37.598,0.000
3012.000,5.859,2.930,-39.062,-29.297,0.000
3016.000,3.906,2.930,-44.434,-26.367,0.000
3019.000,14.160,8.301,-41.016,-24.414,0.000
3023.000,18.555,8.301,-37.109,-23.438,0.000
3027.000,-8.301,4.395,-38.086,-21.973,0.000
3031.000,-7.324,2.930,-39.551,-26.367,0.000
3035.000,6.836,3.418,-45.410,-34.668,0.000
3039.000,-6.836,5.859,-47.363,-39.551,0.000
3043.000,-8.301,1.465,-46.387,-33.691,0.000
3047.000,-5.859,3.906,-45.898,-27.832,0.000
3051.000,-16.113,5.859,-45.410,-32.227,0.000
3055.000,-29.785,0.977,-44.434,-33.203,0.000
3058.000,-44.434,0.488,-41.992,-20.996,0.000
3062.000,-31.738,-4.395,-42.969,-13.672,0.000
3066.000,-18.066,-4.883,-43.457,-35.156,0.000
3070.000,-12.695,-3.906,-40.039,-45.410,0.000
3074.000,-4.395,-5.371,-45.898,-35.156,0.000
3078.000,-31.250,-12.207,-47.852,-26.855,0.000
3082.000,-50.781,-15.625,-41.992,-35.645,0.000
3086.000,-32.227,-12.207,-42.969,-42.969,0.000
3090.000,-34.180,-11.230,-44.434,-33.203,0.000
3094.000,-43.945,-9.766,-40.039,-31.250,0.000
3098.000,-28.809,-6.836,-43.457,-35.645,0.000
3101.000,-33.203,-8.301,-47.363,-39.062,0.000
3105.000,-45.410,-12.207,-43.945,-35.156,0.000
3109.000,-44.922,-8.789,-42.480,-33.203,0.000
3113.000,-36.621,-4.395,-42.480,-39.062,0.000
3117.000,-36.621,-1.465,-39.062,-37.598,0.000
3121.000,-46.875,-2.441,-37.109,-52.246,0.000
3125.000,-42.969,-0.488,-40.039,-57.129,0.000
3129.000,-34.180,2.441,-37.598,-62.012,0.000
3133.000,-32.227,-1.465,-38.086,-76.172,0.000
3137.000,-19.043,-0.977,-40.039,-74.219,0.000
3141.000,-20.020,-1.953,-35.645,-72.754,0.000
3144.000,-28.320,-1.953,-37.109,-64.453,0.000
3148.000,-22.949,-1.953,-40.527,-62.500,0.000
3152.000,-40.039,-3.906,-44.434,-63.477,0.000
3156.000,-38.086,-2.441,-45.410,-50.293,0.000
3160.000,-50.781,-1.953,-36.621,-39.551,0.000
3164.000,-67.871,-9.277,-36.133,-34.180,0.000
3168.000,-52.734,-13.672,-40.039,-39.062,0.000
3172.000,-51.270,-16.113,-42.969,-53.711,0.000
3176.000,-44.434,-20.508,-41.016,-50.781,0.000
3180.000,-57.617,-25.391,-38.086,-44.434,0.000
3183.000,-82.031,-31.250,-36.621,-55.664,0.000
3187.000,-56.152,-26.367,-34.668,-49.805,0.000
3191.000,-39.551,-18.066,-33.203,-34.180,0.000
3195.000,-52.734,-22.461,-30.762,-39.062,0.000
3199.000,-43.945,-26.855,-26.855,-41.504,0.000
3203.000,-41.504,-25.391,-25.879,-41.016,0.000
3207.000,-41.016,-28.809,-22.949,-41.016,0.000
3211.000,-32.715,-31.250,-20.508,-28.320,0.000
3215.000,-20.508,-32.227,-22.949,-29.297,0.000
3219.000,-14.160,-34.668,-20.996,-33.691,0.000
3223.000,-18.555,-31.738,-24.902,-22.949,0.000
3226.000,-8.789,-26.367,-30.273,-25.391,0.000
3230.000,-0.488,-23.438,-30.762,-28.320,0.000
3234.000,1.953,-22.461,-25.391,-28.320,0.000
3238.000,3.906,-23.438,-20.508,-31.738,0.000
3242.000,2.441,-21.973,-21.973,-21.973,0.000
3246.000,-9.766,-22.461,-26.367,-11.719,0.000
3250.000,-20.020,-26.367,-28.809,-5.371,0.000
3254.000,-15.137,-27.344,-25.879,-5.371,0.000
3258.000,-6.836,-25.879,-24.902,-11.719,0.000
3262.000,-19.043,-29.785,-26.855,-13.184,0.000
3266.000,-19.043,-33.691,-25.879,-8.789,0.000
3269.000,-14.160,-28.809,-19.043,-2.441,0.000
3273.000,-28.320,-23.926,-19.531,-2.441,0.000
3277.000,-18.066,-29.297,-20.020,-2.930,0.000
3281.000,-7.812,-34.668,-20.020,-0.488,0.000
3285.000,-15.625,-30.273,-21.484,-6.348,0.000
3289.000,-19.043,-30.762,-20.996,-9.766,0.000
3293.000,-24.414,-32.715,-18.555,0.488,0.000
3297.000,-29.297,-37.598,-20.508,-6.348,0.000
3301.000,-16.602,-41.504,-29.785,-15.625,0.000
3305.000,0.488,-40.039,-26.367,-14.648,0.000
3308.000,10.742,-40.039,-25.879,-24.414,0.000
3312.000,-1.953,-38.574,-26.367,-10.742,0.000
3316.000,-32.715,-37.598,-24.414,-11.230,0.000
3320.000,-17.578,-37.109,-25.391,-22.461,0.000
3324.000,2.441,-36.621,-22.949,-10.254,0.000
3328.000,-18.555,-38.086,-24.414,-8.301,0.000
3332.000,-31.250,-41.992,-31.250,-14.160,0.000
3336.000,-21.484,-42.969,-30.762,-26.855,0.000
3340.000,-9.277,-38.086,-31.250,-31.738,0.000
3344.000,-13.672,-38.574,-34.668,-24.414,0.000
3348.000,-34.668,-44.434,-37.598,-20.996,0.000
3351.000,-41.504,-47.363,-42.969,-33.203,0.000
3355.000,-46.387,-48.340,-44.434,-47.363,0.000
3359.000,-46.875,-42.969,-42.480,-20.996,0.000
3363.000,-24.902,-36.133,-32.715,4.395,0.000
3367.000,-23.438,-41.504,-20.508,-10.742,0.000
3371.000,-39.062,-47.363,-21.484,-29.785,0.000
3375.000,-35.645,-44.434,-22.461,-28.320,0.000
3379.000,-35.156,-49.805,-16.113,-31.250,0.000
3383.000,-33.203,-61.523,-14.648,-36.133,0.000
3387.000,-41.992,-63.965,-9.277,-41.504,0.000
3391.000,-72.266,-64.941,-3.418,-54.688,0.000
3394.000,-98.633,-69.336,-4.395,-54.688,0.000
3398.000,-101.562,-79.102,-2.441,-47.852,0.000
3402.000,-92.285,-80.078,3.418,-49.805,0.000
3406.000,-84.961,-80.566,3.906,-54.688,0.000
3410.000,-78.125,-82.520,7.324,-62.012,0.000
3414.000,-91.797,-83.008,13.672,-65.918,0.000
3418.000,-99.121,-85.449,12.207,-66.895,0.000
3422.000,-99.121,-90.820,8.789,-70.312,0.000
3426.000,-112.793,-97.656,3.906,-71.777,0.000
3430.000,-102.051,-88.867,4.883,-58.594,0.000
3433.000,-93.750,-84.961,7.812,-64.941,0.000
3437.000,-88.379,-91.797,4.395,-87.891,0.000
3441.000,-93.750,-93.262,12.207,-68.848,0.000
3445.000,-121.094,-93.750,19.531,-53.223,0.000
3449.000,-124.023,-95.703,10.254,-61.523,0.000
3453.000,-114.258,-100.586,2.930,-67.871,0.000
3457.000,-115.723,-108.887,8.301,-72.266,0.000
3461.000,-102.539,-109.375,8.789,-70.312,0.000
3465.000,-85.938,-104.980,3.418,-73.242,0.000
3469.000,-79.102,-104.004,1.953,-76.660,0.000
3473.000,-83.496,-104.004,7.324,-62.500,0.000
3476.000,-85.938,-100.098,6.836,-45.898,0.000
3480.000,-82.520,-98.633,6.836,-43.457,0.000
3484.000,-78.125,-93.750,5.859,-37.598,0.000
3488.000,-74.707,-87.891,1.953,-32.227,0.000
3492.000,-75.195,-84.473,0.977,-23.926,0.000
3496.000,-65.430,-77.148,3.906,-20.508,0.000
3500.000,-53.223,-79.102,4.883,-38.086,0.000
3504.000,-54.199,-78.125,1.953,-40.527,0.000
3508.000,-59.082,-69.824,-1.465,-39.062,0.000
3512.000,-59.570,-65.430,-2.441,-44.922,0.000
3516.000,-51.758,-62.988,-3.906,-44.922,0.000
3519.000,-29.785,-62.500,-9.766,-55.664,0.000
3523.000,-30.273,-62.988,-12.207,-58.105,0.000
3527.000,-51.270,-62.500,-14.648,-45.410,0.000
3531.000,-69.824,-60.059,-20.996,-41.016,0.000
3535.000,-74.219,-52.734,-18.555,-40.039,0.000
3539.000,-64.453,-48.340,-11.719,-38.574,0.000
3543.000,-60.547,-52.246,-15.137,-34.668,0.000
3547.000,-62.988,-52.734,-16.602,-37.598,0.000
3551.000,-48.828,-49.316,-12.695,-41.992,0.000
3555.000,-37.598,-51.270,-18.066,-34.668,0.000
3558.000,-39.062,-50.781,-18.066,-33.691,0.000
3562.000,-27.832,-49.316,-14.648,-27.832,0.000
3566.000,-33.203,-43.945,-14.160,-18.555,0.000
3570.000,-45.898,-43.945,-12.695,-21.484,0.000
3574.000,-52.246,-50.781,-16.113,-17.090,0.000
3578.000,-49.316,-50.781,-20.996,-13.184,0.000
3582.000,-37.109,-46.387,-22.949,-15.137,0.000
3586.000,-37.109,-44.434,-22.461,-16.113,0.000
3590.000,-24.902,-41.992,-18.066,-18.066,0.000
3594.000,-16.113,-40.527,-17.090,-9.766,0.000
3598.000,-20.996,-40.527,-18.066,-8.789,0.000
3601.000,-41.016,-44.922,-20.996,-11.230,0.000
3605.000,-58.105,-48.828,-26.367,-6.348,0.000
3609.000,-42.969,-46.875,-23.438,-6.836,0.000
3613.000,-25.879,-51.270,-22.949,-4.395,0.000
3617.000,-14.160,-50.781,-21.973,-4.395,0.000
3621.000,3.418,-41.992,-24.414,-16.113,0.000
3625.000,-15.137,-38.086,-28.320,-19.531,0.000
3629.000,-65.918,-38.086,-27.832,-9.766,0.000
3633.000,-77.637,-37.598,-29.785,-6.348,0.000
3637.000,-64.453,-37.598,-33.203,-14.160,0.000
3640.000,-58.594,-38.574,-33.203,-11.719,0.000
3644.000,-42.969,-35.156,-31.250,2.930,0.000
3648.000,-42.969,-31.738,-31.738,5.371,0.000
3652.000,-47.363,-32.715,-32.715,-10.254,0.000
3656.000,-47.852,-28.809,-36.621,-20.996,0.000
3660.000,-37.109,-25.391,-35.156,-9.277,0.000
3664.000,-13.184,-30.762,-32.715,6.836,0.000
3668.000,-9.766,-32.715,-28.809,9.766,0.000
3672.000,-35.156,-34.180,-24.902,-18.066,0.000
3676.000,-43.945,-31.250,-24.902,-30.273,0.000
3680.000,-36.621,-32.715,-24.414,-16.602,0.000
3683.000,-51.758,-41.504,-26.367,-20.020,0.000
3687.000,-54.199,-40.039,-27.832,-17.578,0.000
3691.000,-44.922,-38.086,-30.273,-12.207,0.000
3695.000,-42.480,-38.574,-29.785,-17.090,0.000
3699.000,-37.598,-32.715,-24.414,-15.625,0.000
3703.000,-41.504,-35.645,-23.926,-26.855,0.000
3707.000,-66.895,-41.016,-29.297,-29.297,0.000
3711.000,-76.172,-40.039,-33.203,-20.508,0.000
3715.000,-62.012,-39.551,-31.738,-25.879,0.000
3719.000,-49.316,-40.527,-32.227,-22.461,0.000
3723.000,-51.270,-39.551,-33.203,-11.230,0.000
3726.000,-56.152,-37.598,-32.715,-8.301,0.000
3730.000,-35.645,-36.621,-32.715,-7.324,0.000
3734.000,-27.344,-37.109,-30.762,0.488,0.000
3738.000,-36.621,-32.227,-27.832,10.254,0.000
3742.000,-30.762,-29.297,-28.809,8.301,0.000
3746.000,-41.016,-30.762,-26.367,6.348,0.000
3750.000,-55.664,-31.738,-16.602,12.207,0.000
3754.000,-45.410,-28.320,-13.184,7.324,0.000
3758.000,-47.363,-27.832,-22.461,-1.953,0.000
3762.000,-42.969,-30.273,-20.996,9.766,0.000
3765.000,-28.809,-30.273,-19.531,8.301,0.000
3769.000,-29.297,-30.273,-20.508,4.395,0.000
3773.000,-32.227,-28.809,-18.555,4.395,0.000
3777.000,-27.344,-29.297,-19.043,7.324,0.000
3781.000,-26.367,-29.785,-23.926,2.930,0.000
3785.000,-28.809,-28.320,-28.809,-13.672,0.000
3789.000,-32.227,-25.391,-26.855,-8.789,0.000
3793.000,-29.785,-28.809,-24.414,0.977,0.000
3797.000,-40.527,-29.297,-25.879,5.859,0.000
3801.000,-49.316,-29.297,-28.809,-1.953,0.000
3805.000,-34.180,-36.133,-32.715,1.465,0.000
3808.000,-35.645,-36.133,-30.762,13.672,0.000
3812.000,-40.039,-33.203,-28.320,1.953,0.000
3816.000,-25.879,-30.762,-29.297,-15.137,0.000
3820.000,-15.625,-32.715,-26.855,-19.043,0.000
3824.000,-14.160,-35.645,-26.855,-4.395,0.000
3828.000,-30.762,-35.645,-31.250,-0.488,0.000
3832.000,-49.316,-37.109,-28.809,-6.348,0.000
3836.000,-40.527,-35.156,-26.855,-4.395,0.000
3840.000,-45.410,-32.227,-27.832,-4.395,0.000
3844.000,-60.547,-34.668,-27.344,-8.789,0.000
3848.000,-53.711,-31.738,-29.297,-12.207,0.000
3851.000,-34.668,-28.320,-29.785,-10.254,0.000
3855.000,-34.180,-28.809,-30.273,-13.184,0.000
3859.000,-34.668,-32.715,-35.645,-26.367,0.000
3863.000,-33.691,-32.715,-32.715,-29.297,0.000
3867.000,-41.504,-28.809,-26.367,-14.648,0.000
3871.000,-36.621,-28.320,-28.320,-8.301,0.000
3875.000,-49.805,-32.715,-30.273,-15.625,0.000
3879.000,-51.270,-30.273,-26.855,-12.695,0.000
3883.000,-38.086,-22.949,-26.855,-12.695,0.000
3887.000,-27.344,-28.809,-25.879,-23.438,0.000
3890.000,-23.438,-34.668,-26.855,-20.508,0.000
3894.000,-21.973,-28.809,-31.250,-17.090,0.000
3898.000,-24.414,-30.762,-36.621,-25.879,0.000
3902.000,-29.785,-36.621,-38.086,-25.879,0.000
3906.000,-29.297,-33.691,-30.273,-20.020,0.000
3910.000,-26.367,-31.250,-29.297,-18.555,0.000
3914.000,-23.926,-29.297,-33.691,-10.742,0.000
3918.000,-5.371,-28.320,-29.297,-0.977,0.000
3922.000,-17.578,-29.297,-28.809,-4.395,0.000
3926.000,-58.105,-29.297,-34.668,-13.184,0.000
3930.000,-69.336,-25.391,-34.180,-21.973,0.000
3933.000,-69.336,-25.879,-31.250,-25.391,0.000
3937.000,-52.734,-23.926,-32.227,-16.113,0.000
3941.000,-40.039,-18.555,-38.574,-15.625,0.000
3945.000,-36.621,-18.555,-40.527,-18.066,0.000
3949.000,-20.020,-12.207,-43.945,-19.531,0.000
3953.000,6.836,-2.441,-48.828,-21.973,0.000
3957.000,-3.906,0.488,-45.410,-2.930,0.000
3961.000,-28.809,-0.977,-40.039,5.859,0.000
3965.000,-29.785,4.395,-46.387,-5.859,0.000
3969.000,-10.254,9.277,-54.688,-9.277,0.000
3973.000,0.977,10.254,-55.664,-8.789,0.000
3976.000,2.930,9.277,-57.617,-2.441,0.000
3980.000,12.207,10.742,-54.688,-6.348,0.000
3984.000,23.438,14.160,-54.199,-24.414,0.000
3988.000,37.598,15.137,-58.105,-30.273,0.000
3992.000,7.812,12.207,-58.105,-16.113,0.000
3996.000,-21.973,9.766,-54.688,-8.301,0.000
4000.000,-12.207,14.648,-49.316,-8.301,0.000
4004.000,0.000,23.438,-50.293,-13.672,0.000
4008.000,19.531,24.414,-53.711,-16.113,0.000
4012.000,11.230,23.926,-54.199,-3.418,0.000
4015.000,-12.695,24.902,-59.082,3.418,0.000
4019.000,-3.418,28.320,-56.641,0.977,0.000
4023.000,8.789,28.809,-55.664,0.000,0.000
4027.000,14.160,28.320,-58.105,0.000,0.000
4031.000,2.930,27.832,-55.664,10.254,0.000
4035.000,8.789,32.227,-56.641,10.254,0.000
4039.000,20.996,36.621,-55.176,9.277,0.000
4043.000,21.484,29.297,-54.199,10.254,0.000
4047.000,34.180,26.855,-54.688,9.766,0.000
4051.000,38.086,31.738,-52.734,3.906,0.000
4055.000,36.133,33.691,-56.152,-1.953,0.000
4058.000,33.203,30.273,-55.664,8.301,0.000
4062.000,25.391,27.344,-51.270,9.766,0.000
4066.000,31.250,28.809,-53.223,1.465,0.000
4070.000,38.086,28.320,-57.129,-2.930,0.000
4074.000,33.691,27.832,-56.152,-2.441,0.000
4078.000,29.785,29.297,-48.340,-6.348,0.000
4082.000,25.391,26.855,-45.898,-5.371,0.000
4086.000,17.090,22.949,-52.734,-4.395,0.000
4090.000,19.531,17.578,-55.176,-15.625,0.000
4094.000,14.160,13.672,-53.223,-6.836,0.000
4098.000,-3.906,16.602,-53.711,19.043,0.000
4101.000,-13.184,13.184,-52.734,12.695,0.000
4105.000,-16.602,12.207,-53.223,-12.695,0.000
4109.000,1.953,13.672,-54.688,-4.395,0.000
4113.000,6.348,9.277,-53.711,-6.348,0.000
4117.000,-7.812,6.836,-56.152,-17.578,0.000
4121.000,-3.906,7.324,-57.129,-13.672,0.000
4125.000,5.371,5.859,-51.758,-22.949,0.000
4129.000,-14.160,1.953,-51.758,-22.461,0.000
4133.000,-33.203,2.930,-60.059,-23.926,0.000
4137.000,-39.551,4.395,-57.129,-33.203,0.000
4140.000,-27.344,2.930,-49.805,-25.879,0.000
4144.000,-10.254,2.441,-50.781,-15.625,0.000
4148.000,-18.066,4.395,-48.340,-17.090,0.000
4152.000,-24.414,-1.465,-44.434,-22.461,0.000
4156.000,-17.090,-4.883,-39.551,-21.973,0.000
4160.000,-5.371,-3.906,-35.156,-18.066,0.000
4164.000,0.000,-7.324,-41.016,-9.277,0.000
4168.000,-10.742,-7.324,-48.340,-20.508,0.000
4172.000,-36.621,-12.207,-46.387,-36.621,0.000
4176.000,-38.086,-15.625,-43.945,-31.250,0.000
4180.000,-38.086,-16.602,-42.969,-30.273,0.000
4183.000,-62.500,-20.508,-42.480,-43.945,0.000
4187.000,-54.199,-19.531,-40.527,-49.805,0.000
4191.000,-46.387,-16.602,-41.016,-41.992,0.000
4195.000,-48.340,-18.066,-40.039,-31.738,0.000
4199.000,-49.316,-20.996,-37.598,-17.578,0.000
4203.000,-44.922,-25.391,-34.668,-24.902,0.000
4207.000,-30.762,-21.973,-38.086,-44.922,0.000
4211.000,-17.578,-15.137,-39.062,-41.016,0.000
4215.000,-8.301,-19.531,-35.645,-33.691,0.000
4219.000,-11.230,-22.949,-34.180,-43.945,0.000
4223.000,-6.836,-22.461,-28.809,-46.875,0.000
4226.000,0.977,-25.391,-26.367,-22.949,0.000
4230.000,-1.953,-25.391,-26.367,-10.742,0.000
4234.000,-8.789,-25.879,-25.391,-19.531,0.000
4238.000,-26.367,-22.461,-22.949,-27.344,0.000
4242.000,-27.344,-20.996,-22.461,-25.391,0.000
4246.000,-43.945,-23.926,-26.855,-15.625,0.000
4250.000,-50.781,-27.832,-29.297,-10.254,0.000
4254.000,-46.875,-29.297,-30.762,-1.953,0.000
4258.000,-40.527,-30.273,-35.156,-8.789,0.000
4262.000,-24.902,-31.738,-38.086,-15.137,0.000
4265.000,-41.992,-32.715,-34.180,-8.789,0.000
4269.000,-51.758,-31.738,-29.785,-7.324,0.000
4273.000,-37.598,-29.297,-26.367,-14.160,0.000
4277.000,-30.273,-30.273,-30.273,-16.113,0.000
4281.000,-36.621,-35.156,-35.156,-15.625,0.000
4285.000,-26.855,-35.645,-28.320,-16.113,0.000
4289.000,-20.020,-30.273,-25.879,-8.789,0.000
4293.000,-23.926,-27.344,-27.344,-11.230,0.000
4297.000,-10.742,-26.367,-28.320,-16.113,0.000
4301.000,-9.277,-29.297,-28.320,-22.461,0.000
4305.000,-25.879,-29.785,-27.832,-33.203,0.000
4308.000,-26.367,-32.227,-32.715,-31.738,0.000
4312.000,-26.855,-37.598,-37.109,-35.645,0.000
4316.000,-37.109,-35.156,-41.016,-41.016,0.000
4320.000,-22.949,-36.133,-42.969,-42.480,0.000
4324.000,-17.578,-41.504,-40.527,-35.156,0.000
4328.000,-56.641,-44.434,-36.621,-34.180,0.000
4332.000,-73.242,-47.363,-37.598,-40.039,0.000
4336.000,-49.805,-48.340,-39.062,-40.527,0.000
4340.000,-46.875,-42.969,-40.039,-49.316,0.000
4344.000,-41.992,-39.551,-42.969,-40.527,0.000
4347.000,-34.180,-36.133,-36.621,-3.418,0.000
4351.000,-39.551,-37.598,-26.855,2.930,0.000
4355.000,-43.457,-47.363,-23.438,-29.785,0.000
4359.000,-34.668,-44.434,-20.996,-20.508,0.000
4363.000,-38.574,-45.898,-19.043,-13.184,0.000
4367.000,-49.805,-51.270,-17.090,-37.598,0.000
4371.000,-42.480,-53.223,-11.230,-41.992,0.000
4375.000,-35.645,-61.523,-3.906,-42.480,0.000
4379.000,-45.898,-67.871,-0.977,-40.527,0.000
4383.000,-53.711,-70.312,4.883,-29.785,0.000
4387.000,-53.223,-73.730,9.277,-31.250,0.000
4390.000,-59.570,-84.961,5.859,-40.527,0.000
4394.000,-64.941,-89.355,8.789,-26.367,0.000
4398.000,-65.430,-91.797,12.695,-26.855,0.000
4402.000,-61.523,-97.168,12.207,-41.992,0.000
4406.000,-69.336,-100.586,8.301,-43.945,0.000
4410.000,-85.449,-97.168,7.324,-30.273,0.000
4414.000,-95.215,-97.656,15.625,-29.297,0.000
4418.000,-101.562,-104.004,11.230,-47.363,0.000
4422.000,-90.820,-100.586,7.812,-41.504,0.000
4426.000,-88.867,-97.656,11.230,-43.457,0.000
4430.000,-95.215,-104.004,2.930,-53.223,0.000
4433.000,-97.168,-105.469,10.254,-52.246,0.000
4437.000,-101.562,-103.516,20.020,-60.059,0.000
4441.000,-87.891,-106.445,14.160,-51.270,0.000
4445.000,-82.031,-103.027,17.090,-31.738,0.000
4449.000,-93.262,-100.098,14.160,-43.457,0.000
4453.000,-84.473,-100.098,13.184,-47.852,0.000
4457.000,-77.637,-94.727,16.602,-41.016,0.000
4461.000,-75.195,-89.844,9.277,-38.574,0.000
4465.000,-62.012,-90.820,4.395,-40.527,0.000
4469.000,-59.570,-88.379,0.977,-44.434,0.000
4472.000,-59.082,-83.496,-1.953,-46.875,0.000
4476.000,-47.363,-81.543,-0.977,-38.086,0.000
4480.000,-44.922,-79.102,0.000,-27.344,0.000
4484.000,-61.035,-75.195,-0.977,-20.508,0.000
4488.000,-85.449,-74.707,-3.906,-17.090,0.000
4492.000,-85.449,-74.219,-9.277,-25.879,0.000
4496.000,-83.008,-69.336,-9.277,-26.367,0.000
4500.000,-74.219,-69.336,-7.812,-29.297,0.000
4504.000,-50.781,-69.824,-12.207,-41.016,0.000
4508.000,-63.965,-67.383,-15.625,-36.133,0.000
4512.000,-80.078,-61.035,-13.184,-31.738,0.000
4515.000,-71.289,-60.059,-12.695,-32.715,0.000
4519.000,-64.453,-57.129,-14.160,-28.809,0.000
4523.000,-62.500,-52.246,-19.043,-34.180,0.000
4527.000,-62.500,-57.129,-25.391,-32.715,0.000
4531.000,-59.570,-55.664,-24.902,-18.066,0.000
4535.000,-66.406,-53.711,-22.461,-22.461,0.000
4539.000,-64.941,-49.316,-20.020,-28.320,0.000
4543.000,-46.875,-43.945,-25.879,-21.484,0.000
4547.000,-42.969,-45.898,-28.320,-26.855,0.000
4551.000,-44.434,-47.852,-24.902,-35.645,0.000
4555.000,-40.527,-46.875,-26.367,-33.691,0.000
4558.000,-29.297,-50.293,-31.250,-33.691,0.000
4562.000,-23.438,-46.387,-28.809,-41.992,0.000
4566.000,-17.090,-40.039,-20.996,-33.691,0.000
4570.000,-21.973,-42.480,-20.508,-24.902,0.000
4574.000,-46.875,-44.922,-26.855,-20.508,0.000
4578.000,-47.852,-48.340,-25.879,-8.301,0.000
4582.000,-32.227,-47.363,-24.902,-9.766,0.000
4586.000,-19.531,-42.480,-26.855,-29.297,0.000
4590.000,-14.160,-41.992,-24.902,-31.738,0.000
4594.000,-41.504,-49.316,-25.879,-20.508,0.000
4597.000,-40.527,-50.781,-26.855,-19.043,0.000
4601.000,-45.410,-45.898,-27.344,-26.367,0.000
4605.000,-79.102,-43.945,-29.785,-25.391,0.000
4609.000,-71.289,-41.504,-35.156,-17.090,0.000
4613.000,-53.711,-36.621,-31.250,-11.230,0.000
4617.000,-50.781,-38.086,-29.785,-20.508,0.000
4621.000,-48.828,-43.457,-33.203,-23.438,0.000
4625.000,-50.293,-44.434,-31.250,-22.461,0.000
4629.000,-51.270,-38.574,-30.273,-29.785,0.000
4633.000,-45.410,-33.691,-27.832,-25.391,0.000
4637.000,-34.668,-33.691,-27.344,-16.602,0.000
4640.000,-28.320,-33.203,-30.273,-18.066,0.000
4644.000,-29.785,-33.203,-32.227,-17.578,0.000
4648.000,-37.109,-32.715,-31.738,-17.578,0.000
4652.000,-41.992,-29.297,-30.273,-20.996,0.000
4656.000,-40.039,-28.809,-31.250,-16.602,0.000
4660.000,-41.992,-27.832,-31.250,-20.996,0.000
4664.000,-33.691,-28.320,-31.738,-18.555,0.000
4668.000,-28.320,-31.738,-34.668,-22.949,0.000
4672.000,-33.691,-33.203,-34.668,-39.551,0.000
4676.000,-19.531,-33.691,-31.250,-31.250,0.000
4680.000,-7.812,-35.645,-28.809,-26.855,0.000
4683.000,-21.973,-34.180,-25.879,-30.273,0.000
4687.000,-32.227,-33.203,-24.414,-35.645,0.000
4691.000,-46.875,-35.156,-24.902,-35.156,0.000
4695.000,-63.965,-37.109,-29.297,-20.996,0.000
4699.000,-63.477,-37.109,-31.250,-20.996,0.000
4703.000,-44.922,-33.203,-23.926,-16.113,0.000
4707.000,-44.434,-35.645,-21.973,-8.301,0.000
4711.000,-71.289,-34.180,-29.785,-22.949,0.000
4715.000,-81.543,-28.320,-35.645,-40.039,0.000
4719.000,-53.711,-22.949,-36.133,-41.992,0.000
4722.000,-31.738,-20.020,-41.504,-34.668,0.000
4726.000,-39.062,-18.066,-45.898,-30.762,0.000
4730.000,-41.504,-13.672,-49.316,-37.109,0.000
4734.000,-40.527,-14.160,-49.805,-37.598,0.000
4738.000,-41.016,-10.254,-43.945,-23.438,0.000
4742.000,-35.156,-5.859,-42.480,-15.625,0.000
4746.000,-28.809,-4.395,-47.852,-29.297,0.000
4750.000,-20.508,-1.465,-51.270,-52.734,0.000
4754.000,-2.441,-0.977,-51.758,-54.199,0.000
4758.000,5.859,6.348,-53.223,-44.434,0.000
4762.000,6.836,6.836,-57.617,-45.410,0.000
4765.000,-13.672,5.371,-63.477,-57.129,0.000
4769.000,-21.973,8.301,-62.012,-68.359,0.000
4773.000,-13.672,12.695,-59.570,-70.801,0.000
4777.000,-39.062,19.043,-55.664,-69.336,0.000
4781.000,-59.570,21.973,-54.688,-69.824,0.000
4785.000,-52.734,26.367,-54.199,-63.965,0.000
4789.000,-45.410,34.180,-54.688,-70.312,0.000
4793.000,-43.945,40.527,-56.641,-74.219,0.000
4797.000,-29.785,41.504,-53.223,-67.871,0.000
4801.000,-13.184,41.016,-58.594,-70.801,0.000
4805.000,-41.504,38.574,-62.012,-68.848,0.000
4808.000,-70.312,38.086,-54.688,-48.828,0.000
4812.000,-63.965,38.574,-50.781,-42.969,0.000
4816.000,-56.152,39.551,-50.781,-44.434,0.000
4820.000,-43.457,40.527,-52.246,-44.434,0.000
4824.000,-30.273,41.016,-51.270,-41.504,0.000
4828.000,-12.695,43.945,-55.176,-30.762,0.000
4832.000,-4.395,44.434,-59.570,-29.785,0.000
4836.000,-0.977,41.992,-61.035,-40.039,0.000
4840.000,23.926,42.969,-64.941,-39.062,0.000
4844.000,37.598,50.293,-62.500,-26.367,0.000
4847.000,-6.348,46.875,-52.734,-4.883,0.000
4851.000,-31.738,34.180,-52.734,-5.371,0.000
4855.000,-10.742,28.809,-56.641,-20.508,0.000
4859.000,-5.371,25.879,-59.082,-19.531,0.000
4863.000,-8.301,20.020,-57.617,-14.648,0.000
4867.000,0.488,19.531,-54.688,-8.789,0.000
4871.000,6.348,23.438,-51.758,-4.395,0.000
4875.000,0.000,23.926,-52.246,1.465,0.000
4879.000,4.883,20.996,-56.641,8.789,0.000
4883.000,20.996,25.879,-54.688,14.160,0.000
4887.000,24.902,26.855,-53.711,14.160,0.000
4890.000,23.926,22.461,-54.199,12.207,0.000
4894.000,20.508,16.113,-58.594,3.418,0.000
4898.000,23.926,15.137,-64.941,-1.953,0.000
4902.000,45.898,20.020,-55.664,0.977,0.000
4906.000,54.688,18.066,-56.641,3.418,0.000
4910.000,51.758,14.160,-62.012,5.859,0.000
4914.000,48.340,13.672,-57.129,4.395,0.000
4918.000,11.719,12.695,-53.711,-1.465,0.000
4922.000,-21.973,3.418,-52.734,-6.836,0.000
4926.000,-24.902,1.465,-51.758,6.348,0.000
4930.000,-22.461,3.418,-46.387,14.648,0.000
4933.000,-5.371,-3.418,-46.387,5.859,0.000
4937.000,0.488,-0.488,-46.387,-4.395,0.000
4941.000,4.883,1.465,-45.410,-14.160,0.000
4945.000,16.113,2.930,-41.016,-3.906,0.000
4949.000,10.742,6.836,-37.598,2.441,0.000
4953.000,5.859,-0.977,-41.504,-14.648,0.000
4957.000,-2.930,-2.930,-44.922,-14.648,0.000
4961.000,-17.090,-0.977,-41.992,-17.090,0.000
4965.000,-14.648,-11.230,-45.410,-20.508,0.000
4969.000,-3.906,-8.789,-48.340,-16.113,0.000
4972.000,-0.977,-7.324,-47.363,-13.672,0.000
4976.000,3.906,-15.137,-47.852,-8.301,0.000
4980.000,9.277,-13.672,-45.898,-8.301,0.000
4984.000,-3.906,-16.602,-43.945,-10.742,0.000
4988.000,-14.648,-15.137,-35.156,-0.488,0.000
4992.000,-9.766,-12.207,-32.715,4.883,0.000
4996.000,-11.230,-15.625,-32.227,-6.348,0.000
5000.000,-18.066,-16.113,-29.297,-21.973,0.000
5004.000,-20.996,-11.719,-31.738,-22.461,0.000
5008.000,-26.855,-13.184,-35.156,-13.672,0.000
5012.000,-35.645,-20.020,-32.715,-19.531,0.000
5015.000,-33.203,-25.391,-30.273,-12.207,0.000
5019.000,-28.809,-19.531,-35.645,-8.301,0.000
5023.000,-20.996,-15.625,-42.969,-24.902,0.000
5027.000,-15.137,-22.461,-44.922,-31.738,0.000
5031.000,-20.508,-28.809,-41.992,-27.832,0.000
5035.000,-10.742,-27.344,-40.527,-16.602,0.000
5039.000,3.418,-29.785,-39.551,-14.648,0.000
5043.000,-12.207,-34.668,-41.992,-19.531,0.000
5047.000,-26.855,-34.668,-38.086,-16.113,0.000
5051.000,-35.156,-30.273,-34.668,-23.438,0.000
5055.000,-32.715,-28.320,-22.949,-21.973,0.000
5058.000,-13.672,-29.297,-19.531,-10.254,0.000
5062.000,-13.672,-30.273,-27.832,-9.277,0.000
5066.000,-20.996,-36.621,-28.320,3.418,0.000
5070.000,-20.020,-33.691,-26.367,7.812,0.000
5074.000,-9.766,-29.785,-21.484,1.465,0.000
5078.000,-16.602,-36.621,-22.949,-2.930,0.000
5082.000,-31.738,-33.203,-21.973,7.324,0.000
5086.000,-25.879,-27.832,-22.949,12.695,0.000
5090.000,-21.973,-28.320,-20.020,0.000,0.000
5094.000,-23.926,-28.809,-13.672,7.812,0.000
5097.000,-39.551,-31.250,-20.020,10.742,0.000
5101.000,-49.316,-35.156,-20.996,-4.395,0.000
5105.000,-41.016,-38.086,-17.578,-2.930,0.000
5109.000,-27.344,-31.738,-19.531,7.324,0.000
5113.000,0.977,-26.855,-16.113,19.043,0.000
5117.000,10.742,-23.926,-13.672,19.043,0.000
5121.000,2.441,-29.297,-11.230,9.766,0.000
5125.000,-16.602,-33.203,-11.719,14.160,0.000
5129.000,-25.391,-28.809,-15.137,18.555,0.000
5133.000,-21.973,-25.391,-15.137,5.859,0.000
5137.000,-19.043,-25.879,-14.648,-0.977,0.000
5140.000,-1.465,-26.367,-15.625,7.324,0.000
5144.000,-3.906,-28.809,-16.602,11.230,0.000
5148.000,-13.672,-32.227,-22.461,2.930,0.000
5152.000,-11.719,-33.203,-21.484,-3.906,0.000
5156.000,-18.066,-33.203,-22.949,-7.812,0.000
5160.000,-25.391,-30.273,-24.414,-11.230,0.000
5164.000,-5.859,-35.645,-23.438,1.465,0.000
5168.000,9.277,-38.086,-26.367,4.883,0.000
5172.000,-1.465,-30.273,-26.855,-8.301,0.000
5176.000,-31.250,-27.832,-22.949,-0.488,0.000
5180.000,-38.574,-28.320,-20.996,-2.930,0.000
5183.000,-25.391,-30.273,-29.785,-14.648,0.000
5187.000,-14.648,-31.738,-34.668,-4.883,0.000
5191.000,-23.438,-36.133,-33.691,2.930,0.000
5195.000,-74.219,-44.922,-34.668,-1.953,0.000
5199.000,-82.031,-44.922,-33.691,-8.789,0.000
5203.000,-65.918,-44.434,-28.809,-10.254,0.000
5207.000,-59.570,-45.410,-32.715,-15.625,0.000
5211.000,-49.316,-46.875,-36.133,-24.414,0.000
5215.000,-42.480,-55.664,-37.598,-21.973,0.000
5219.000,-43.945,-50.781,-38.574,-32.715,0.000
5222.000,-43.945,-44.434,-34.180,-34.180,0.000
5226.000,-47.852,-46.387,-35.156,-15.625,0.000
5230.000,-46.875,-42.969,-32.715,-13.672,0.000
5234.000,-34.668,-43.457,-28.809,-20.020,0.000
5238.000,-26.367,-43.457,-30.273,-23.926,0.000
5242.000,-14.160,-43.457,-26.855,-17.578,0.000
5246.000,-9.277,-49.805,-31.738,-19.531,0.000
5250.000,-28.320,-49.316,-33.203,-37.109,0.000
5254.000,-42.969,-48.828,-27.832,-36.621,0.000
5258.000,-44.434,-49.805,-30.762,-14.648,0.000
5262.000,-29.785,-41.504,-20.996,12.695,0.000
5265.000,-22.949,-50.781,-11.719,8.301,0.000
5269.000,-26.855,-59.570,-17.578,-11.230,0.000
5273.000,-16.602,-54.688,-20.996,-13.672,0.000
5277.000,-20.508,-54.688,-18.555,-8.301,0.000
5281.000,-48.340,-63.477,-9.277,-10.254,0.000
5285.000,-51.758,-69.824,-6.836,-16.602,0.000
5289.000,-42.480,-67.383,-7.324,-6.836,0.000
5293.000,-59.082,-68.359,-0.977,-2.441,0.000
5297.000,-59.082,-72.266,0.977,-2.441,0.000
5301.000,-34.668,-65.430,2.441,-1.953,0.000
5304.000,-30.762,-57.129,5.859,-7.324,0.000
5308.000,-35.156,-55.664,9.766,7.324,0.000
5312.000,-52.734,-60.059,11.719,5.859,0.000
5316.000,-66.406,-68.359,5.371,-23.926,0.000
5320.000,-60.059,-71.777,3.906,-23.926,0.000
5324.000,-55.664,-78.613,12.695,-12.695,0.000
5328.000,-71.289,-82.031,11.719,-24.902,0.000
5332.000,-79.590,-81.055,15.625,-28.809,0.000
5336.000,-70.312,-85.449,14.648,-22.949,0.000
5340.000,-65.918,-88.867,6.836,-28.320,0.000
5344.000,-63.477,-82.520,9.766,-27.344,0.000
5347.000,-64.941,-85.449,13.672,-39.551,0.000
5351.000,-72.754,-96.680,9.277,-46.875,0.000
5355.000,-63.965,-97.656,5.371,-42.969,0.000
5359.000,-71.777,-96.680,4.883,-38.086,0.000
5363.000,-77.637,-94.238,7.812,-20.508,0.000
5367.000,-64.453,-97.168,8.789,-29.297,0.000
5371.000,-60.059,-96.191,9.277,-33.691,0.000
5375.000,-35.645,-93.750,8.301,-20.996,0.000
5379.000,-26.367,-98.633,7.812,-15.625,0.000
5383.000,-77.148,-104.492,11.719,-30.273,0.000
5387.000,-115.234,-104.492,8.789,-24.414,0.000
5390.000,-96.191,-98.633,6.836,-8.789,0.000
5394.000,-88.867,-98.633,9.277,-20.508,0.000
5398.000,-99.121,-98.145,12.695,-20.996,0.000
5402.000,-87.402,-97.168,8.789,-19.531,0.000
5406.000,-66.406,-95.215,7.812,-15.137,0.000
5410.000,-70.801,-96.680,6.836,-17.578,0.000
5414.000,-71.777,-98.633,-0.977,-20.020,0.000
5418.000,-75.195,-94.238,-7.812,-28.320,0.000
5422.000,-73.242,-92.285,-9.766,-25.879,0.000
5426.000,-67.383,-89.355,-7.324,-7.812,0.000
5429.000,-62.988,-81.543,-5.859,-16.602,0.000
5433.000,-48.828,-81.543,-11.230,-12.695,0.000
5437.000,-44.434,-83.984,-13.672,-2.930,0.000
5441.000,-68.359,-79.102,-14.160,-9.766,0.000
5445.000,-76.660,-79.590,-14.648,-11.230,0.000
5449.000,-62.988,-83.008,-17.090,-6.836,0.000
5453.000,-58.105,-72.754,-11.719,-13.184,0.000
5457.000,-60.059,-61.035,-8.789,-15.137,0.000
5461.000,-60.547,-62.012,-16.113,-7.812,0.000
5465.000,-48.828,-58.105,-18.555,-13.672,0.000
5469.000,-43.945,-52.246,-18.066,-10.742,0.000
5472.000,-46.387,-51.270,-18.555,-7.324,0.000
5476.000,-41.016,-51.270,-20.996,-5.859,0.000
5480.000,-28.809,-47.852,-19.043,-6.836,0.000
5484.000,-19.043,-41.016,-24.414,-4.883,0.000
5488.000,-21.973,-42.480,-26.367,-5.371,0.000
5492.000,-29.297,-44.434,-22.949,-8.301,0.000
5496.000,-39.062,-43.457,-28.320,-18.555,0.000
5500.000,-41.016,-47.363,-30.762,-25.391,0.000
5504.000,-52.734,-52.734,-33.691,-25.391,0.000
5508.000,-69.824,-48.340,-32.227,-13.184,0.000
5512.000,-62.500,-43.945,-28.809,-9.277,0.000
5515.000,-46.387,-45.410,-26.855,-2.930,0.000
5519.000,-50.293,-44.434,-30.762,-0.977,0.000
5523.000,-76.172,-44.434,-44.434,-41.016,0.000
5527.000,-74.219,-37.109,-47.363,-55.176,0.000
5531.000,-52.734,-27.344,-41.016,-35.156,0.000
5535.000,-62.988,-20.996,-43.457,-48.340,0.000
5539.000,-66.895,-16.113,-50.293,-62.988,0.000
5543.000,-55.176,-9.766,-51.270,-60.547,0.000
5547.000,-68.359,-8.301,-50.781,-81.543,0.000
5551.000,-74.707,-17.578,-50.293,-88.867,0.000
5554.000,-67.383,-19.531,-52.734,-80.566,0.000
5558.000,-63.477,-15.137,-50.781,-93.750,0.000
5562.000,-54.199,-15.625,-48.828,-82.031,0.000
5566.000,-57.129,-12.207,-51.270,-63.965,0.000
5570.000,-74.219,-5.859,-49.805,-91.309,0.000
5574.000,-55.664,-1.953,-51.758,-95.703,0.000
5578.000,-50.781,-1.953,-53.711,-77.637,0.000
5582.000,-67.871,-3.906,-50.781,-72.266,0.000
5586.000,-55.176,-2.441,-51.270,-80.566,0.000
5590.000,-49.316,-5.859,-56.152,-88.379,0.000
5594.000,-61.035,-4.395,-54.199,-75.684,0.000
5597.000,-63.477,-3.418,-52.734,-62.500,0.000
5601.000,-51.270,-2.441,-50.781,-60.547,0.000
5605.000,-36.621,-4.395,-45.898,-54.688,0.000
5609.000,-37.598,-9.766,-45.410,-40.039,0.000
5613.000,-53.223,-11.230,-45.410,-39.551,0.000
5617.000,-72.266,-15.625,-40.039,-48.828,0.000
5621.000,-70.312,-12.695,-36.133,-43.457,0.000
5625.000,-50.781,-13.184,-39.062,-34.180,0.000
5629.000,-40.527,-12.695,-35.645,-30.762,0.000
5633.000,-22.949,-5.371,-34.180,-32.227,0.000
5637.000,5.371,-4.395,-34.668,-27.832,0.000
5640.000,-15.625,-13.184,-34.668,-13.672,0.000
5644.000,-41.016,-13.672,-34.668,-8.789,0.000
5648.000,-45.410,-8.789,-31.738,-25.879,0.000
5652.000,-52.734,-8.789,-35.156,-32.227,0.000
5656.000,-42.969,-6.836,-42.480,-27.344,0.000
5660.000,-40.527,-9.766,-45.898,-22.949,0.000
5664.000,-18.066,-4.395,-46.875,-7.812,0.000
5668.000,-18.066,0.977,-49.316,-18.555,0.000
5672.000,-45.410,-0.488,-47.852,-34.668,0.000
5676.000,-32.715,2.441,-46.387,-26.855,0.000
5679.000,-12.695,6.836,-49.316,-17.578,0.000
5683.000,-10.254,6.836,-50.781,-19.531,0.000
5687.000,-4.883,4.883,-54.688,-33.203,0.000
5691.000,5.859,5.859,-61.035,-42.969,0.000
5695.000,5.371,10.254,-56.152,-33.691,0.000
5699.000,8.789,16.602,-52.246,-28.320,0.000
5703.000,0.488,18.066,-57.617,-31.738,0.000
5707.000,-20.020,17.090,-55.664,-20.996,0.000
5711.000,-26.855,17.090,-51.758,-16.113,0.000
5715.000,-24.414,18.555,-53.711,-22.461,0.000
5719.000,-28.809,17.090,-60.547,-30.762,0.000
5722.000,-19.043,18.066,-61.523,-36.621,0.000
5726.000,-11.230,21.973,-63.965,-25.879,0.000
5730.000,-1.953,19.531,-63.477,-21.484,0.000
5734.000,-4.883,17.578,-61.523,-28.809,0.000
5738.000,-31.250,18.555,-61.035,-29.297,0.000
5742.000,-38.086,19.043,-60.547,-13.184,0.000
5746.000,-21.484,18.555,-60.547,-8.789,0.000
5750.000,1.465,20.020,-62.500,-20.020,0.000
5754.000,-5.859,20.508,-58.594,-25.879,0.000
5758.000,-24.902,13.184,-62.988,-27.344,0.000
5762.000,-19.043,12.695,-60.547,-22.461,0.000
5765.000,5.859,21.484,-47.852,-20.020,0.000
5769.000,17.578,22.461,-60.059,-16.113,0.000
5773.000,12.695,20.996,-64.453,-10.742,0.000
5777.000,7.324,22.461,-56.152,-16.113,0.000
5781.000,-11.230,19.531,-45.410,-20.020,0.000
5785.000,3.418,19.531,-49.805,-9.277,0.000
5789.000,25.391,18.066,-58.105,-10.742,0.000
5793.000,24.414,12.207,-62.988,-8.789,0.000
5797.000,21.973,15.625,-57.129,0.977,0.000
5801.000,6.348,13.672,-37.598,6.348,0.000
5804.000,-4.395,6.348,-45.410,12.207,0.000
5808.000,0.000,7.812,-52.246,11.719,0.000
5812.000,-9.766,9.277,-45.898,15.137,0.000
5816.000,-17.578,5.371,-46.875,6.836,0.000
5820.000,-9.766,4.395,-46.875,4.395,0.000
5824.000,-4.395,0.000,-45.898,7.324,0.000
5828.000,-9.766,-0.977,-44.434,4.395,0.000
5832.000,-13.184,4.883,-44.922,10.254,0.000
5836.000,-13.184,3.906,-51.758,-3.418,0.000
5840.000,-13.184,4.395,-54.199,-15.625,0.000
5844.000,-3.418,6.348,-54.199,-7.324,0.000
5847.000,-15.137,1.953,-51.270,-15.137,0.000
5851.000,-21.484,1.953,-41.992,-13.672,0.000
5855.000,-3.906,5.371,-41.504,1.953,0.000
5859.000,-16.113,4.395,-40.039,5.859,0.000
5863.000,-20.508,1.465,-43.945,-4.883,0.000
5867.000,-10.742,-4.395,-47.852,-22.949,0.000
5871.000,-15.137,-2.441,-47.363,-27.832,0.000
5875.000,-7.324,-1.953,-45.898,-23.438,0.000
5879.000,-4.395,-7.324,-38.574,-9.766,0.000
5883.000,-12.695,-9.766,-32.227,-8.301,0.000
5887.000,-15.625,-8.789,-35.645,-11.230,0.000
5890.000,-16.602,-14.648,-36.621,2.441,0.000
5894.000,-31.738,-22.461,-34.180,5.859,0.000
5898.000,-47.852,-24.902,-38.086,-7.812,0.000
5902.000,-45.898,-22.949,-40.527,-13.672,0.000
5906.000,-52.246,-19.043,-35.645,-17.578,0.000
5910.000,-50.293,-21.484,-33.691,-17.090,0.000
5914.000,-26.855,-20.020,-38.574,-14.160,0.000
5918.000,-24.902,-19.531,-41.504,-12.207,0.000
5922.000,-38.086,-20.508,-41.992,-9.766,0.000
5926.000,-45.410,-15.625,-39.551,-21.484,0.000
5929.000,-46.387,-20.508,-36.621,-31.738,0.000
5933.000,-42.480,-25.391,-35.645,-22.949,0.000
5937.000,-29.785,-22.461,-32.227,-9.277,0.000
5941.000,-19.531,-21.484,-29.297,-1.953,0.000
5945.000,-25.879,-23.438,-31.250,0.488,0.000
5949.000,-17.090,-27.344,-37.598,-8.301,0.000
5953.000,-10.742,-32.227,-41.016,-26.855,0.000
5957.000,-5.859,-32.715,-36.133,-19.043,0.000
5961.000,10.254,-27.344,-34.668,-2.441,0.000
5965.000,-9.277,-24.414,-41.504,-13.184,0.000
5969.000,-29.297,-24.902,-44.434,-22.949,0.000
5972.000,-28.809,-29.297,-38.574,-21.484,0.000
5976.000,-68.848,-28.320,-36.621,-20.508,0.000
5980.000,-84.961,-27.832,-40.039,-20.508,0.000
5984.000,-61.523,-28.320,-39.062,-31.738,0.000
5988.000,-44.434,-26.855,-37.109,-38.086,0.000
5992.000,-20.996,-19.531,-37.598,-24.902,0.000
5996.000,-26.855,-20.020,-40.039,-20.020,0.000
6000.000,-49.805,-24.414,-36.133,-19.043,0.000
6004.000,-45.410,-27.344,-39.551,-23.926,0.000
6008.000,-34.180,-29.297,-41.504,-23.438,0.000
6012.000,-40.039,-31.738,-32.715,-19.531,0.000
6015.000,-50.293,-33.203,-27.344,-20.508,0.000
6019.000,-49.805,-31.738,-26.855,-10.742,0.000
6023.000,-34.668,-33.203,-27.832,-8.789,0.000
6027.000,-20.508,-25.879,-27.344,-4.883,0.000
6031.000,-25.879,-22.949,-25.879,1.953,0.000
6035.000,-21.484,-26.855,-23.438,-0.488,0.000
6039.000,-1.953,-24.902,-26.855,-7.324,0.000
6043.000,4.395,-19.531,-29.785,-11.230,0.000
6047.000,9.766,-21.484,-32.715,-13.672,0.000
6051.000,12.695,-23.926,-32.227,-14.648,0.000
6054.000,1.953,-24.902,-31.250,-14.648,0.000
6058.000,-2.930,-31.738,-36.621,-17.578,0.000
6062.000,-25.879,-36.133,-31.250,-2.441,0.000
6066.000,-43.457,-37.109,-26.855,4.883,0.000
6070.000,-27.832,-35.156,-29.297,-10.742,0.000
6074.000,-19.531,-32.715,-24.902,-10.254,0.000
6078.000,-47.852,-33.203,-22.949,-0.488,0.000
6082.000,-58.594,-36.621,-27.344,-8.789,0.000
6086.000,-36.133,-32.715,-26.855,-17.578,0.000
6090.000,-39.551,-30.273,-30.273,-17.578,0.000
6094.000,-51.270,-38.574,-37.598,-18.066,0.000
6097.000,-56.641,-41.504,-34.180,-27.832,0.000
6101.000,-45.898,-33.691,-25.391,-36.621,0.000
6105.000,-35.645,-25.879,-23.438,-28.809,0.000
6109.000,-34.180,-25.391,-28.809,-18.555,0.000
6113.000,-30.273,-29.785,-22.949,0.488,0.000
6117.000,-26.367,-34.668,-16.113,17.578,0.000
6121.000,-30.762,-35.156,-16.113,19.531,0.000
6125.000,-43.457,-38.574,-23.926,-8.301,0.000
6129.000,-47.363,-42.969,-27.832,-18.555,0.000
6133.000,-40.039,-45.410,-23.438,-19.043,0.000
6136.000,-11.719,-45.410,-18.555,-38.574,0.000
6140.000,12.207,-48.828,-16.602,-39.551,0.000
6144.000,1.953,-53.711,-18.555,-38.086,0.000
6148.000,1.953,-49.316,-18.555,-31.738,0.000
6152.000,-28.809,-49.316,-14.160,-29.297,0.000
6156.000,-77.148,-57.129,-8.789,-25.391,0.000
6160.000,-67.871,-56.641,-4.883,-14.160,0.000
6164.000,-62.500,-53.711,-3.906,-14.160,0.000
6168.000,-73.242,-60.547,-2.930,-29.785,0.000
6172.000,-77.148,-66.895,-2.441,-25.879,0.000
6176.000,-78.125,-71.777,-6.348,-19.043,0.000
6179.000,-78.613,-74.707,-2.441,-21.484,0.000
6183.000,-83.008,-74.707,3.418,-20.508,0.000
6187.000,-88.867,-82.520,-3.418,-34.668,0.000
6191.000,-85.938,-91.309,-5.371,-27.344,0.000
6195.000,-74.707,-91.797,7.324,-17.090,0.000
6199.000,-79.102,-94.238,8.301,-35.645,0.000
6203.000,-77.148,-88.867,2.441,-36.133,0.000
6207.000,-75.684,-83.496,2.441,-32.715,0.000
6211.000,-79.590,-86.426,8.301,-36.621,0.000
6215.000,-82.520,-84.473,13.672,-26.855,0.000
6219.000,-86.426,-85.938,9.766,-45.898,0.000
6222.000,-80.566,-93.262,6.348,-59.570,0.000
6226.000,-67.871,-97.656,4.883,-42.969,0.000
6230.000,-58.594,-91.309,0.000,-50.293,0.000
6234.000,-61.035,-84.473,-1.953,-46.387,0.000
6238.000,-78.125,-88.867,-1.465,-41.504,0.000
6242.000,-63.965,-93.750,4.395,-41.992,0.000
6246.000,-59.082,-88.867,3.418,-34.180,0.000
6250.000,-76.660,-78.613,-4.883,-23.438,0.000
6254.000,-70.801,-73.730,-7.324,-18.066,0.000
6258.000,-64.941,-71.289,-14.160,-23.438,0.000
6261.000,-71.289,-69.824,-12.695,-22.949,0.000
6265.000,-83.008,-67.871,-10.742,-20.508,0.000
6269.000,-63.965,-62.988,-15.137,-18.555,0.000
6273.000,-43.945,-54.199,-15.137,-17.578,0.000
6277.000,-26.367,-50.293,-7.324,-15.137,0.000
6281.000,-20.020,-50.781,-7.324,-19.043,0.000
6285.000,-19.531,-48.828,-14.648,-36.133,0.000
6289.000,-9.277,-46.387,-16.113,-36.133,0.000
6293.000,-39.551,-50.293,-19.531,-20.508,0.000
6297.000,-59.082,-45.898,-19.043,-9.277,0.000
6301.000,-49.316,-42.480,-18.555,-6.348,0.000
6304.000,-41.016,-39.062,-23.438,-15.137,0.000
6308.000,-30.762,-31.250,-20.996,-8.301,0.000
6312.000,-37.109,-42.969,-18.066,2.441,0.000
6316.000,-42.969,-46.387,-17.578,-7.812,0.000
6320.000,-29.297,-42.969,-18.555,-20.996,0.000
6324.000,-7.324,-36.133,-20.020,-8.789,0.000
6328.000,1.465,-28.809,-20.996,2.441,0.000
6332.000,-15.625,-30.273,-30.762,-33.691,0.000
6336.000,-29.297,-30.273,-36.621,-64.453,0.000
6340.000,-15.137,-24.902,-33.203,-40.527,0.000
6344.000,-21.484,-20.996,-35.156,-26.855,0.000
6347.000,-64.453,-21.484,-37.109,-46.875,0.000
6351.000,-65.430,-10.742,-39.062,-50.293,0.000
6355.000,-58.594,-10.254,-42.480,-54.199,0.000
6359.000,-46.875,-8.301,-38.086,-41.992,0.000
6363.000,-30.273,-2.930,-35.156,-18.066,0.000
6367.000,-32.715,1.953,-37.109,-25.391,0.000
6371.000,-32.227,6.836,-38.086,-30.273,0.000
6375.000,-41.016,1.953,-41.016,-33.691,0.000
6379.000,-26.367,3.418,-46.387,-41.016,0.000
6383.000,-12.695,9.766,-49.316,-45.898,0.000
6386.000,-30.273,9.277,-52.246,-54.688,0.000
6390.000,-22.461,5.859,-53.711,-53.223,0.000
6394.000,-12.695,11.719,-51.758,-47.363,0.000
6398.000,-20.020,13.184,-52.734,-55.664,0.000
6402.000,-14.160,12.207,-50.293,-49.805,0.000
6406.000,-6.348,22.461,-49.805,-28.809,0.000
6410.000,-8.789,24.902,-52.246,-29.297,0.000
6414.000,-20.020,20.020,-53.711,-32.715,0.000
6418.000,-22.461,20.508,-54.199,-37.598,0.000
6422.000,-15.137,22.461,-53.711,-41.504,0.000
6426.000,-16.113,19.043,-53.711,-36.133,0.000
6429.000,-17.090,21.973,-54.199,-39.062,0.000
6433.000,-22.949,21.973,-57.617,-58.105,0.000
6437.000,-19.531,25.391,-58.105,-49.316,0.000
6441.000,-4.395,27.344,-57.129,-39.551,0.000
6445.000,1.465,21.484,-57.129,-50.781,0.000
6449.000,-8.789,29.297,-57.129,-45.898,0.000
6453.000,-45.410,24.414,-62.012,-48.828,0.000
6457.000,-46.387,18.555,-63.965,-51.270,0.000
6461.000,-27.832,23.438,-59.570,-45.898,0.000
6465.000,-29.785,18.555,-56.152,-41.504,0.000
6469.000,-17.090,15.137,-53.223,-52.246,0.000
6472.000,-9.277,18.066,-48.828,-55.664,0.000
6476.000,-35.156,20.996,-45.410,-53.711,0.000
6480.000,-46.387,16.602,-48.828,-55.176,0.000
6484.000,-25.879,14.648,-48.828,-42.480,0.000
6488.000,-18.555,13.672,-42.969,-39.551,0.000
6492.000,-12.695,5.859,-42.480,-40.527,0.000
6496.000,-19.531,5.859,-47.852,-42.480,0.000
6500.000,-19.531,2.441,-48.340,-53.223,0.000
6504.000,-20.020,2.441,-49.805,-46.875,0.000
6508.000,-36.133,2.930,-50.293,-40.527,0.000
6511.000,-33.691,-0.488,-47.363,-32.715,0.000
6515.000,-32.227,0.000,-46.387,-23.926,0.000
6519.000,-36.621,-1.953,-44.434,-22.461,0.000
6523.000,-26.367,-4.883,-37.109,-14.160,0.000
6527.000,-5.371,-3.906,-30.273,-3.418,0.000
6531.000,-7.324,-8.301,-35.645,-10.742,0.000
6535.000,-15.137,-14.160,-41.504,-34.180,0.000
6539.000,4.883,-10.254,-33.203,-19.043,0.000
6543.000,-6.348,-10.742,-28.809,-0.488,0.000
6547.000,-26.855,-14.648,-36.133,-11.719,0.000
6551.000,-25.391,-13.184,-35.645,-24.902,0.000
6554.000,-29.785,-16.602,-32.227,-20.996,0.000
6558.000,-32.715,-17.578,-33.203,-13.672,0.000
6562.000,-26.855,-11.230,-33.691,-22.461,0.000
6566.000,-20.020,-12.207,-41.504,-32.227,0.000
6570.000,-12.695,-15.625,-41.992,-41.016,0.000
6574.000,-4.883,-8.789,-35.156,-33.203,0.000
6578.000,-18.066,-8.301,-41.016,-22.461,0.000
6582.000,-34.668,-14.648,-44.434,-21.973,0.000
6586.000,-21.973,-17.578,-43.945,-28.320,0.000
6590.000,-16.113,-16.602,-48.340,-41.016,0.000
6594.000,-51.758,-11.230,-40.527,-16.602,0.000
6597.000,-78.125,-11.230,-33.203,1.953,0.000
6601.000,-78.125,-9.766,-40.527,-20.996,0.000
6605.000,-69.336,-5.859,-44.434,-35.645,0.000
6609.000,-53.711,-5.859,-41.504,-31.250,0.000
6613.000,-47.363,-6.348,-43.457,-43.457,0.000
6617.000,-37.109,0.977,-43.457,-36.621,0.000
6621.000,-27.832,8.789,-41.992,-30.762,0.000
6625.000,-44.922,8.301,-40.039,-36.621,0.000
6629.000,-35.156,0.000,-40.527,-18.066,0.000
6633.000,-32.715,-6.836,-46.875,-24.414,0.000
6636.000,-48.340,-9.277,-45.410,-42.480,0.000
6640.000,-51.270,-10.742,-41.016,-37.598,0.000
6644.000,-46.875,-10.742,-41.504,-35.156,0.000
6648.000,-24.414,-14.160,-41.992,-31.250,0.000
6652.000,-21.484,-15.625,-39.062,-22.461,0.000
6656.000,-28.320,-9.277,-42.480,-23.438,0.000
6660.000,-25.391,-11.230,-45.898,-21.973,0.000
6664.000,-36.621,-20.020,-38.574,-15.137,0.000
6668.000,-42.969,-17.578,-35.156,-18.555,0.000
6672.000,-27.832,-17.578,-35.645,-21.973,0.000
6676.000,-19.531,-21.484,-32.227,-21.973,0.000
6679.000,-22.461,-20.996,-32.715,-12.207,0.000
6683.000,-19.043,-20.508,-29.785,1.465,0.000
6687.000,-27.344,-19.043,-33.691,0.488,0.000
6691.000,-40.039,-22.949,-36.621,-1.953,0.000
6695.000,-37.598,-26.367,-31.250,3.418,0.000
6699.000,-14.648,-25.391,-29.297,9.277,0.000
6703.000,-17.578,-26.367,-33.691,-6.348,0.000
6707.000,-18.555,-28.320,-31.738,-8.301,0.000
6711.000,-12.695,-29.785,-31.250,6.348,0.000
6715.000,-13.184,-30.762,-35.156,-2.441,0.000
6719.000,-17.090,-33.203,-34.668,-9.766,0.000
6722.000,-19.531,-35.156,-34.668,0.000,0.000
6726.000,-14.648,-33.203,-35.156,0.488,0.000
6730.000,-20.508,-30.273,-25.391,-8.301,0.000
6734.000,-12.695,-26.855,-22.949,0.977,0.000
6738.000,-6.348,-27.344,-27.832,4.883,0.000
6742.000,-14.648,-28.320,-26.367,3.418,0.000
6746.000,-6.836,-25.391,-25.391,0.977,0.000
6750.000,-13.184,-23.926,-29.785,-14.648,0.000
6754.000,-26.855,-23.926,-24.902,0.488,0.000
6758.000,-24.414,-26.855,-18.555,10.742,0.000
6761.000,-35.156,-32.227,-22.461,-4.395,0.000
6765.000,-41.992,-33.691,-29.785,-16.113,0.000
6769.000,-37.109,-31.738,-31.738,-8.789,0.000
6773.000,-30.273,-27.832,-27.832,-6.348,0.000
6777.000,-14.160,-27.344,-24.902,4.395,0.000
6781.000,-17.090,-33.203,-27.344,13.672,0.000
6785.000,-31.738,-34.180,-29.785,-14.160,0.000
6789.000,-33.691,-28.809,-24.414,-22.461,0.000
6793.000,-33.203,-30.273,-23.438,-7.812,0.000
6797.000,-22.461,-30.762,-23.438,-5.859,0.000
6801.000,-12.207,-30.273,-27.344,1.953,0.000
6804.000,-21.484,-35.156,-26.367,-5.371,0.000
6808.000,-21.484,-33.691,-23.926,-18.555,0.000
6812.000,-8.789,-33.691,-27.832,-11.230,0.000
6816.000,-10.254,-30.762,-22.461,-16.113,0.000
6820.000,-7.812,-26.367,-20.996,-28.809,0.000
6824.000,10.254,-28.809,-22.949,-32.227,0.000
6828.000,4.395,-27.832,-23.438,-37.598,0.000
6832.000,-21.973,-23.926,-23.926,-32.715,0.000
6836.000,-28.809,-24.414,-21.484,-38.574,0.000
6840.000,-46.875,-28.320,-29.785,-50.293,0.000
6844.000,-61.523,-28.320,-34.180,-21.973,0.000
6847.000,-39.062,-31.250,-18.066,3.906,0.000
6851.000,-31.250,-33.203,-10.742,-10.742,0.000
6855.000,-43.945,-40.527,-18.066,-40.039,0.000
6859.000,-39.062,-41.504,-20.508,-39.062,0.000
6863.000,-22.461,-37.109,-14.648,-22.949,0.000
6867.000,-35.156,-43.457,-14.648,-30.762,0.000
6871.000,-55.176,-54.688,-20.020,-42.480,0.000
6875.000,-53.223,-63.477,-11.719,-42.480,0.000
6879.000,-51.758,-65.918,-6.836,-37.598,0.000
6883.000,-56.152,-69.824,-9.766,-35.156,0.000
6886.000,-58.105,-74.219,-6.348,-41.016,0.000
6890.000,-68.359,-82.520,-3.418,-47.852,0.000
6894.000,-68.848,-84.961,-1.953,-36.621,0.000
6898.000,-77.637,-86.914,0.488,-42.480,0.000
6902.000,-92.773,-88.867,-1.953,-66.406,0.000
6906.000,-73.730,-83.496,1.953,-64.941,0.000
6910.000,-80.078,-85.449,2.441,-56.641,0.000
6914.000,-85.938,-91.797,0.488,-59.082,0.000
6918.000,-68.359,-96.680,7.324,-72.266,0.000
6922.000,-54.199,-96.191,5.859,-71.289,0.000
6926.000,-57.129,-90.820,4.883,-43.457,0.000
6929.000,-107.910,-97.656,9.766,-38.086,0.000
6933.000,-122.070,-104.004,6.348,-57.617,0.000
6937.000,-95.215,-100.586,0.488,-53.711,0.000
6941.000,-92.773,-102.539,1.465,-46.387,0.000
6945.000,-94.238,-101.562,3.906,-37.598,0.000
6949.000,-98.145,-103.516,7.812,-37.598,0.000
6953.000,-106.445,-108.887,6.348,-55.176,0.000
6957.000,-81.543,-98.145,5.371,-38.574,0.000
6961.000,-68.359,-95.215,5.371,-32.227,0.000
6965.000,-77.148,-100.586,5.371,-40.527,0.000
6968.000,-74.707,-100.586,4.883,-36.621,0.000
6972.000,-63.477,-100.586,0.488,-46.875,0.000
6976.000,-50.293,-100.098,-0.488,-41.016,0.000
6980.000,-55.176,-98.145,-1.953,-37.598,0.000
6984.000,-65.430,-99.121,-5.371,-47.363,0.000
6988.000,-72.266,-97.656,-4.883,-36.133,0.000
6992.000,-81.055,-89.844,-4.883,-29.297,0.000
6996.000,-81.543,-85.938,-9.277,-30.762,0.000
7000.000,-62.988,-85.449,-8.789,-32.715,0.000
7004.000,-48.340,-78.613,-2.930,-31.250,0.000
7008.000,-60.059,-71.777,-5.859,-39.551,0.000
7011.000,-70.312,-72.754,-3.906,-44.434,0.000
7015.000,-59.082,-68.848,-2.930,-38.086,0.000
7019.000,-56.641,-67.383,-4.883,-45.898,0.000
7023.000,-54.199,-72.754,-8.789,-56.641,0.000
7027.000,-29.297,-67.871,-15.625,-54.199,0.000
7031.000,-4.883,-59.570,-18.555,-49.805,0.000
7035.000,-17.090,-63.965,-18.066,-50.293,0.000
7039.000,-76.660,-67.383,-14.160,-37.109,0.000
7043.000,-104.492,-65.918,-10.742,-29.785,0.000
7047.000,-83.984,-59.570,-8.301,-28.809,0.000
7051.000,-66.895,-52.734,-4.883,-25.391,0.000
7054.000,-57.617,-51.270,-11.230,-30.273,0.000
7058.000,-51.270,-50.781,-21.484,-27.832,0.000
7062.000,-42.480,-51.758,-23.438,-27.832,0.000
7066.000,-40.039,-50.293,-21.973,-29.297,0.000
7070.000,-36.621,-38.086,-22.461,-36.133,0.000
7074.000,-36.621,-31.738,-26.855,-37.598,0.000
7078.000,-38.086,-35.645,-28.809,-34.668,0.000
7082.000,-37.109,-39.062,-27.832,-43.945,0.000
7086.000,-32.227,-41.016,-29.297,-47.852,0.000
7090.000,-17.578,-36.621,-29.297,-44.922,0.000
7093.000,-26.367,-38.086,-28.320,-41.016,0.000
7097.000,-41.992,-42.480,-28.320,-37.109,0.000
7101.000,-30.273,-37.109,-25.879,-37.109,0.000
7105.000,-21.973,-32.715,-24.902,-27.344,0.000
7109.000,-30.273,-38.574,-26.367,-12.695,0.000
7113.000,-27.832,-40.039,-28.320,-14.648,0.000
7117.000,-22.949,-34.668,-28.320,-19.043,0.000
7121.000,-24.414,-32.715,-24.414,-18.555,0.000
7125.000,-20.508,-27.344,-24.414,-18.555,0.000
7129.000,-21.484,-27.344,-26.855,-22.461,0.000
7133.000,-20.508,-26.855,-17.578,-21.973,0.000
7136.000,-39.062,-22.949,-15.625,-24.414,0.000
7140.000,-50.293,-27.344,-20.508,-21.484,0.000
7144.000,-50.293,-32.715,-16.602,-13.184,0.000
7148.000,-50.781,-33.691,-17.578,-18.555,0.000
7152.000,-33.203,-30.762,-12.695,-9.766,0.000
7156.000,-30.273,-33.203,-8.301,-5.371,0.000
7160.000,-54.199,-28.320,-18.066,-29.785,0.000
7164.000,-51.270,-23.438,-21.484,-28.320,0.000
7168.000,-28.809,-21.973,-24.902,-12.207,0.000
7172.000,-23.438,-20.508,-31.250,-25.879,0.000
7176.000,-13.184,-19.043,-33.203,-30.762,0.000
7179.000,5.859,-8.301,-34.668,-8.789,0.000
7183.000,0.977,-3.418,-37.109,-11.230,0.000
7187.000,0.488,-0.977,-31.738,-16.113,0.000
7191.000,-14.160,0.488,-30.762,-13.184,0.000
7195.000,-15.625,2.441,-34.180,-10.254,0.000
7199.000,-8.301,6.348,-35.156,0.000,0.000
7203.000,-6.836,12.695,-36.621,1.953,0.000
7207.000,8.789,16.113,-40.039,-11.230,0.000
7211.000,11.230,9.277,-46.875,-24.902,0.000
7215.000,4.883,19.043,-48.828,-24.902,0.000
7218.000,5.371,33.691,-50.781,-34.668,0.000
7222.000,8.301,30.762,-55.664,-46.875,0.000
7226.000,7.324,26.855,-58.594,-41.504,0.000
7230.000,2.930,36.133,-52.734,-42.480,0.000
7234.000,-11.719,40.527,-48.828,-60.059,0.000
7238.000,-23.926,38.086,-54.199,-70.312,0.000
7242.000,-24.902,33.203,-54.688,-62.988,0.000
7246.000,-18.555,30.273,-56.152,-64.941,0.000
7250.000,-31.738,37.109,-59.082,-78.125,0.000
7254.000,-51.270,44.922,-60.059,-84.473,0.000
7258.000,-66.895,48.828,-60.059,-81.055,0.000
7261.000,-81.055,42.969,-62.988,-81.055,0.000
7265.000,-65.430,44.922,-62.500,-84.961,0.000
7269.000,-57.129,51.758,-58.594,-83.984,0.000
7273.000,-57.617,47.852,-58.594,-87.402,0.000
7277.000,-50.781,44.922,-58.594,-80.078,0.000
7281.000,-49.316,45.410,-61.035,-72.266,0.000
7285.000,-57.129,35.156,-62.988,-75.684,0.000
7289.000,-46.387,37.598,-62.500,-65.918,0.000
7293.000,-14.648,42.969,-63.477,-57.617,0.000
7297.000,-3.906,36.133,-64.453,-54.688,0.000
7301.000,-5.371,33.691,-63.477,-56.152,0.000
7304.000,-0.488,28.809,-63.965,-57.129,0.000
7308.000,-17.578,21.484,-62.988,-43.457,0.000
7312.000,-20.020,27.832,-59.082,-31.738,0.000
7316.000,2.441,30.762,-55.176,-33.691,0.000
7320.000,21.973,26.855,-55.176,-38.574,0.000
7324.000,28.320,22.949,-57.617,-32.227,0.000
7328.000,22.949,19.531,-56.152,-27.832,0.000
7332.000,-1.953,17.090,-49.805,-9.277,0.000
7336.000,-15.625,15.625,-49.316,-2.930,0.000
7340.000,-4.395,8.789,-48.340,-17.090,0.000
7343.000,11.719,8.789,-47.363,-10.742,0.000
7347.000,21.484,13.184,-50.781,9.766,0.000
7351.000,15.137,11.230,-48.340,17.090,0.000
7355.000,22.461,9.277,-44.922,10.254,0.000
7359.000,14.648,3.418,-45.898,7.812,0.000
7363.000,-25.391,-5.371,-43.945,4.883,0.000
7367.000,-27.832,-1.953,-44.434,-4.395,0.000
7371.000,-8.789,-0.488,-41.016,-7.812,0.000
7375.000,-3.906,-4.883,-38.086,-6.348,0.000
7379.000,14.160,-2.441,-40.527,-6.836,0.000
7383.000,20.020,-1.953,-40.039,-6.836,0.000
7386.000,1.465,-2.930,-34.668,-6.836,0.000
7390.000,-13.672,-6.836,-32.715,-10.742,0.000
7394.000,-3.906,-12.207,-41.504,-10.742,0.000
7398.000,5.859,-14.648,-44.434,-8.301,0.000
7402.000,16.602,-15.625,-40.527,-15.625,0.000
