timestamp,TP9,AF7,AF8,TP10,Right AUX
1673805258.351,-5.859,-21.973,-7.324,-7.324,0.000
1673805258.355,-7.324,-25.391,-10.742,-4.883,0.000
1673805258.359,6.348,-12.695,-12.695,-5.371,0.000
1673805258.363,-16.113,-8.301,-10.742,0.488,0.000
1673805258.367,-39.062,-4.883,-11.230,-2.441,0.000
1673805258.371,-27.344,-5.371,-18.066,-6.348,0.000
1673805258.375,-16.113,-14.160,-16.113,-2.441,0.000
1673805258.379,-3.418,-8.789,-14.648,-0.977,0.000
1673805258.382,-17.578,-0.977,-14.160,8.301,0.000
1673805258.386,-38.574,-14.160,-11.230,-0.977,0.000
1673805258.390,-36.621,-20.508,-9.277,-4.395,0.000
1673805258.394,-29.297,-12.207,-6.348,3.906,0.000
1673805258.398,-22.949,-12.207,-9.766,3.906,0.000
1673805258.402,-20.020,-19.043,-11.230,-2.441,0.000
1673805258.406,-19.043,-17.090,-15.137,-9.277,0.000
1673805258.410,-20.508,-20.508,-19.531,-13.184,0.000
1673805258.414,-31.738,-27.832,-22.461,-19.043,0.000
1673805258.418,-31.250,-13.672,-27.344,-18.066,0.000
1673805258.422,-20.020,-15.625,-22.461,-21.484,0.000
1673805258.425,-13.184,-20.020,-17.090,-17.578,0.000
1673805258.429,-19.531,-10.254,-17.090,-18.555,0.000
1673805258.433,-29.297,-10.254,-20.020,-33.203,0.000
1673805258.437,-24.414,-13.184,-26.367,-27.832,0.000
1673805258.441,-5.859,-14.160,-18.555,-1.465,0.000
1673805258.445,19.043,-11.719,-15.625,2.441,0.000
1673805258.449,-8.301,-21.484,-21.973,-16.602,0.000
1673805258.453,-53.711,-33.203,-18.555,-21.484,0.000
1673805258.457,-29.785,-28.320,-15.625,-14.160,0.000
1673805258.461,-10.254,-22.949,-20.020,-6.836,0.000
1673805258.464,-16.602,-18.066,-18.066,-6.348,0.000
1673805258.468,-29.785,-25.879,-20.020,-11.719,0.000
1673805258.472,-44.434,-33.691,-19.043,-13.184,0.000
1673805258.476,-48.340,-27.344,-15.137,-5.371,0.000
1673805258.480,-61.523,-21.973,-17.578,1.465,0.000
1673805258.484,-70.801,-28.809,-20.996,-11.230,0.000
1673805258.488,-35.645,-27.344,-24.414,-20.020,0.000
1673805258.492,-4.395,-16.602,-24.414,-11.230,0.000
1673805258.496,-9.766,-18.066,-27.344,-1.465,0.000
1673805258.500,-18.555,-31.250,-22.949,-2.441,0.000
1673805258.504,-44.434,-35.645,-20.996,-4.883,0.000
1673805258.507,-62.988,-26.855,-23.926,1.953,0.000
1673805258.511,-48.828,-25.391,-21.484,-7.324,0.000
1673805258.515,-25.879,-27.344,-24.414,-23.438,0.000
1673805258.519,-26.367,-25.391,-34.180,-26.855,0.000
1673805258.523,-51.758,-22.461,-36.133,-20.020,0.000
1673805258.527,-49.805,-19.531,-34.180,-14.160,0.000
1673805258.531,-29.297,-18.555,-33.203,-25.391,0.000
1673805258.535,-26.367,-17.578,-36.133,-29.785,0.000
1673805258.539,-22.949,-20.508,-37.109,-33.691,0.000
1673805258.543,-19.531,-24.414,-31.738,-43.945,0.000
1673805258.547,-25.879,-22.461,-24.414,-43.457,0.000
1673805258.550,-34.180,-36.621,-23.926,-44.922,0.000
1673805258.554,-40.039,-36.133,-28.809,-28.809,0.000
1673805258.558,-29.297,-21.484,-27.832,-10.254,0.000
1673805258.562,-16.602,-12.695,-27.344,-12.695,0.000
1673805258.566,-22.461,-7.812,-29.297,-20.996,0.000
1673805258.570,-20.020,-10.254,-28.320,-26.855,0.000
1673805258.574,-11.230,-8.789,-26.855,-21.484,0.000
1673805258.578,-17.578,-11.230,-26.367,-10.742,0.000
1673805258.582,-22.949,-9.277,-31.250,-6.348,0.000
1673805258.586,-22.949,-13.184,-36.621,-4.883,0.000
1673805258.589,-36.133,-24.414,-27.832,-1.953,0.000
1673805258.593,-49.316,-20.996,-20.996,-4.395,0.000
1673805258.597,-39.062,-18.066,-20.508,-14.160,0.000
1673805258.601,-43.945,-21.484,-21.973,-23.926,0.000
1673805258.605,-45.898,-26.855,-23.438,-13.672,0.000
1673805258.609,-48.828,-36.133,-22.949,3.418,0.000
1673805258.613,-46.387,-29.785,-22.461,4.395,0.000
1673805258.617,-29.785,-20.508,-20.508,-3.418,0.000
1673805258.621,-17.090,-23.438,-20.020,-9.277,0.000
1673805258.625,-6.836,-22.949,-17.090,-2.930,0.000
1673805258.629,-0.977,-20.508,-21.484,-10.254,0.000
1673805258.632,6.836,-26.855,-23.926,-20.020,0.000
1673805258.636,16.113,-26.855,-19.043,-3.418,0.000
1673805258.640,9.766,-18.066,-17.090,11.230,0.000
1673805258.644,-7.812,-21.973,-18.555,0.977,0.000
1673805258.648,-34.180,-23.926,-18.555,-27.344,0.000
1673805258.652,-21.973,-25.391,-18.555,-27.344,0.000
1673805258.656,-0.488,-27.344,-19.043,-15.625,0.000
1673805258.660,-8.301,-17.578,-17.090,-13.184,0.000
1673805258.664,-18.555,-17.578,-22.949,-22.461,0.000
1673805258.668,-46.875,-30.273,-26.367,-35.156,0.000
1673805258.672,-48.340,-30.273,-25.391,-30.273,0.000
1673805258.675,-38.574,-18.555,-24.414,-25.879,0.000
1673805258.679,-42.969,-13.672,-22.949,-15.625,0.000
1673805258.683,-53.711,-9.277,-22.461,-11.230,0.000
1673805258.687,-54.688,-6.836,-22.949,-20.508,0.000
1673805258.691,-29.785,-12.695,-30.273,-28.320,0.000
1673805258.695,-1.953,-11.719,-35.645,-30.273,0.000
1673805258.699,13.184,0.000,-30.273,-27.832,0.000
1673805258.703,2.441,-1.465,-28.809,-32.715,0.000
1673805258.707,-19.531,-6.348,-34.180,-31.250,0.000
1673805258.711,-29.785,-9.277,-25.879,-18.555,0.000
1673805258.714,-27.832,-11.719,-16.113,-10.742,0.000
1673805258.718,-39.062,-6.836,-14.160,-11.719,0.000
1673805258.722,-47.852,-7.812,-19.531,-17.090,0.000
1673805258.726,-29.297,-16.602,-24.414,-15.137,0.000
1673805258.730,-17.578,-20.020,-25.879,-21.484,0.000
1673805258.734,-14.648,-18.066,-24.902,-29.785,0.000
1673805258.738,-17.578,-19.531,-23.438,-24.902,0.000
1673805258.742,-20.996,-18.555,-24.414,-16.602,0.000
1673805258.746,-16.113,-15.137,-29.297,-23.438,0.000
1673805258.750,-8.301,-16.602,-31.738,-27.344,0.000
1673805258.754,-7.812,-21.484,-24.414,-18.066,0.000
1673805258.757,-20.996,-20.996,-24.414,-17.090,0.000
1673805258.761,-47.852,-21.973,-36.133,-20.996,0.000
1673805258.765,-59.570,-27.832,-34.180,-26.855,0.000
1673805258.769,-45.410,-30.273,-28.320,-28.320,0.000
1673805258.773,-25.879,-37.109,-32.227,-23.926,0.000
1673805258.777,-28.320,-37.109,-36.621,-22.461,0.000
1673805258.781,-19.531,-21.484,-35.156,-15.625,0.000
1673805258.785,-20.996,-17.578,-31.738,-12.207,0.000
1673805258.789,-32.715,-23.438,-36.621,-17.090,0.000
1673805258.793,-8.789,-23.926,-25.391,2.441,0.000
1673805258.797,-0.488,-26.367,-20.996,3.906,0.000
1673805258.800,-9.277,-26.855,-36.133,-29.297,0.000
1673805258.804,-4.395,-22.949,-31.738,-39.551,0.000
1673805258.808,3.906,-17.090,-28.320,-21.484,0.000
1673805258.812,-13.184,-18.066,-30.273,-19.043,0.000
1673805258.816,-34.668,-26.855,-31.250,-25.879,0.000
1673805258.820,-37.598,-27.344,-26.855,-17.578,0.000
1673805258.824,-31.738,-24.902,-18.555,-11.230,0.000
1673805258.828,-16.602,-25.391,-22.949,-14.160,0.000
1673805258.832,-16.113,-27.344,-25.879,-12.207,0.000
1673805258.836,-1.465,-20.996,-22.949,-10.742,0.000
1673805258.839,-11.230,-20.020,-20.996,-7.324,0.000
1673805258.843,-45.898,-36.621,-18.066,-1.953,0.000
1673805258.847,-55.664,-36.621,-21.484,-15.625,0.000
1673805258.851,-49.316,-19.043,-27.344,-20.508,0.000
1673805258.855,-31.738,-12.695,-30.273,-11.230,0.000
1673805258.859,-19.043,-14.648,-33.691,-10.254,0.000
1673805258.863,-12.695,-11.230,-23.926,-13.184,0.000
1673805258.867,-7.812,-17.090,-17.578,-16.113,0.000
1673805258.871,-13.672,-20.020,-23.438,-18.555,0.000
1673805258.875,-22.461,-13.184,-23.926,-16.113,0.000
1673805258.879,-33.203,-10.254,-27.344,-17.578,0.000
1673805258.882,-32.227,-18.066,-32.715,-29.297,0.000
1673805258.886,-23.926,-20.020,-29.785,-36.133,0.000
1673805258.890,-24.414,-20.508,-28.809,-34.180,0.000
1673805258.894,-20.996,-23.438,-21.973,-21.973,0.000
1673805258.898,-13.184,-22.949,-23.438,-21.484,0.000
1673805258.902,-5.371,-24.414,-24.902,-25.879,0.000
1673805258.906,11.719,-28.320,-23.926,-30.273,0.000
1673805258.910,14.160,-25.391,-27.344,-41.016,0.000
1673805258.914,3.906,-21.484,-26.855,-39.551,0.000
1673805258.918,-4.395,-31.250,-28.809,-29.785,0.000
1673805258.922,-34.668,-27.344,-28.809,-14.648,0.000
1673805258.925,-72.266,-27.344,-32.227,-12.207,0.000
1673805258.929,-75.684,-34.180,-29.297,-23.926,0.000
1673805258.933,-59.082,-29.785,-23.926,-20.508,0.000
1673805258.937,-47.852,-27.344,-24.414,-18.066,0.000
1673805258.941,-30.273,-27.832,-29.297,-7.812,0.000
1673805258.945,-30.762,-28.320,-34.180,-7.324,0.000
1673805258.949,-47.852,-34.180,-36.133,-19.043,0.000
1673805258.953,-32.227,-33.691,-33.203,-11.719,0.000
1673805258.957,-27.832,-26.367,-27.344,-15.625,0.000
1673805258.961,-39.062,-41.016,-31.738,-24.414,0.000
1673805258.964,-21.973,-39.551,-32.715,-16.602,0.000
1673805258.968,-24.414,-33.691,-35.645,-25.879,0.000
1673805258.972,-25.879,-37.598,-41.992,-39.551,0.000
1673805258.976,-2.930,-29.297,-34.668,-32.227,0.000
1673805258.980,25.391,-23.926,-28.320,-30.762,0.000
1673805258.984,42.480,-23.438,-28.320,-25.391,0.000
1673805258.988,-0.977,-32.715,-28.809,-12.207,0.000
1673805258.992,-47.852,-39.551,-39.062,-8.789,0.000
1673805258.996,-62.012,-37.109,-40.039,-8.789,0.000
1673805259.000,-42.969,-40.039,-27.344,-15.625,0.000
1673805259.004,-9.766,-35.645,-24.414,-23.438,0.000
1673805259.007,-23.926,-21.973,-25.391,-14.648,0.000
1673805259.011,-36.133,-26.367,-26.855,-6.836,0.000
1673805259.015,-29.785,-32.227,-25.879,-17.578,0.000
1673805259.019,-41.504,-33.691,-19.043,-15.625,0.000
1673805259.023,-37.109,-29.297,-19.043,-4.395,0.000
1673805259.027,-18.555,-22.461,-21.973,-1.465,0.000
1673805259.031,-16.113,-18.066,-20.020,-6.348,0.000
1673805259.035,-35.156,-19.043,-15.625,-19.531,0.000
1673805259.039,-35.156,-19.043,-19.531,-19.043,0.000
1673805259.043,-19.531,-18.066,-25.879,-14.160,0.000
1673805259.047,-10.742,-17.090,-20.020,-21.973,0.000
1673805259.050,-6.348,-16.602,-13.184,-41.016,0.000
1673805259.054,-12.207,-13.184,-15.625,-42.969,0.000
1673805259.058,-20.020,-23.438,-16.602,-29.297,0.000
1673805259.062,-31.738,-37.598,-14.160,-18.555,0.000
1673805259.066,-44.434,-28.809,-16.113,-18.066,0.000
1673805259.070,-35.645,-19.531,-15.625,-34.180,0.000
1673805259.074,-10.742,-18.066,-18.066,-26.855,0.000
1673805259.078,-16.113,-20.508,-20.020,-17.090,0.000
1673805259.082,-41.016,-26.855,-17.578,-29.785,0.000
1673805259.086,-59.082,-27.832,-15.625,-29.785,0.000
1673805259.089,-39.062,-21.973,-19.043,-15.137,0.000
1673805259.093,-5.371,-23.438,-22.949,-14.648,0.000
1673805259.097,-18.555,-30.762,-22.461,-28.320,0.000
1673805259.101,-26.855,-29.785,-22.461,-31.738,0.000
1673805259.105,-29.297,-24.902,-26.855,-24.414,0.000
1673805259.109,-43.457,-25.391,-26.855,-13.672,0.000
1673805259.113,-58.594,-25.391,-27.344,-12.207,0.000
1673805259.117,-54.199,-24.414,-20.996,-19.531,0.000
1673805259.121,-43.457,-28.809,-20.020,-17.090,0.000
1673805259.125,-44.434,-24.414,-20.020,-2.441,0.000
1673805259.129,-51.270,-21.484,-12.207,6.836,0.000
1673805259.132,-36.621,-18.066,-10.742,-3.906,0.000
1673805259.136,-16.113,-15.137,-11.719,0.000,0.000
1673805259.140,-22.949,-20.996,-12.695,0.488,0.000
1673805259.144,-32.227,-30.273,-12.207,-6.836,0.000
1673805259.148,-17.090,-27.344,-17.090,-5.371,0.000
1673805259.152,-9.766,-18.555,-23.926,-15.625,0.000
1673805259.156,-20.020,-18.066,-18.066,-13.184,0.000
1673805259.160,-24.414,-16.602,-16.602,-7.812,0.000
1673805259.164,-20.508,-23.438,-23.438,-10.742,0.000
1673805259.168,0.488,-17.090,-27.344,-13.184,0.000
1673805259.172,2.930,-2.441,-21.973,-19.531,0.000
1673805259.175,2.441,-4.395,-19.043,-18.066,0.000
1673805259.179,16.602,-5.859,-20.020,-6.348,0.000
1673805259.183,-2.930,-3.418,-20.996,-7.812,0.000
1673805259.187,-21.484,-7.812,-20.508,-16.602,0.000
1673805259.191,-14.648,-15.625,-17.578,-9.766,0.000
1673805259.195,-17.578,-17.578,-20.996,-1.953,0.000
1673805259.199,-18.066,-19.043,-21.973,-5.859,0.000
1673805259.203,-14.648,-16.602,-19.043,-5.371,0.000
1673805259.207,1.465,-8.789,-19.531,-13.672,0.000
1673805259.211,-0.977,-14.648,-26.367,-22.461,0.000
1673805259.214,-22.949,-22.461,-31.250,-28.809,0.000
1673805259.218,-23.926,-27.832,-29.785,-29.785,0.000
1673805259.222,-24.414,-22.949,-32.715,-18.555,0.000
1673805259.226,-24.414,-22.949,-39.551,-13.672,0.000
1673805259.230,-31.250,-32.227,-37.598,-13.672,0.000
1673805259.234,-36.621,-26.855,-30.273,-19.531,0.000
1673805259.238,-23.926,-18.555,-25.391,-24.902,0.000
1673805259.242,-28.809,-19.043,-22.949,-11.719,0.000
1673805259.246,-39.551,-20.508,-24.414,-11.719,0.000
1673805259.250,-32.715,-13.184,-28.809,-24.414,0.000
1673805259.254,-26.367,-14.648,-31.738,-19.043,0.000
1673805259.257,-29.785,-17.090,-28.320,-3.418,0.000
1673805259.261,-39.062,-19.043,-20.996,-6.836,0.000
1673805259.265,-43.457,-23.926,-25.879,-25.879,0.000
1673805259.269,-32.715,-19.531,-27.832,-18.555,0.000
1673805259.273,-20.996,-20.508,-19.531,1.953,0.000
1673805259.277,-21.484,-29.297,-25.391,-15.137,0.000
1673805259.281,-22.949,-20.996,-31.738,-33.691,0.000
1673805259.285,-16.113,-14.160,-23.926,-34.180,0.000
1673805259.289,-22.461,-21.484,-29.297,-28.320,0.000
1673805259.293,-24.414,-22.461,-33.203,-20.020,0.000
1673805259.297,-12.207,-20.508,-22.949,-20.020,0.000
1673805259.300,-8.301,-28.320,-16.113,-23.926,0.000
1673805259.304,0.000,-29.785,-19.043,-23.926,0.000
1673805259.308,-8.301,-16.113,-24.414,-16.602,0.000
1673805259.312,-17.578,-10.254,-21.973,-19.531,0.000
1673805259.316,0.488,-6.836,-18.066,-23.926,0.000
1673805259.320,10.742,-8.301,-19.043,-9.766,0.000
1673805259.324,12.695,-20.508,-22.949,-4.395,0.000
1673805259.328,4.883,-19.043,-28.320,-11.719,0.000
1673805259.332,-24.414,-7.812,-25.391,-15.137,0.000
1673805259.336,-48.828,-8.301,-29.297,-18.066,0.000
1673805259.339,-45.410,-15.137,-29.297,-9.766,0.000
1673805259.343,-26.367,-11.230,-18.066,-2.441,0.000
1673805259.347,-5.859,-11.719,-18.555,-11.230,0.000
1673805259.351,-5.859,-15.625,-26.855,-19.043,0.000
1673805259.355,-32.227,-7.812,-27.832,-18.555,0.000
1673805259.359,-49.805,-15.137,-25.391,-6.348,0.000
1673805259.363,-50.293,-22.949,-30.273,-4.883,0.000
1673805259.367,-39.062,-17.090,-29.785,-21.973,0.000
1673805259.371,-21.973,-22.461,-30.273,-34.180,0.000
1673805259.375,-23.438,-25.391,-34.668,-33.691,0.000
1673805259.379,-41.504,-22.949,-34.668,-25.391,0.000
1673805259.382,-54.688,-22.461,-31.738,-24.414,0.000
1673805259.386,-42.480,-23.438,-27.832,-33.203,0.000
1673805259.390,-6.836,-20.996,-37.598,-33.691,0.000
1673805259.394,11.719,-24.902,-41.504,-32.715,0.000
1673805259.398,10.254,-30.273,-28.320,-37.109,0.000
1673805259.402,-43.945,-36.133,-25.879,-40.039,0.000
1673805259.406,-100.098,-40.527,-30.273,-29.785,0.000
1673805259.410,-93.262,-37.109,-34.668,-23.926,0.000
1673805259.414,-73.730,-29.297,-37.598,-30.273,0.000
1673805259.418,-69.824,-17.090,-40.527,-32.227,0.000
1673805259.421,-67.871,-20.020,-37.109,-26.367,0.000
1673805259.425,-44.922,-19.531,-35.645,-21.484,0.000
1673805259.429,-35.156,-22.461,-31.738,-20.996,0.000
1673805259.433,-31.250,-24.414,-30.273,-23.926,0.000
1673805259.437,-26.855,-25.391,-31.738,-30.762,0.000
1673805259.441,-28.809,-24.414,-27.344,-14.648,0.000
1673805259.445,-20.020,-23.438,-23.926,-3.906,0.000
1673805259.449,-30.273,-33.203,-23.438,-16.113,0.000
1673805259.453,-50.293,-31.250,-26.855,-14.648,0.000
1673805259.457,-41.504,-22.461,-26.367,-15.625,0.000
1673805259.461,-21.484,-28.809,-25.879,-13.184,0.000
1673805259.464,-7.812,-27.832,-28.320,-16.113,0.000
1673805259.468,4.883,-22.949,-26.855,-24.414,0.000
1673805259.472,-6.836,-20.020,-21.484,-16.113,0.000
1673805259.476,-19.531,-24.902,-18.066,-5.371,0.000
1673805259.480,-18.066,-30.762,-22.461,-18.066,0.000
1673805259.484,-27.832,-27.344,-23.926,-26.367,0.000
1673805259.488,-39.062,-24.902,-24.902,-19.531,0.000
1673805259.492,-34.180,-18.555,-26.367,-16.602,0.000
1673805259.496,-38.086,-18.555,-27.344,-11.230,0.000
1673805259.500,-40.039,-27.344,-28.320,-19.043,0.000
1673805259.504,-33.203,-26.855,-26.367,-21.484,0.000
1673805259.507,-32.227,-16.602,-29.785,-19.531,0.000
1673805259.511,-45.410,-12.695,-30.762,-18.555,0.000
1673805259.515,-44.922,-14.160,-29.785,-21.484,0.000
1673805259.519,-17.578,-15.137,-30.273,-22.461,0.000
1673805259.523,-7.812,-17.090,-24.902,-17.578,0.000
1673805259.527,-9.277,-17.578,-23.438,-6.836,0.000
1673805259.531,-10.254,-19.531,-25.879,-18.555,0.000
1673805259.535,-25.391,-18.066,-24.902,-33.203,0.000
1673805259.539,-47.852,-19.043,-23.438,-25.879,0.000
1673805259.543,-61.035,-29.785,-22.461,-18.555,0.000
1673805259.546,-44.922,-28.809,-22.949,-21.484,0.000
1673805259.550,-37.109,-16.113,-25.391,-29.297,0.000
1673805259.554,-58.594,-19.531,-26.367,-31.250,0.000
1673805259.558,-69.824,-28.320,-26.367,-25.391,0.000
1673805259.562,-66.406,-30.762,-30.273,-34.180,0.000
1673805259.566,-63.965,-29.785,-33.691,-40.039,0.000
1673805259.570,-57.129,-29.297,-34.180,-39.062,0.000
1673805259.574,-43.945,-27.832,-36.621,-36.133,0.000
1673805259.578,-46.875,-33.203,-40.527,-40.039,0.000
1673805259.582,-66.406,-37.109,-39.062,-49.316,0.000
1673805259.586,-76.172,-36.621,-39.551,-45.898,0.000
1673805259.589,-69.336,-49.316,-35.645,-33.691,0.000
1673805259.593,-58.594,-49.316,-31.250,-37.598,0.000
1673805259.597,-46.387,-29.785,-31.738,-45.898,0.000
1673805259.601,-34.668,-25.879,-31.250,-41.016,0.000
1673805259.605,-25.391,-23.438,-30.762,-28.809,0.000
1673805259.609,-15.137,-28.809,-36.133,-26.855,0.000
1673805259.613,-24.414,-27.344,-34.668,-20.508,0.000
1673805259.617,-50.293,-19.531,-29.297,-8.301,0.000
1673805259.621,-31.738,-21.484,-34.180,-10.742,0.000
1673805259.625,5.371,-14.160,-30.762,-6.348,0.000
1673805259.629,19.043,-9.766,-28.320,-1.465,0.000
1673805259.632,-15.137,-19.531,-27.832,-3.906,0.000
1673805259.636,-46.387,-22.461,-20.020,-3.906,0.000
1673805259.640,-39.551,-10.742,-16.113,15.625,0.000
1673805259.644,-20.508,-8.789,-21.973,25.391,0.000
1673805259.648,-7.812,-21.484,-21.973,13.184,0.000
1673805259.652,-8.301,-23.926,-19.043,5.859,0.000
1673805259.656,-18.066,-23.438,-21.484,5.859,0.000
1673805259.660,-32.227,-27.344,-27.344,13.184,0.000
1673805259.664,-44.434,-27.832,-28.809,9.277,0.000
1673805259.668,-34.180,-26.855,-25.391,-6.836,0.000
1673805259.671,-16.602,-23.438,-20.508,2.441,0.000
1673805259.675,0.000,-25.879,-17.578,14.160,0.000
1673805259.679,10.742,-27.344,-12.695,8.301,0.000
1673805259.683,6.348,-17.578,-7.812,-4.395,0.000
1673805259.687,-2.930,-10.254,-19.531,-14.160,0.000
1673805259.691,-0.977,-10.254,-25.879,-1.465,0.000
1673805259.695,-11.719,-11.719,-23.926,-9.277,0.000
1673805259.699,-12.207,-21.484,-27.832,-26.367,0.000
1673805259.703,3.906,-16.113,-26.855,-16.602,0.000
1673805259.707,-13.672,-18.066,-25.391,-5.371,0.000
1673805259.711,-34.668,-21.973,-29.785,-8.301,0.000
1673805259.714,-30.273,-19.531,-26.855,-13.184,0.000
1673805259.718,-19.043,-20.508,-18.555,-20.996,0.000
1673805259.722,-28.809,-21.484,-22.461,-21.973,0.000
1673805259.726,-33.691,-26.367,-28.809,-14.160,0.000
1673805259.730,-5.859,-22.949,-26.367,-17.578,0.000
1673805259.734,-2.441,-22.461,-24.902,-23.438,0.000
1673805259.738,-34.180,-20.020,-21.973,-17.090,0.000
1673805259.742,-44.434,-21.484,-24.902,-16.113,0.000
1673805259.746,-32.715,-24.902,-21.973,-13.184,0.000
1673805259.750,-30.273,-34.180,-19.043,-5.859,0.000
1673805259.754,-18.555,-47.363,-34.668,-3.418,0.000
1673805259.757,-6.836,-33.691,-41.016,-15.137,0.000
1673805259.761,-18.066,-26.855,-30.273,-17.090,0.000
1673805259.765,-21.484,-22.461,-24.414,-15.625,0.000
1673805259.769,-13.184,-15.137,-21.484,-25.391,0.000
1673805259.773,-26.367,-16.113,-20.508,-19.043,0.000
1673805259.777,-30.273,-19.531,-21.484,-14.648,0.000
1673805259.781,-33.203,-25.879,-22.949,-18.066,0.000
1673805259.785,-41.992,-32.715,-26.367,-21.484,0.000
1673805259.789,-31.738,-28.320,-27.344,-19.043,0.000
1673805259.793,-27.832,-23.438,-27.344,-21.973,0.000
1673805259.796,-30.762,-32.227,-26.367,-22.949,0.000
1673805259.800,-34.668,-41.016,-29.785,-22.461,0.000
1673805259.804,-27.832,-35.645,-25.879,-26.367,0.000
1673805259.808,-14.648,-26.367,-20.508,-12.695,0.000
1673805259.812,-23.926,-22.949,-22.949,-12.207,0.000
1673805259.816,-29.785,-34.180,-19.531,-27.832,0.000
1673805259.820,-24.902,-36.621,-15.137,-23.926,0.000
1673805259.824,-20.508,-41.016,-13.184,-5.859,0.000
1673805259.828,-9.766,-31.738,-9.766,0.488,0.000
1673805259.832,-2.930,-9.277,-13.184,-25.391,0.000
1673805259.836,10.254,-4.883,-19.531,-37.109,0.000
1673805259.839,-1.465,-3.418,-16.113,-15.625,0.000
1673805259.843,-11.230,-4.883,-18.066,-10.742,0.000
1673805259.847,-12.695,-10.742,-25.391,-20.020,0.000
1673805259.851,-12.695,-17.578,-22.949,-14.160,0.000
1673805259.855,0.977,-20.996,-21.973,-14.160,0.000
1673805259.859,2.441,-16.602,-24.414,-15.625,0.000
1673805259.863,9.277,-3.418,-21.973,-8.789,0.000
1673805259.867,-18.066,-7.812,-25.391,0.000,0.000
1673805259.871,-53.711,-16.113,-22.461,5.859,0.000
1673805259.875,-48.340,-9.766,-19.531,5.371,0.000
1673805259.879,-40.527,-10.254,-23.926,1.465,0.000
1673805259.882,-23.926,-8.789,-19.043,-4.883,0.000
1673805259.886,-6.836,-4.883,-13.184,-6.348,0.000
1673805259.890,-15.137,-4.883,-16.113,-6.348,0.000
1673805259.894,-19.043,-7.324,-20.996,0.488,0.000
1673805259.898,-16.113,-12.207,-21.973,-6.348,0.000
1673805259.902,-17.578,-22.461,-20.508,-20.508,0.000
1673805259.906,-16.113,-18.555,-17.090,-20.020,0.000
1673805259.910,-7.812,-8.301,-15.137,-19.531,0.000
1673805259.914,-5.371,-18.555,-15.625,-22.949,0.000
1673805259.918,-25.391,-21.973,-15.137,-24.414,0.000
1673805259.921,-33.203,-31.250,-18.066,-16.602,0.000
1673805259.925,-11.719,-30.762,-24.902,-14.648,0.000
1673805259.929,-8.301,-19.043,-30.273,-21.484,0.000
1673805259.933,-26.855,-19.043,-21.484,-24.414,0.000
1673805259.937,-36.621,-16.602,-20.996,-21.973,0.000
1673805259.941,-27.344,-25.879,-30.273,-17.090,0.000
1673805259.945,-37.109,-23.438,-27.344,-10.742,0.000
1673805259.949,-42.480,-16.602,-22.461,-14.648,0.000
1673805259.953,-31.250,-22.949,-22.461,-12.207,0.000
1673805259.957,-40.527,-28.320,-22.949,-6.348,0.000
1673805259.961,-36.621,-25.879,-18.555,-21.484,0.000
1673805259.964,-28.320,-30.762,-22.949,-30.273,0.000
1673805259.968,-41.016,-32.715,-25.391,-30.762,0.000
1673805259.972,-45.410,-20.996,-19.043,-31.738,0.000
1673805259.976,-27.344,-20.508,-14.648,-11.230,0.000
1673805259.980,-13.672,-28.320,-17.090,-8.789,0.000
1673805259.984,-6.836,-21.484,-19.043,-23.926,0.000
1673805259.988,-8.301,-18.555,-20.996,-22.949,0.000
1673805259.992,-27.344,-20.020,-23.438,-8.301,0.000
1673805259.996,-24.414,-23.926,-12.695,-3.906,0.000
1673805260.000,-13.184,-27.344,-11.719,-19.043,0.000
1673805260.004,-13.184,-21.484,-22.461,-23.438,0.000
1673805260.007,-27.832,-21.973,-21.973,-13.184,0.000
1673805260.011,-23.438,-20.508,-24.902,-6.836,0.000
1673805260.015,-16.602,-22.949,-27.344,-9.277,0.000
1673805260.019,-46.875,-24.902,-20.508,-7.324,0.000
1673805260.023,-49.805,-32.227,-24.414,2.441,0.000
1673805260.027,-11.719,-32.715,-36.621,4.395,0.000
1673805260.031,-14.648,-27.344,-29.785,3.906,0.000
1673805260.035,-46.387,-27.344,-20.508,-6.836,0.000
1673805260.039,-46.875,-21.973,-23.926,-19.531,0.000
1673805260.043,-30.762,-19.531,-21.973,-21.484,0.000
1673805260.046,-35.645,-20.020,-14.160,-3.906,0.000
1673805260.050,-41.504,-20.508,-19.531,-10.742,0.000
1673805260.054,-24.902,-20.996,-27.344,-9.766,0.000
1673805260.058,-15.137,-14.160,-24.414,3.418,0.000
1673805260.062,0.488,-21.973,-31.738,-8.301,0.000
1673805260.066,-2.930,-28.320,-35.645,-13.184,0.000
1673805260.070,-37.598,-15.625,-32.715,-20.508,0.000
1673805260.074,-43.945,-13.672,-34.668,-15.625,0.000
1673805260.078,-30.273,-22.461,-34.668,-8.789,0.000
1673805260.082,-19.043,-21.973,-29.297,-9.277,0.000
1673805260.086,-21.484,-13.672,-31.738,-14.160,0.000
1673805260.089,-20.996,-17.578,-33.203,-19.043,0.000
1673805260.093,-10.254,-20.020,-27.344,-5.371,0.000
1673805260.097,-14.160,-18.066,-31.738,-12.695,0.000
1673805260.101,-18.555,-26.367,-38.086,-31.738,0.000
1673805260.105,-12.695,-22.949,-31.250,-30.273,0.000
1673805260.109,-10.742,-17.578,-30.762,-20.996,0.000
1673805260.113,-10.742,-28.320,-34.668,-16.113,0.000
1673805260.117,-12.695,-27.344,-34.180,-29.785,0.000
1673805260.121,-24.414,-24.902,-36.621,-24.414,0.000
1673805260.125,-31.738,-24.414,-35.645,-3.418,0.000
1673805260.129,-31.738,-24.414,-33.203,-19.531,0.000
1673805260.132,-12.207,-20.508,-29.297,-32.227,0.000
1673805260.136,6.348,-16.113,-24.902,-25.391,0.000
1673805260.140,1.465,-23.438,-25.391,-28.320,0.000
1673805260.144,-22.461,-26.855,-25.391,-12.207,0.000
1673805260.148,-41.504,-21.973,-22.949,-0.488,0.000
1673805260.152,-40.039,-20.508,-21.973,-6.836,0.000
1673805260.156,-21.484,-15.137,-20.996,-1.953,0.000
1673805260.160,-18.555,-22.949,-33.203,-12.695,0.000
1673805260.164,-30.273,-25.879,-39.062,-23.438,0.000
1673805260.168,-28.320,-16.113,-28.809,-18.066,0.000
1673805260.171,-26.367,-27.832,-22.461,-13.672,0.000
1673805260.175,-20.996,-32.227,-20.996,-7.324,0.000
1673805260.179,-14.160,-16.113,-25.391,-8.789,0.000
1673805260.183,-5.859,-14.648,-24.414,-11.230,0.000
1673805260.187,-1.465,-17.090,-18.555,-12.207,0.000
1673805260.191,-8.301,-9.766,-18.066,-4.883,0.000
1673805260.195,-25.391,-11.719,-24.414,-4.883,0.000
1673805260.199,-38.574,-17.578,-22.461,-5.371,0.000
1673805260.203,-40.527,-23.438,-23.438,-5.859,0.000
1673805260.207,-24.902,-24.414,-27.832,-8.301,0.000
1673805260.211,-12.207,-15.625,-32.227,-10.254,0.000
1673805260.214,-12.695,-19.531,-33.691,-23.926,0.000
1673805260.218,-25.391,-24.414,-25.391,-17.090,0.000
1673805260.222,-33.203,-30.273,-24.414,-0.977,0.000
1673805260.226,-26.855,-28.320,-23.926,-7.324,0.000
1673805260.230,-20.996,-22.461,-22.949,-27.832,0.000
1673805260.234,-5.371,-26.855,-22.949,-33.203,0.000
1673805260.238,8.301,-23.926,-22.949,-28.320,0.000
1673805260.242,-16.113,-23.438,-22.461,-20.996,0.000
1673805260.246,-50.293,-28.320,-20.508,-20.020,0.000
1673805260.250,-52.734,-25.879,-19.043,-23.926,0.000
1673805260.254,-29.297,-21.973,-22.461,-27.344,0.000
1673805260.257,-25.879,-22.949,-25.391,-29.297,0.000
1673805260.261,-45.410,-23.438,-28.320,-20.020,0.000
1673805260.265,-40.527,-22.461,-26.855,-14.648,0.000
1673805260.269,-27.344,-28.320,-18.555,-13.672,0.000
1673805260.273,-15.625,-24.902,-20.508,-17.090,0.000
1673805260.277,-16.602,-16.113,-29.785,-21.973,0.000
1673805260.281,-18.555,-18.555,-37.109,-29.785,0.000
1673805260.285,-23.926,-19.043,-30.273,-16.113,0.000
1673805260.289,-41.016,-22.461,-22.461,-5.859,0.000
1673805260.293,-29.785,-29.297,-24.902,-13.672,0.000
1673805260.296,-18.066,-27.344,-27.344,-20.996,0.000
1673805260.300,-17.090,-23.438,-26.367,-21.973,0.000
1673805260.304,-7.812,-21.484,-20.996,-10.254,0.000
1673805260.308,-18.555,-29.297,-25.879,-12.695,0.000
1673805260.312,-28.320,-37.598,-29.297,-23.438,0.000
1673805260.316,-9.766,-21.973,-28.320,-27.344,0.000
1673805260.320,5.859,-18.066,-30.762,-23.438,0.000
1673805260.324,-5.859,-30.273,-29.785,-21.484,0.000
1673805260.328,-22.949,-21.973,-22.461,-25.879,0.000
1673805260.332,-23.926,-13.672,-17.090,-24.414,0.000
1673805260.336,-25.879,-14.160,-21.973,-18.555,0.000
1673805260.339,-45.410,-11.230,-22.461,0.488,0.000
1673805260.343,-53.711,-16.602,-25.879,3.906,0.000
1673805260.347,-33.203,-20.020,-32.227,-5.859,0.000
1673805260.351,0.000,-19.531,-28.809,-5.859,0.000
1673805260.355,-0.488,-25.879,-31.738,-8.301,0.000
1673805260.359,-17.090,-27.344,-32.715,-11.230,0.000
1673805260.363,-24.902,-23.926,-22.461,-4.395,0.000
1673805260.367,-31.250,-23.438,-27.832,-12.695,0.000
1673805260.371,-21.973,-21.973,-34.180,-26.855,0.000
1673805260.375,-3.906,-26.367,-30.273,-18.066,0.000
1673805260.379,-5.859,-25.879,-24.414,-17.090,0.000
1673805260.382,-34.180,-17.578,-25.879,-21.484,0.000
1673805260.386,-24.414,-26.855,-29.297,-18.066,0.000
1673805260.390,-6.348,-30.273,-26.855,-12.695,0.000
1673805260.394,-18.066,-17.090,-31.738,0.000,0.000
1673805260.398,-27.344,-21.973,-38.086,-13.184,0.000
1673805260.402,-41.504,-35.645,-36.621,-25.391,0.000
1673805260.406,-56.641,-29.785,-32.227,-19.531,0.000
1673805260.410,-46.387,-22.461,-29.297,-20.996,0.000
1673805260.414,-25.391,-23.926,-29.297,-25.879,0.000
1673805260.418,-9.277,-39.062,-39.551,-39.551,0.000
1673805260.421,3.906,-48.828,-48.340,-34.668,0.000
1673805260.425,-16.113,-35.156,-35.645,-26.367,0.000
1673805260.429,-51.758,-20.996,-24.414,-19.531,0.000
1673805260.433,-54.199,-15.137,-19.043,-7.324,0.000
1673805260.437,-29.785,-18.555,-17.090,-20.996,0.000
1673805260.441,-22.949,-21.484,-21.973,-24.414,0.000
1673805260.445,-47.363,-22.461,-21.973,-16.602,0.000
1673805260.449,-36.621,-21.973,-20.996,-23.926,0.000
1673805260.453,-28.809,-24.414,-26.855,-19.043,0.000
1673805260.457,-44.922,-29.785,-27.832,-16.113,0.000
1673805260.461,-30.273,-25.391,-23.926,-20.020,0.000
1673805260.464,-27.832,-24.902,-24.414,-16.602,0.000
1673805260.468,-33.203,-29.785,-28.809,-12.207,0.000
1673805260.472,-18.555,-28.320,-28.809,-8.789,0.000
1673805260.476,-13.672,-15.137,-23.926,-0.977,0.000
1673805260.480,-11.719,-11.230,-24.414,-8.789,0.000
1673805260.484,-20.508,-21.973,-22.461,-14.160,0.000
1673805260.488,-36.621,-21.973,-18.066,-0.977,0.000
1673805260.492,-35.156,-25.879,-23.438,0.000,0.000
1673805260.496,-32.715,-28.320,-25.391,-6.836,0.000
1673805260.500,-22.461,-18.066,-23.926,-21.973,0.000
1673805260.504,-6.348,-20.508,-27.344,-26.855,0.000
1673805260.507,-5.371,-31.250,-33.691,-17.578,0.000
1673805260.511,-26.367,-34.180,-41.504,-9.766,0.000
1673805260.515,-28.809,-17.578,-37.109,-23.926,0.000
1673805260.519,-23.926,-12.207,-32.715,-31.738,0.000
1673805260.523,-41.016,-22.461,-26.855,-19.043,0.000
1673805260.527,-38.086,-17.090,-26.855,-23.926,0.000
1673805260.531,-37.109,-14.648,-29.785,-21.484,0.000
1673805260.535,-28.320,-25.391,-28.809,-15.137,0.000
1673805260.539,-6.836,-28.809,-37.109,-26.855,0.000
1673805260.543,2.441,-24.414,-38.086,-38.574,0.000
1673805260.546,-4.395,-22.949,-34.180,-37.109,0.000
1673805260.550,-25.391,-20.508,-27.344,-29.785,0.000
1673805260.554,-26.855,-25.391,-29.297,-25.879,0.000
1673805260.558,-9.766,-26.855,-33.203,-18.066,0.000
1673805260.562,-17.090,-18.066,-27.344,-12.695,0.000
1673805260.566,-20.996,-20.020,-30.273,-21.484,0.000
1673805260.570,-9.766,-24.902,-30.273,-27.344,0.000
1673805260.574,-22.949,-21.484,-22.461,-4.883,0.000
1673805260.578,-32.227,-27.832,-23.926,-2.441,0.000
1673805260.582,-35.645,-29.297,-29.297,-14.160,0.000
1673805260.586,-18.555,-15.137,-29.785,-11.719,0.000
1673805260.589,-9.766,-12.207,-31.738,-11.719,0.000
1673805260.593,-23.926,-19.043,-27.832,-18.555,0.000
1673805260.597,-25.879,-15.625,-26.855,-31.738,0.000
1673805260.601,-24.414,-13.672,-30.273,-20.020,0.000
1673805260.605,-28.320,-20.020,-20.508,2.441,0.000
1673805260.609,-39.551,-23.438,-12.207,-5.859,0.000
1673805260.613,-31.738,-19.043,-13.184,-23.926,0.000
1673805260.617,-15.137,-19.043,-10.254,-25.391,0.000
1673805260.621,-11.719,-17.090,-8.301,-15.137,0.000
1673805260.625,0.000,-10.254,-13.672,-5.859,0.000
1673805260.629,8.789,-4.395,-13.184,0.000,0.000
1673805260.632,14.160,0.000,-8.789,-4.883,0.000
1673805260.636,1.465,-5.859,-7.812,-7.324,0.000
1673805260.640,0.488,-8.301,-4.883,2.930,0.000
1673805260.644,10.742,-2.930,-4.883,3.906,0.000
1673805260.648,1.465,0.000,-9.766,1.953,0.000
1673805260.652,-10.742,-4.395,-12.207,4.395,0.000
1673805260.656,-13.184,-6.836,-10.742,0.977,0.000
1673805260.660,3.418,-2.441,-13.184,0.000,0.000
1673805260.664,-1.953,-2.930,-22.461,8.789,0.000
1673805260.668,-8.789,-14.160,-19.531,0.977,0.000
1673805260.671,5.371,-10.254,-13.672,-0.488,0.000
1673805260.675,5.859,1.465,-12.207,12.207,0.000
1673805260.679,-6.836,-3.418,-6.836,14.160,0.000
1673805260.683,-23.438,0.977,-10.254,0.488,0.000
1673805260.687,-32.227,2.930,-13.184,-3.418,0.000
1673805260.691,-20.508,-3.906,-13.184,-2.930,0.000
1673805260.695,-19.043,-6.348,-17.090,-7.812,0.000
1673805260.699,-21.973,-13.672,-22.461,-16.602,0.000
1673805260.703,-23.438,-23.438,-20.996,-28.809,0.000
1673805260.707,-25.391,-21.484,-30.273,-20.020,0.000
1673805260.711,-16.113,-24.414,-33.691,-12.207,0.000
1673805260.714,-7.324,-14.160,-15.137,-17.578,0.000
1673805260.718,-6.348,-6.348,-11.230,-22.461,0.000
1673805260.722,-12.695,-19.531,-11.719,-13.672,0.000
1673805260.726,-9.766,-24.414,-11.719,-8.789,0.000
1673805260.730,-4.395,-22.949,-12.695,-9.277,0.000
1673805260.734,-15.137,-19.531,-14.160,-1.953,0.000
1673805260.738,-16.602,-18.066,-14.648,-6.836,0.000
1673805260.742,-28.320,-16.602,-18.555,-6.836,0.000
1673805260.746,-14.648,-21.484,-19.531,-2.930,0.000
1673805260.750,9.766,-28.809,-15.625,-20.996,0.000
1673805260.754,5.859,-17.090,-15.137,-15.625,0.000
1673805260.757,-29.785,-8.301,-15.625,-10.254,0.000
1673805260.761,-47.363,-8.789,-20.996,-15.625,0.000
1673805260.765,-18.066,-7.324,-24.414,-7.812,0.000
1673805260.769,-17.578,-15.625,-21.484,-11.230,0.000
1673805260.773,-28.809,-16.602,-20.020,-9.766,0.000
1673805260.777,-0.977,-5.371,-22.461,-4.883,0.000
1673805260.781,8.301,0.488,-25.879,-8.301,0.000
1673805260.785,-14.648,-2.441,-23.438,-3.906,0.000
1673805260.789,-19.043,-15.137,-17.090,2.930,0.000
1673805260.793,-17.578,-20.996,-16.113,2.441,0.000
1673805260.796,-19.043,-12.207,-15.137,6.836,0.000
1673805260.800,-3.418,-7.324,-15.625,1.953,0.000
1673805260.804,-2.441,-8.301,-21.973,-8.301,0.000
1673805260.808,-21.484,-5.859,-23.438,-21.484,0.000
1673805260.812,-23.926,-4.883,-20.996,-17.090,0.000
1673805260.816,-26.367,-7.324,-25.879,-10.742,0.000
1673805260.820,-17.090,-15.137,-36.133,-18.066,0.000
1673805260.824,-7.324,-17.578,-38.086,-17.090,0.000
1673805260.828,-9.766,-11.230,-30.762,-8.789,0.000
1673805260.832,-13.672,-10.742,-27.344,-21.484,0.000
1673805260.836,-22.461,-14.160,-25.879,-33.203,0.000
1673805260.839,-19.043,-21.484,-28.320,-29.297,0.000
1673805260.843,-20.996,-21.484,-30.273,-30.273,0.000
1673805260.847,-25.879,-21.973,-26.367,-19.043,0.000
1673805260.851,-10.742,-25.391,-26.367,-15.625,0.000
1673805260.855,-13.672,-26.855,-27.344,-17.090,0.000
1673805260.859,-31.738,-32.715,-25.391,-6.836,0.000
1673805260.863,-27.832,-26.367,-22.461,-8.789,0.000
1673805260.867,-30.762,-22.461,-26.367,-20.508,0.000
1673805260.871,-25.391,-25.391,-29.785,-23.438,0.000
1673805260.875,-15.625,-20.508,-30.273,-10.254,0.000
1673805260.879,-20.020,-33.691,-31.738,-6.348,0.000
1673805260.882,-13.672,-35.156,-31.250,-13.672,0.000
1673805260.886,-16.113,-35.645,-33.203,-4.395,0.000
1673805260.890,-15.137,-44.434,-29.785,-0.977,0.000
1673805260.894,-28.809,-31.250,-27.344,-12.695,0.000
1673805260.898,-35.645,-24.414,-26.367,-20.996,0.000
1673805260.902,-23.438,-24.902,-19.043,-14.648,0.000
1673805260.906,-25.879,-19.043,-22.461,-15.625,0.000
1673805260.910,-13.672,-20.508,-30.762,-23.438,0.000
1673805260.914,2.441,-25.391,-35.156,-26.367,0.000
1673805260.918,-20.508,-32.715,-37.109,-29.297,0.000
1673805260.921,-27.832,-38.574,-29.297,-21.973,0.000
1673805260.925,-18.066,-35.645,-24.414,-10.742,0.000
1673805260.929,-16.113,-39.062,-29.297,-6.836,0.000
1673805260.933,-7.812,-31.250,-29.785,0.488,0.000
1673805260.937,-2.930,-20.020,-18.555,-5.859,0.000
1673805260.941,-14.160,-24.902,-17.578,-15.625,0.000
1673805260.945,-36.621,-34.668,-19.531,-2.441,0.000
1673805260.949,-25.879,-32.715,-9.766,2.930,0.000
1673805260.953,-21.973,-21.484,-6.348,-7.324,0.000
1673805260.957,-28.320,-20.020,-13.184,-15.137,0.000
1673805260.961,-34.668,-21.973,-18.555,-7.324,0.000
1673805260.964,-31.250,-18.555,-11.719,6.836,0.000
1673805260.968,-0.488,-18.066,-8.301,1.465,0.000
1673805260.972,-2.441,-24.902,-15.625,-13.184,0.000
1673805260.976,-2.441,-28.809,-21.484,-4.883,0.000
1673805260.980,-7.812,-26.367,-27.344,1.953,0.000
1673805260.984,-27.344,-19.043,-30.273,-6.348,0.000
1673805260.988,-9.766,-12.695,-25.879,-8.789,0.000
1673805260.992,2.930,-14.160,-29.297,-12.207,0.000
1673805260.996,-20.508,-15.625,-28.320,-22.461,0.000
1673805261.000,-23.926,-12.207,-24.902,-29.297,0.000
1673805261.004,-8.789,-13.184,-33.203,-35.156,0.000
1673805261.007,-13.672,-21.484,-37.109,-33.691,0.000
1673805261.011,-14.648,-24.414,-36.133,-18.555,0.000
1673805261.015,-21.973,-21.484,-29.297,-14.160,0.000
1673805261.019,-15.137,-21.484,-26.855,-20.996,0.000
1673805261.023,-9.277,-28.809,-39.551,-22.461,0.000
1673805261.027,-21.973,-24.414,-33.203,-23.926,0.000
1673805261.031,-38.086,-26.367,-21.484,-33.203,0.000
1673805261.035,-34.668,-37.109,-21.973,-32.715,0.000
1673805261.039,-21.484,-28.320,-21.973,-22.949,0.000
1673805261.043,-35.156,-17.090,-18.066,-18.066,0.000
1673805261.046,-53.223,-21.484,-20.020,-20.508,0.000
1673805261.050,-44.434,-24.414,-26.367,-25.391,0.000
1673805261.054,-22.949,-21.973,-31.738,-23.438,0.000
1673805261.058,-15.137,-21.973,-31.250,-12.695,0.000
1673805261.062,-15.625,-28.320,-28.809,-16.113,0.000
1673805261.066,-10.742,-33.203,-34.668,-22.949,0.000
1673805261.070,-10.254,-25.879,-34.180,-11.719,0.000
1673805261.074,-11.719,-27.344,-30.762,-2.930,0.000
1673805261.078,-33.203,-32.715,-36.621,-11.230,0.000
1673805261.082,-21.484,-33.691,-34.668,-16.602,0.000
1673805261.086,-4.395,-29.297,-29.785,-10.254,0.000
1673805261.089,-5.371,-24.414,-31.738,-7.324,0.000
1673805261.093,-3.906,-24.414,-27.344,-13.672,0.000
1673805261.097,-9.277,-20.508,-27.832,-14.160,0.000
1673805261.101,-13.184,-13.672,-28.809,-3.906,0.000
1673805261.105,-20.508,-20.020,-24.414,-19.531,0.000
1673805261.109,-12.695,-38.086,-26.855,-17.578,0.000
1673805261.113,-3.906,-26.367,-23.926,-0.488,0.000
1673805261.117,-4.395,-12.207,-23.926,-13.672,0.000
1673805261.121,-1.953,-20.020,-27.344,-13.184,0.000
1673805261.125,-3.906,-21.484,-29.297,-10.254,0.000
1673805261.129,-14.160,-18.066,-26.855,-12.695,0.000
1673805261.132,-20.996,-14.160,-26.367,-11.230,0.000
1673805261.136,-23.438,-16.113,-34.180,-15.625,0.000
1673805261.140,-34.668,-21.484,-41.504,-12.695,0.000
1673805261.144,-48.340,-19.043,-32.227,-5.371,0.000
1673805261.148,-40.039,-11.719,-23.926,-18.555,0.000
1673805261.152,-29.297,-11.230,-24.414,-31.250,0.000
1673805261.156,-22.949,-15.137,-20.508,-20.996,0.000
1673805261.160,-21.973,-11.230,-23.438,-22.949,0.000
1673805261.164,-29.785,-18.555,-27.832,-26.855,0.000
1673805261.168,-30.762,-27.344,-30.762,-27.832,0.000
1673805261.171,-20.508,-17.090,-32.715,-34.180,0.000
1673805261.175,-28.809,-18.555,-33.691,-30.273,0.000
1673805261.179,-33.203,-17.090,-34.180,-19.043,0.000
1673805261.183,-25.391,-15.137,-33.203,-19.531,0.000
1673805261.187,-27.832,-22.461,-33.691,-32.715,0.000
1673805261.191,-21.973,-27.832,-28.320,-21.973,0.000
1673805261.195,-10.254,-26.855,-29.297,-9.766,0.000
1673805261.199,-5.371,-20.996,-37.598,-14.648,0.000
1673805261.203,-6.836,-22.949,-32.227,-17.578,0.000
1673805261.207,-5.371,-21.973,-26.367,-16.602,0.000
1673805261.211,-16.113,-22.461,-30.273,-22.949,0.000
1673805261.214,-27.344,-23.926,-35.645,-25.879,0.000
1673805261.218,-45.898,-19.043,-31.738,-20.020,0.000
1673805261.222,-64.453,-30.762,-26.855,-17.578,0.000
1673805261.226,-53.223,-38.086,-28.809,-16.602,0.000
1673805261.230,-58.105,-28.320,-24.902,-23.926,0.000
1673805261.234,-54.688,-22.461,-20.996,-19.531,0.000
1673805261.238,-48.340,-23.438,-23.438,-13.184,0.000
1673805261.242,-39.062,-27.344,-31.250,-18.066,0.000
1673805261.246,-9.766,-20.996,-32.227,-13.672,0.000
1673805261.250,-11.230,-16.113,-31.738,-20.996,0.000
1673805261.254,-38.574,-24.902,-39.551,-20.996,0.000
1673805261.257,-44.922,-31.250,-30.273,-10.254,0.000
1673805261.261,-44.922,-31.738,-17.090,-8.301,0.000
1673805261.265,-37.598,-28.320,-24.414,-15.137,0.000
1673805261.269,-28.809,-21.484,-25.391,-26.855,0.000
1673805261.273,-18.066,-18.555,-20.508,-23.926,0.000
1673805261.277,-6.348,-16.602,-22.461,-6.836,0.000
1673805261.281,-8.301,-20.508,-23.438,2.441,0.000
1673805261.285,-8.789,-25.879,-24.414,-9.766,0.000
1673805261.289,-22.461,-19.531,-19.043,-9.766,0.000
1673805261.293,-17.090,-10.254,-18.555,0.000,0.000
1673805261.296,-12.695,-10.742,-24.902,-8.789,0.000
1673805261.300,-16.602,-20.508,-33.203,-21.484,0.000
1673805261.304,-4.395,-20.996,-37.598,-19.043,0.000
1673805261.308,-8.789,-15.137,-35.156,-5.371,0.000
1673805261.312,-18.555,-17.090,-26.855,3.418,0.000
1673805261.316,-32.227,-20.508,-24.902,-6.348,0.000
1673805261.320,-29.297,-18.555,-28.809,-14.160,0.000
1673805261.324,-7.324,-9.277,-25.879,-0.977,0.000
1673805261.328,1.953,-18.066,-27.344,-3.418,0.000
1673805261.332,-20.020,-25.879,-29.785,-12.207,0.000
1673805261.336,-28.809,-15.137,-26.367,-11.719,0.000
1673805261.339,-25.879,-9.277,-14.160,-3.906,0.000
1673805261.343,-29.785,-11.719,-20.508,-3.906,0.000
1673805261.347,-31.738,-13.672,-33.691,-14.648,0.000
1673805261.351,-31.738,-15.137,-19.043,-20.508,0.000
1673805261.355,-22.949,-18.555,-16.113,-27.344,0.000
1673805261.359,-24.414,-25.879,-19.043,-22.949,0.000
1673805261.363,-12.695,-27.344,-15.625,-10.742,0.000
1673805261.367,-6.348,-18.555,-21.973,-16.602,0.000
1673805261.371,-26.367,-19.043,-21.484,-18.555,0.000
1673805261.375,-34.668,-19.531,-15.625,-9.766,0.000
1673805261.379,-23.438,-19.043,-20.020,-20.508,0.000
1673805261.382,-26.855,-22.461,-23.926,-23.926,0.000
1673805261.386,-33.691,-25.391,-19.043,-24.414,0.000
1673805261.390,-28.809,-15.625,-14.160,-24.902,0.000
1673805261.394,-29.785,-16.113,-19.531,-10.742,0.000
1673805261.398,-17.578,-29.297,-29.785,-10.742,0.000
1673805261.402,-8.789,-34.180,-20.020,-18.066,0.000
1673805261.406,-13.184,-18.066,-10.254,-4.883,0.000
1673805261.410,-11.230,-16.113,-17.090,-10.254,0.000
1673805261.414,-22.461,-19.531,-14.160,-22.949,0.000
1673805261.418,-35.645,-19.531,-7.812,-20.996,0.000
1673805261.421,-43.945,-24.414,-5.371,-17.578,0.000
1673805261.425,-38.086,-17.578,-5.859,-11.230,0.000
1673805261.429,-20.020,-12.207,-7.812,-1.465,0.000
1673805261.433,-19.043,-17.090,-9.766,-0.488,0.000
1673805261.437,-20.996,-19.043,-18.555,-24.414,0.000
1673805261.441,-5.859,-25.391,-20.020,-19.531,0.000
1673805261.445,0.488,-22.949,-16.602,-4.395,0.000
1673805261.449,-5.371,-5.371,-19.043,-10.742,0.000
1673805261.453,-7.324,-8.301,-20.508,-12.695,0.000
1673805261.457,-6.836,-10.742,-16.113,-9.277,0.000
1673805261.461,0.977,-7.812,-19.531,-9.277,0.000
1673805261.464,-4.883,-8.789,-21.973,-6.836,0.000
1673805261.468,5.371,-3.418,-15.625,-10.254,0.000
1673805261.472,-1.465,-8.789,-18.066,-8.789,0.000
1673805261.476,-12.695,-10.742,-22.949,0.977,0.000
1673805261.480,-7.812,-6.348,-22.949,-1.953,0.000
1673805261.484,-1.465,-6.348,-21.484,-3.418,0.000
1673805261.488,9.277,-2.441,-18.555,-2.441,0.000
1673805261.492,0.977,1.953,-19.531,1.953,0.000
1673805261.496,-2.930,0.000,-24.414,-1.953,0.000
1673805261.500,-8.301,-10.254,-24.902,-7.812,0.000
1673805261.504,-27.344,-10.742,-24.902,2.441,0.000
1673805261.507,-34.180,-6.836,-28.320,8.789,0.000
1673805261.511,-19.531,-14.648,-23.926,12.207,0.000
1673805261.515,-22.461,-24.414,-27.832,10.742,0.000
1673805261.519,-38.086,-20.508,-32.715,10.254,0.000
1673805261.523,-19.043,-8.301,-27.344,12.695,0.000
1673805261.527,-3.906,-7.812,-24.414,4.395,0.000
1673805261.531,-5.371,-18.066,-22.461,-6.348,0.000
1673805261.535,2.930,-14.160,-14.648,-7.324,0.000
1673805261.539,4.395,-3.906,-8.789,2.930,0.000
1673805261.543,0.977,-1.953,-14.160,6.348,0.000
1673805261.546,-2.930,-0.977,-13.184,5.371,0.000
1673805261.550,-18.555,-8.301,-9.766,4.395,0.000
1673805261.554,-21.484,-12.207,-18.555,-4.883,0.000
1673805261.558,-25.879,-10.742,-27.832,-8.789,0.000
1673805261.562,-24.414,-16.602,-23.438,-12.207,0.000
1673805261.566,-6.348,-21.484,-22.461,-13.672,0.000
1673805261.570,-29.785,-15.137,-20.996,-21.484,0.000
1673805261.574,-45.898,-16.602,-17.090,-18.066,0.000
1673805261.578,-39.062,-19.043,-16.113,-16.602,0.000
1673805261.582,-53.711,-16.602,-18.555,-25.879,0.000
1673805261.586,-52.734,-17.578,-24.902,-23.926,0.000
1673805261.589,-52.246,-17.578,-24.414,-21.484,0.000
1673805261.593,-36.621,-20.020,-23.438,-20.996,0.000
1673805261.597,-26.367,-35.156,-29.297,-31.738,0.000
1673805261.601,-28.320,-33.203,-18.066,-27.344,0.000
1673805261.605,-41.016,-16.602,-6.836,-8.789,0.000
1673805261.609,-50.293,-15.625,-10.254,0.977,0.000
1673805261.613,-47.852,-17.090,-19.531,-8.789,0.000
1673805261.617,-41.504,-18.555,-27.832,-25.391,0.000
1673805261.621,-37.598,-13.672,-21.973,-20.996,0.000
1673805261.625,-31.738,-13.184,-15.625,-13.184,0.000
1673805261.629,-12.207,-12.695,-21.973,-9.277,0.000
1673805261.632,-12.207,-17.090,-24.902,-6.348,0.000
1673805261.636,-26.367,-16.602,-21.484,6.348,0.000
1673805261.640,-38.574,-13.184,-22.461,1.953,0.000
1673805261.644,-47.852,-21.973,-22.949,-3.906,0.000
1673805261.648,-42.480,-16.113,-19.043,-3.906,0.000
1673805261.652,-25.879,-9.766,-23.438,-19.531,0.000
1673805261.656,-20.508,-12.207,-27.344,-18.066,0.000
1673805261.660,-21.973,-6.836,-14.160,-0.488,0.000
1673805261.664,-29.297,-16.113,-20.020,-7.812,0.000
1673805261.668,-34.668,-26.855,-27.344,-18.066,0.000
1673805261.671,-33.203,-25.391,-21.973,-13.184,0.000
1673805261.675,-36.621,-24.414,-22.461,-25.879,0.000
1673805261.679,-22.949,-16.113,-17.578,-29.785,0.000
1673805261.683,0.000,-13.672,-18.555,-33.203,0.000
1673805261.687,-8.301,-13.672,-26.367,-34.668,0.000
1673805261.691,-30.273,-9.277,-28.320,-20.996,0.000
1673805261.695,-29.785,-13.672,-21.973,-18.555,0.000
1673805261.699,-12.207,-23.438,-17.090,-22.461,0.000
1673805261.703,-7.812,-25.391,-12.695,-22.461,0.000
1673805261.707,-19.531,-21.484,-13.184,-25.879,0.000
1673805261.711,-25.391,-18.555,-15.625,-20.508,0.000
1673805261.714,-40.039,-17.090,-11.719,-15.137,0.000
1673805261.718,-37.109,-21.484,-15.625,-19.043,0.000
1673805261.722,-43.457,-29.785,-20.020,-21.973,0.000
1673805261.726,-52.734,-25.879,-17.578,-9.766,0.000
1673805261.730,-40.527,-12.207,-18.066,-1.953,0.000
1673805261.734,-38.574,-26.367,-23.926,-12.207,0.000
1673805261.738,-31.738,-36.621,-26.367,-7.812,0.000
1673805261.742,-27.832,-22.461,-25.879,-0.488,0.000
1673805261.746,-35.645,-14.648,-30.273,1.953,0.000
1673805261.750,-35.645,-19.531,-33.691,-3.418,0.000
1673805261.754,-39.062,-16.113,-35.156,-12.207,0.000
1673805261.757,-36.621,-16.602,-36.133,-10.742,0.000
1673805261.761,-26.855,-28.320,-30.762,-14.160,0.000
1673805261.765,-26.367,-27.344,-27.344,-18.066,0.000
1673805261.769,-23.926,-20.508,-27.344,-13.184,0.000
1673805261.773,-8.301,-19.531,-25.879,-12.207,0.000
1673805261.777,-6.348,-23.926,-26.367,-10.742,0.000
1673805261.781,-6.836,-23.438,-20.996,-16.113,0.000
1673805261.785,-12.695,-25.391,-20.020,-21.484,0.000
1673805261.789,-28.809,-23.438,-23.926,-14.648,0.000
1673805261.793,-24.414,-20.508,-20.020,-13.184,0.000
1673805261.796,-23.438,-32.715,-24.902,-19.043,0.000
1673805261.800,-32.715,-33.203,-30.273,-26.855,0.000
1673805261.804,-3.906,-15.137,-26.367,-19.043,0.000
1673805261.808,-9.277,-17.090,-24.414,-6.836,0.000
1673805261.812,-63.477,-24.902,-21.973,-4.395,0.000
1673805261.816,-61.523,-28.320,-25.879,-4.883,0.000
1673805261.820,-40.527,-38.086,-29.785,-6.348,0.000
1673805261.824,-40.527,-29.297,-23.438,0.488,0.000
1673805261.828,-35.645,-21.484,-17.090,9.766,0.000
1673805261.832,-19.531,-18.555,-13.672,3.418,0.000
1673805261.836,-16.113,-10.742,-18.066,4.395,0.000
1673805261.839,-25.879,-13.184,-20.020,11.230,0.000
1673805261.843,-24.414,-18.555,-26.367,-4.395,0.000
1673805261.847,-13.184,-14.160,-25.879,-14.160,0.000
1673805261.851,-12.695,-20.020,-13.184,-12.695,0.000
1673805261.855,-11.230,-27.344,-11.230,-7.812,0.000
1673805261.859,-7.324,-16.602,-16.113,-6.348,0.000
1673805261.863,-0.977,-7.324,-24.414,-14.160,0.000
1673805261.867,-3.418,-12.695,-30.762,-15.137,0.000
1673805261.871,-30.273,-35.645,-29.785,-23.438,0.000
1673805261.875,-7.324,-26.367,-21.484,-15.137,0.000
1673805261.879,21.484,-5.371,-20.996,-5.859,0.000
1673805261.882,19.531,-9.766,-26.855,-25.391,0.000
1673805261.886,2.441,-13.672,-31.250,-27.832,0.000
1673805261.890,-37.598,-19.531,-34.180,-23.926,0.000
1673805261.894,-43.457,-26.855,-34.180,-24.414,0.000
1673805261.898,-28.809,-22.461,-30.273,-22.949,0.000
1673805261.902,-27.832,-20.020,-27.832,-24.902,0.000
1673805261.906,-35.156,-22.949,-25.879,-18.555,0.000
1673805261.910,-35.156,-19.531,-21.973,-3.418,0.000
1673805261.914,-32.227,-22.949,-21.484,-4.883,0.000
1673805261.918,-36.621,-40.039,-26.367,-24.414,0.000
1673805261.921,-28.320,-36.133,-28.320,-12.695,0.000
1673805261.925,-20.020,-20.020,-23.438,-3.906,0.000
1673805261.929,-30.762,-20.996,-22.949,-8.789,0.000
1673805261.933,-23.926,-20.508,-20.996,-7.812,0.000
1673805261.937,-19.531,-16.113,-20.020,-7.812,0.000
1673805261.941,-20.020,-23.926,-21.973,-11.719,0.000
1673805261.945,-28.809,-23.926,-20.508,-19.043,0.000
1673805261.949,-47.363,-22.461,-22.461,-20.508,0.000
1673805261.953,-39.551,-20.508,-26.367,-14.648,0.000
1673805261.957,-21.484,-19.043,-33.691,-11.230,0.000
1673805261.961,-10.254,-29.297,-26.855,-22.461,0.000
1673805261.964,8.301,-25.879,-20.996,-27.832,0.000
1673805261.968,8.789,-19.043,-23.926,-24.414,0.000
1673805261.972,-23.438,-24.902,-18.066,-19.043,0.000
1673805261.976,-41.504,-24.414,-11.719,-13.184,0.000
1673805261.980,-35.645,-23.438,-11.230,-13.184,0.000
1673805261.984,-28.320,-34.668,-17.090,-12.695,0.000
1673805261.988,-25.879,-28.320,-22.949,-6.836,0.000
1673805261.992,-27.344,-18.066,-22.949,-9.277,0.000
1673805261.996,-36.621,-23.926,-22.461,-14.648,0.000
1673805262.000,-43.945,-25.391,-20.508,-13.672,0.000
1673805262.004,-22.461,-18.066,-17.578,-7.812,0.000
1673805262.007,-1.953,-22.949,-17.090,-4.883,0.000
1673805262.011,5.859,-32.715,-23.438,-4.883,0.000
1673805262.015,-15.137,-22.949,-28.320,-11.230,0.000
1673805262.019,-34.180,-16.113,-20.996,-12.695,0.000
1673805262.023,-37.109,-22.949,-13.672,-0.488,0.000
1673805262.027,-41.016,-32.715,-9.277,10.254,0.000
1673805262.031,-34.668,-35.156,-7.324,2.930,0.000
1673805262.035,-27.832,-28.320,-17.090,-15.625,0.000
1673805262.039,-11.719,-19.043,-25.391,-18.555,0.000
1673805262.043,4.395,-14.160,-22.949,-14.648,0.000
1673805262.046,-18.066,-23.438,-19.531,-20.508,0.000
1673805262.050,-45.410,-22.949,-24.414,-27.344,0.000
1673805262.054,-36.621,-19.043,-24.902,-32.227,0.000
1673805262.058,-40.527,-18.066,-20.020,-21.973,0.000
1673805262.062,-39.551,-16.602,-23.926,-6.836,0.000
1673805262.066,-22.461,-19.043,-27.832,-6.836,0.000
1673805262.070,-8.789,-23.926,-22.461,-11.719,0.000
1673805262.074,-26.855,-29.297,-14.648,-5.371,0.000
1673805262.078,-62.988,-30.762,-16.602,-4.395,0.000
1673805262.082,-59.082,-30.273,-26.367,-12.207,0.000
1673805262.086,-41.016,-28.320,-34.180,-19.531,0.000
1673805262.089,-24.902,-26.367,-27.832,-17.578,0.000
1673805262.093,-18.066,-24.414,-20.020,-7.812,0.000
1673805262.097,-22.461,-28.320,-23.926,-6.836,0.000
1673805262.101,-30.762,-31.738,-28.320,-18.555,0.000
1673805262.105,-35.645,-22.949,-29.297,-27.344,0.000
1673805262.109,-33.691,-13.672,-22.949,-17.578,0.000
1673805262.113,-23.926,-12.695,-19.531,-13.672,0.000
1673805262.117,-27.344,-21.973,-19.531,-12.207,0.000
1673805262.121,-19.531,-33.203,-22.949,-14.648,0.000
1673805262.125,-8.789,-21.484,-27.344,-11.719,0.000
1673805262.129,-2.930,-2.441,-25.879,2.930,0.000
1673805262.132,15.625,-10.742,-23.438,-17.090,0.000
1673805262.136,-13.184,-19.531,-24.414,-23.926,0.000
1673805262.140,-29.297,-21.973,-24.902,-9.766,0.000
1673805262.144,-1.953,-24.414,-23.438,-7.324,0.000
1673805262.148,1.465,-24.902,-23.438,-13.672,0.000
1673805262.152,-10.254,-20.996,-26.855,-21.973,0.000
1673805262.156,-17.578,-20.996,-29.297,-11.719,0.000
1673805262.160,-23.438,-22.949,-27.344,-3.906,0.000
1673805262.164,-35.645,-23.438,-22.949,-5.371,0.000
1673805262.168,-37.109,-20.996,-23.438,-10.254,0.000
1673805262.171,-21.484,-24.414,-28.320,-15.137,0.000
1673805262.175,-30.273,-29.785,-28.809,-15.625,0.000
1673805262.179,-41.016,-24.414,-24.414,-5.859,0.000
1673805262.183,-35.156,-19.043,-25.391,0.000,0.000
1673805262.187,-36.621,-18.555,-27.344,-8.789,0.000
1673805262.191,-47.363,-20.020,-25.879,6.348,0.000
1673805262.195,-36.133,-19.531,-25.391,3.906,0.000
1673805262.199,-15.137,-18.066,-29.297,-25.391,0.000
1673805262.203,-19.043,-22.461,-31.738,-34.668,0.000
1673805262.207,-17.090,-28.809,-31.250,-30.273,0.000
1673805262.211,-11.230,-21.973,-27.344,-35.156,0.000
1673805262.214,-22.949,-15.137,-29.785,-35.645,0.000
1673805262.218,-31.250,-20.508,-30.273,-24.902,0.000
1673805262.222,-20.020,-27.832,-27.344,-26.367,0.000
1673805262.226,-10.742,-29.785,-29.297,-24.414,0.000
1673805262.230,-9.766,-28.809,-30.762,-28.809,0.000
1673805262.234,-7.324,-30.762,-28.320,-40.527,0.000
1673805262.238,-7.812,-26.855,-23.926,-30.273,0.000
1673805262.242,-12.207,-23.926,-22.949,-18.555,0.000
1673805262.246,-42.969,-24.902,-23.926,-22.949,0.000
1673805262.250,-51.270,-24.902,-23.438,-23.438,0.000
1673805262.254,-41.016,-22.461,-20.996,-10.742,0.000
1673805262.257,-41.504,-17.090,-24.414,0.488,0.000
1673805262.261,-36.621,-9.766,-24.902,7.324,0.000
1673805262.265,-29.785,-17.090,-23.926,5.859,0.000
1673805262.269,-28.320,-24.902,-26.855,4.883,0.000
1673805262.273,-19.531,-25.879,-26.855,7.812,0.000
1673805262.277,-16.602,-29.785,-29.297,4.395,0.000
1673805262.281,-22.461,-20.996,-26.367,-2.930,0.000
1673805262.285,-31.738,-16.602,-28.809,-3.418,0.000
1673805262.289,-27.832,-22.461,-30.273,-8.301,0.000
1673805262.293,-14.648,-14.648,-20.996,-14.648,0.000
1673805262.296,-19.531,-6.836,-17.578,-15.625,0.000
1673805262.300,-26.367,-14.648,-18.555,-25.391,0.000
1673805262.304,-19.531,-15.137,-22.461,-29.785,0.000
1673805262.308,-5.859,-17.090,-23.926,-29.297,0.000
1673805262.312,3.418,-13.184,-13.672,-30.273,0.000
1673805262.316,5.371,-2.930,-6.836,-27.344,0.000
1673805262.320,7.812,-4.883,-15.137,-27.832,0.000
1673805262.324,21.973,-8.789,-15.625,-28.809,0.000
1673805262.328,11.230,-7.324,-13.184,-18.066,0.000
1673805262.332,-18.555,-9.277,-16.602,-8.301,0.000
1673805262.336,-38.086,-12.695,-19.043,-12.207,0.000
1673805262.339,-31.738,-12.207,-18.066,-12.695,0.000
1673805262.343,-19.043,-8.301,-20.508,-10.254,0.000
1673805262.347,-8.789,-7.324,-27.832,-5.859,0.000
1673805262.351,9.277,-5.371,-20.020,-1.465,0.000
1673805262.355,-1.953,-10.742,-8.789,-3.906,0.000
1673805262.359,-24.902,-12.695,-7.812,-1.953,0.000
1673805262.363,-19.043,-4.395,-8.789,0.000,0.000
1673805262.367,-11.719,-3.906,-10.742,-4.883,0.000
1673805262.371,-15.137,-14.648,-10.742,-10.742,0.000
1673805262.375,-25.879,-18.066,-12.695,-0.977,0.000
1673805262.379,-38.086,-18.555,-11.719,0.000,0.000
1673805262.382,-47.852,-25.391,-14.160,-8.301,0.000
1673805262.386,-36.621,-12.695,-16.602,7.812,0.000
1673805262.390,-22.949,-5.859,-15.137,4.883,0.000
1673805262.394,-5.859,-7.812,-20.996,-20.996,0.000
1673805262.398,2.441,-0.977,-22.949,-32.715,0.000
1673805262.402,-8.789,3.418,-16.602,-33.203,0.000
1673805262.406,0.488,-4.395,-8.789,-19.531,0.000
1673805262.410,-0.488,-15.137,-5.371,-7.324,0.000
1673805262.414,-19.531,-8.789,-7.324,-17.090,0.000
1673805262.418,-25.879,-0.488,-11.230,-21.484,0.000
1673805262.421,-34.180,-10.254,-12.695,-18.066,0.000
1673805262.425,-24.902,-13.184,-15.137,-15.137,0.000
1673805262.429,-7.812,-7.812,-15.625,-12.695,0.000
1673805262.433,-7.324,-11.230,-11.719,-9.277,0.000
1673805262.437,-7.812,-12.695,-14.648,-15.137,0.000
1673805262.441,-21.973,-14.648,-14.160,-8.789,0.000
1673805262.445,-36.621,-20.508,-15.137,-0.977,0.000
1673805262.449,-30.273,-17.578,-16.113,-9.277,0.000
1673805262.453,-25.391,-6.348,-12.695,-15.137,0.000
1673805262.457,-29.785,-2.441,-17.090,-14.160,0.000
1673805262.461,-25.879,-1.953,-19.043,-1.465,0.000
1673805262.464,-20.020,-5.859,-14.648,2.441,0.000
1673805262.468,-10.742,-13.184,-15.137,-9.277,0.000
1673805262.472,-9.766,-16.113,-14.648,-11.230,0.000
1673805262.476,-13.672,-20.020,-12.207,0.000,0.000
1673805262.480,-2.930,-19.043,-13.184,-12.207,0.000
1673805262.484,4.395,-7.812,-18.555,-26.855,0.000
1673805262.488,-5.371,-11.719,-25.391,-19.043,0.000
1673805262.492,-5.371,-12.695,-20.020,-10.742,0.000
1673805262.496,-1.953,-7.324,-10.742,-10.254,0.000
1673805262.500,-11.230,-16.113,-15.137,-20.508,0.000
1673805262.504,-17.578,-26.855,-21.484,-22.461,0.000
1673805262.507,-14.160,-27.832,-19.043,-11.230,0.000
1673805262.511,-13.184,-16.602,-14.160,-5.371,0.000
1673805262.515,-25.391,-22.949,-12.207,-13.184,0.000
1673805262.519,-17.090,-30.762,-8.789,-25.879,0.000
