timestamp,TP9,AF7,AF8,TP10,Right AUX
1673805673.659,-67.871,-29.297,-25.391,-31.738,0.000
1673805673.662,-45.410,-28.320,-27.832,-26.855,0.000
1673805673.666,-34.180,-22.461,-30.762,-26.367,0.000
1673805673.670,-53.711,-21.484,-32.715,-38.086,0.000
1673805673.674,-60.547,-26.367,-34.668,-38.086,0.000
1673805673.678,-51.758,-26.855,-36.133,-19.531,0.000
1673805673.682,-50.293,-27.832,-28.320,-22.949,0.000
1673805673.686,-52.734,-45.410,-29.297,-37.598,0.000
1673805673.690,-50.781,-58.105,-32.715,-37.598,0.000
1673805673.694,-43.945,-38.086,-35.156,-35.645,0.000
1673805673.698,-50.293,-20.020,-43.945,-47.363,0.000
1673805673.701,-58.105,-22.461,-32.227,-54.199,0.000
1673805673.705,-46.875,-20.508,-21.484,-42.969,0.000
1673805673.709,-35.156,-10.742,-24.414,-43.457,0.000
1673805673.713,-32.227,-21.484,-28.320,-48.340,0.000
1673805673.717,-28.320,-20.020,-30.273,-43.457,0.000
1673805673.721,-19.043,-9.277,-45.898,-45.410,0.000
1673805673.725,-7.324,-15.625,-41.992,-37.598,0.000
1673805673.729,-7.812,-16.113,-21.973,-29.785,0.000
1673805673.733,-13.184,-22.461,-20.996,-27.832,0.000
1673805673.737,-17.090,-31.250,-21.973,-30.273,0.000
1673805673.741,-20.508,-30.762,-20.020,-31.250,0.000
1673805673.744,-31.738,-30.762,-25.879,-25.391,0.000
1673805673.748,-37.598,-33.203,-31.738,-31.738,0.000
1673805673.752,-23.438,-41.016,-26.855,-30.273,0.000
1673805673.756,-16.602,-40.039,-25.879,-24.902,0.000
1673805673.760,-40.039,-35.156,-24.414,-32.715,0.000
1673805673.764,-46.875,-26.367,-22.949,-32.227,0.000
1673805673.768,-40.527,-18.555,-24.902,-18.555,0.000
1673805673.772,-40.039,-23.438,-24.902,-19.531,0.000
1673805673.776,-37.109,-32.227,-22.949,-36.133,0.000
1673805673.780,-39.062,-28.809,-33.691,-34.180,0.000
1673805673.784,-35.156,-24.414,-37.109,-24.414,0.000
1673805673.787,-29.297,-26.855,-31.250,-36.133,0.000
1673805673.791,-35.156,-23.926,-22.949,-43.457,0.000
1673805673.795,-41.016,-22.461,-14.160,-28.809,0.000
1673805673.799,-39.551,-27.344,-21.484,-26.367,0.000
1673805673.803,-25.391,-25.391,-26.855,-32.715,0.000
1673805673.807,-12.207,-10.254,-22.461,-23.438,0.000
1673805673.811,-14.160,-7.324,-28.320,-20.996,0.000
1673805673.815,-12.695,-30.762,-37.109,-18.555,0.000
1673805673.819,-11.719,-32.227,-20.020,-4.883,0.000
1673805673.823,-24.414,-14.648,-18.066,-11.719,0.000
1673805673.826,-29.297,-12.695,-20.020,-16.113,0.000
1673805673.830,-21.484,-17.090,-17.578,-1.953,0.000
1673805673.834,-25.879,-29.785,-30.273,0.488,0.000
1673805673.838,-27.832,-13.184,-36.133,-14.160,0.000
1673805673.842,-27.344,1.465,-30.762,-16.602,0.000
1673805673.846,-30.762,-15.625,-24.902,-14.648,0.000
1673805673.850,-34.180,-18.066,-28.809,-7.324,0.000
1673805673.854,-37.109,-9.277,-22.461,1.953,0.000
1673805673.858,-41.016,-17.090,-13.184,-5.859,0.000
1673805673.862,-52.246,-26.367,-19.043,-9.277,0.000
1673805673.866,-62.500,-30.273,-14.648,-18.066,0.000
1673805673.869,-61.035,-37.109,-14.648,-29.785,0.000
1673805673.873,-52.734,-41.504,-20.508,-28.320,0.000
1673805673.877,-46.387,-44.434,-24.414,-26.367,0.000
1673805673.881,-42.480,-33.203,-20.508,-15.625,0.000
1673805673.885,-43.457,-24.902,-15.137,-17.090,0.000
1673805673.889,-45.410,-28.320,-18.066,-26.855,0.000
1673805673.893,-42.480,-42.480,-13.672,-32.715,0.000
1673805673.897,-41.504,-37.598,-18.555,-16.602,0.000
1673805673.901,-44.922,-20.020,-28.809,-6.836,0.000
1673805673.905,-40.039,-12.695,-18.555,-12.207,0.000
1673805673.909,-42.480,-12.207,-11.230,-8.301,0.000
1673805673.912,-44.434,-15.625,-14.160,-4.395,0.000
1673805673.916,-35.645,-22.949,-21.973,2.930,0.000
1673805673.920,-36.133,-24.902,-31.738,10.742,0.000
1673805673.924,-32.227,-19.043,-36.621,8.789,0.000
1673805673.928,-33.691,-21.484,-31.250,3.906,0.000
1673805673.932,-50.781,-27.832,-31.738,5.371,0.000
1673805673.936,-48.828,-22.949,-30.762,11.230,0.000
1673805673.940,-42.969,-20.996,-20.508,3.418,0.000
1673805673.944,-27.832,-27.832,-14.160,2.441,0.000
1673805673.948,-33.691,-27.832,-15.625,8.301,0.000
1673805673.951,-53.223,-32.227,-16.113,-5.371,0.000
1673805673.955,-44.922,-19.531,-22.949,-21.973,0.000
1673805673.959,-34.180,-3.906,-37.109,-22.461,0.000
1673805673.963,-36.133,-16.602,-37.109,-9.766,0.000
1673805673.967,-33.691,-20.996,-25.879,-10.742,0.000
1673805673.971,-37.598,-19.531,-23.926,-14.648,0.000
1673805673.975,-40.527,-31.250,-25.391,-1.465,0.000
1673805673.979,-41.992,-26.855,-25.391,0.000,0.000
1673805673.983,-41.504,-8.789,-29.785,-4.883,0.000
1673805673.987,-39.062,-12.695,-20.996,-8.301,0.000
1673805673.991,-39.062,-22.461,-18.555,-18.066,0.000
1673805673.994,-38.086,-19.531,-25.391,-18.066,0.000
1673805673.998,-33.203,-11.230,-24.414,-11.719,0.000
1673805674.002,-24.902,-12.207,-25.879,-16.113,0.000
1673805674.006,-17.578,-5.859,-20.020,-17.578,0.000
1673805674.010,-19.531,-9.766,-24.414,-1.465,0.000
1673805674.014,-24.902,-31.738,-35.645,-0.977,0.000
1673805674.018,-23.438,-28.809,-34.668,-14.648,0.000
1673805674.022,-11.719,-13.184,-31.738,-15.137,0.000
1673805674.026,-11.230,-19.043,-30.762,-8.789,0.000
1673805674.030,-33.691,-30.273,-32.715,-4.883,0.000
1673805674.034,-31.250,-18.066,-37.109,-1.465,0.000
1673805674.037,-21.484,-11.230,-32.715,-0.488,0.000
1673805674.041,-19.531,-13.672,-16.602,-3.418,0.000
1673805674.045,-10.254,-17.578,-14.648,-5.859,0.000
1673805674.049,-3.418,-17.578,-18.555,-13.184,0.000
1673805674.053,-19.043,-18.066,-20.996,-17.090,0.000
1673805674.057,-49.805,-29.297,-26.367,-16.113,0.000
1673805674.061,-56.152,-35.645,-27.832,-21.484,0.000
1673805674.065,-59.082,-41.504,-23.438,-14.160,0.000
1673805674.069,-62.012,-39.551,-21.973,-7.324,0.000
1673805674.073,-49.805,-16.113,-31.250,-18.066,0.000
1673805674.076,-43.457,-4.395,-29.785,-24.902,0.000
1673805674.080,-45.898,-15.625,-30.762,-27.344,0.000
1673805674.084,-47.852,-22.461,-39.551,-23.926,0.000
1673805674.088,-54.688,-23.926,-33.203,-22.461,0.000
1673805674.092,-45.898,-20.508,-24.414,-21.973,0.000
1673805674.096,-25.879,-20.020,-20.996,-7.812,0.000
1673805674.100,-26.855,-24.902,-24.902,-11.719,0.000
1673805674.104,-21.484,-23.438,-22.461,-30.273,0.000
1673805674.108,-11.719,-18.555,-24.414,-32.715,0.000
1673805674.112,-20.020,-22.461,-36.621,-30.762,0.000
1673805674.116,-21.484,-28.809,-33.203,-33.691,0.000
1673805674.119,-12.207,-25.391,-22.461,-32.715,0.000
1673805674.123,13.184,-14.648,-11.230,-20.508,0.000
1673805674.127,24.902,-19.531,-5.859,-7.324,0.000
1673805674.131,-0.977,-26.367,-17.090,-4.395,0.000
1673805674.135,-54.199,-24.414,-39.551,-10.742,0.000
1673805674.139,-82.520,-25.391,-31.250,-7.324,0.000
1673805674.143,-77.148,-22.461,-9.766,-0.488,0.000
1673805674.147,-91.309,-40.527,-18.066,-17.090,0.000
1673805674.151,-92.773,-54.688,-41.992,-34.668,0.000
1673805674.155,-72.754,-49.316,-52.734,-25.879,0.000
1673805674.158,-50.781,-56.641,-48.340,-18.555,0.000
1673805674.162,-40.527,-35.156,-33.691,-22.461,0.000
1673805674.166,-35.156,-8.301,-16.602,-16.602,0.000
1673805674.170,-35.156,-13.672,-18.555,-20.996,0.000
1673805674.174,-42.969,-14.160,-24.902,-27.344,0.000
1673805674.178,-41.504,-12.207,-26.367,-21.973,0.000
1673805674.182,-36.133,-18.555,-26.855,-19.043,0.000
1673805674.186,-28.809,-25.879,-32.227,-29.297,0.000
1673805674.190,-23.926,-24.414,-28.320,-36.133,0.000
1673805674.194,-32.715,-23.438,-23.438,-28.809,0.000
1673805674.198,-29.297,-21.973,-25.879,-19.043,0.000
1673805674.201,-26.367,-18.555,-25.391,-19.531,0.000
1673805674.205,-26.367,-23.438,-25.391,-25.879,0.000
1673805674.209,-25.391,-32.227,-29.297,-28.809,0.000
1673805674.213,-39.062,-35.645,-32.227,-31.738,0.000
1673805674.217,-49.805,-34.668,-46.875,-30.762,0.000
1673805674.221,-47.363,-35.645,-45.898,-25.391,0.000
1673805674.225,-54.199,-36.133,-20.508,-22.949,0.000
1673805674.229,-54.688,-28.320,-15.625,-6.836,0.000
1673805674.233,-41.992,-20.020,-22.461,-7.324,0.000
1673805674.237,-32.715,-27.344,-26.367,-20.996,0.000
1673805674.241,-41.504,-36.621,-32.227,-19.531,0.000
1673805674.244,-54.688,-22.949,-29.785,-20.020,0.000
1673805674.248,-62.012,-8.789,-27.832,-17.578,0.000
1673805674.252,-58.105,-21.484,-30.273,-15.137,0.000
1673805674.256,-41.016,-25.879,-33.203,-12.207,0.000
1673805674.260,-40.527,-26.855,-39.551,-4.883,0.000
1673805674.264,-40.527,-29.297,-33.691,5.859,0.000
1673805674.268,-37.598,-31.738,-23.438,-6.836,0.000
1673805674.272,-35.645,-41.016,-21.973,-29.785,0.000
1673805674.276,-32.227,-35.645,-23.438,-30.762,0.000
1673805674.280,-36.133,-34.668,-35.156,-26.367,0.000
1673805674.283,-38.086,-46.875,-28.809,-30.273,0.000
1673805674.287,-38.574,-35.645,-13.672,-32.227,0.000
1673805674.291,-34.668,-26.367,-25.391,-41.016,0.000
1673805674.295,-32.715,-20.996,-25.391,-40.527,0.000
1673805674.299,-41.016,-26.367,-24.902,-28.809,0.000
1673805674.303,-51.270,-39.551,-31.738,-22.949,0.000
1673805674.307,-47.363,-33.691,-26.367,-29.785,0.000
1673805674.311,-44.922,-34.180,-12.695,-25.879,0.000
1673805674.315,-61.035,-38.086,-14.160,-26.367,0.000
1673805674.319,-57.617,-31.250,-19.531,-32.227,0.000
1673805674.323,-49.316,-29.785,-30.273,-24.414,0.000
1673805674.326,-47.363,-30.762,-28.809,-20.996,0.000
1673805674.330,-50.781,-26.367,-23.438,-25.391,0.000
1673805674.334,-49.805,-23.438,-32.227,-31.250,0.000
1673805674.338,-41.504,-23.438,-34.668,-28.320,0.000
1673805674.342,-41.504,-34.180,-24.902,-26.855,0.000
1673805674.346,-54.688,-33.203,-20.020,-29.785,0.000
1673805674.350,-65.430,-22.949,-25.391,-31.250,0.000
1673805674.354,-73.242,-20.996,-26.855,-25.879,0.000
1673805674.358,-71.289,-22.949,-26.855,-25.391,0.000
1673805674.362,-59.082,-35.156,-27.832,-25.879,0.000
1673805674.366,-61.523,-35.156,-30.762,-22.949,0.000
1673805674.369,-64.941,-26.855,-29.785,-25.391,0.000
1673805674.373,-53.711,-25.391,-30.762,-31.250,0.000
1673805674.377,-50.293,-31.250,-26.367,-29.297,0.000
1673805674.381,-43.457,-33.691,-27.344,-20.508,0.000
1673805674.385,-37.598,-19.531,-38.086,-20.508,0.000
1673805674.389,-35.156,-12.207,-36.133,-23.926,0.000
1673805674.393,-40.527,-27.344,-21.973,-18.066,0.000
1673805674.397,-45.898,-23.438,-13.672,-21.973,0.000
1673805674.401,-41.504,-21.484,-21.484,-23.926,0.000
1673805674.405,-35.645,-27.344,-25.879,-21.484,0.000
1673805674.408,-26.367,-27.344,-23.926,-22.461,0.000
1673805674.412,-29.785,-27.832,-30.762,-25.879,0.000
1673805674.416,-39.551,-51.758,-40.039,-20.020,0.000
1673805674.420,-32.227,-48.340,-34.668,-12.695,0.000
1673805674.424,-34.180,-14.160,-30.762,-12.695,0.000
1673805674.428,-54.199,-28.320,-33.203,-13.184,0.000
1673805674.432,-53.223,-35.645,-32.715,-20.020,0.000
1673805674.436,-41.016,-22.461,-31.250,-36.133,0.000
1673805674.440,-43.945,-25.879,-29.297,-39.551,0.000
1673805674.444,-66.895,-30.762,-29.297,-20.508,0.000
1673805674.448,-72.266,-33.203,-38.574,-20.508,0.000
1673805674.451,-49.316,-39.551,-40.039,-28.809,0.000
1673805674.455,-39.062,-32.227,-31.250,-27.344,0.000
1673805674.459,-46.387,-21.484,-35.156,-28.320,0.000
1673805674.463,-59.570,-26.855,-49.316,-23.438,0.000
1673805674.467,-60.547,-26.855,-34.668,-14.160,0.000
1673805674.471,-57.129,-25.391,-20.508,-11.719,0.000
1673805674.475,-54.199,-22.949,-20.996,-21.484,0.000
1673805674.479,-50.781,-27.832,-23.926,-22.461,0.000
1673805674.483,-53.223,-33.203,-33.203,-26.367,0.000
1673805674.487,-47.363,-22.461,-34.668,-38.574,0.000
1673805674.491,-48.828,-25.391,-27.344,-31.738,0.000
1673805674.494,-57.129,-27.344,-22.949,-30.762,0.000
1673805674.498,-41.504,-20.996,-25.879,-34.180,0.000
1673805674.502,-27.832,-31.250,-36.133,-22.949,0.000
1673805674.506,-32.227,-37.109,-30.762,-18.555,0.000
1673805674.510,-29.785,-32.227,-17.090,-18.066,0.000
1673805674.514,-21.973,-32.715,-17.578,-17.090,0.000
1673805674.518,-29.297,-24.414,-20.996,-11.719,0.000
1673805674.522,-36.133,-15.137,-16.602,-11.230,0.000
1673805674.526,-41.016,-21.973,-20.508,-19.043,0.000
1673805674.530,-34.180,-29.297,-30.273,-11.719,0.000
1673805674.533,-18.066,-31.250,-24.414,0.000,0.000
1673805674.537,-25.879,-21.973,-23.438,-7.324,0.000
1673805674.541,-30.762,-8.301,-16.113,-8.301,0.000
1673805674.545,-27.832,-13.672,-7.812,-4.883,0.000
1673805674.549,-25.879,-26.855,-15.625,-6.348,0.000
1673805674.553,-23.926,-19.531,-15.137,1.953,0.000
1673805674.557,-24.414,-13.672,-14.648,6.836,0.000
1673805674.561,-32.715,-20.996,-15.625,5.859,0.000
1673805674.565,-39.062,-17.578,-10.742,7.812,0.000
1673805674.569,-38.086,-23.926,-6.836,7.324,0.000
1673805674.573,-40.527,-36.133,-14.648,-6.348,0.000
1673805674.576,-38.574,-32.715,-20.020,1.953,0.000
1673805674.580,-39.551,-25.879,-10.742,5.371,0.000
1673805674.584,-45.410,-19.531,-17.578,-9.277,0.000
1673805674.588,-47.363,-21.484,-18.066,-17.090,0.000
1673805674.592,-43.945,-29.297,-10.742,-19.531,0.000
1673805674.596,-45.410,-26.855,-21.484,-18.066,0.000
1673805674.600,-40.039,-17.090,-23.438,-19.531,0.000
1673805674.604,-35.156,-11.719,-16.113,-22.949,0.000
1673805674.608,-27.832,-17.090,-17.090,-19.531,0.000
1673805674.612,-21.484,-19.043,-23.438,-15.137,0.000
1673805674.616,-33.691,-22.461,-25.879,-15.625,0.000
1673805674.619,-40.039,-20.508,-19.043,-13.672,0.000
1673805674.623,-32.227,-12.207,-18.555,0.488,0.000
1673805674.627,-31.250,-22.949,-26.367,-5.859,0.000
1673805674.631,-42.480,-27.832,-27.344,-15.137,0.000
1673805674.635,-56.641,-13.184,-18.555,-2.441,0.000
1673805674.639,-62.500,-12.695,-21.973,-6.836,0.000
1673805674.643,-59.570,-32.715,-29.297,-22.461,0.000
1673805674.647,-54.688,-23.438,-27.832,-14.160,0.000
1673805674.651,-55.176,-9.766,-35.645,-15.137,0.000
1673805674.655,-57.129,-10.254,-46.387,-30.273,0.000
1673805674.658,-52.246,5.371,-35.156,-19.043,0.000
1673805674.662,-49.805,3.906,-22.461,-17.578,0.000
1673805674.666,-48.340,-4.395,-23.926,-30.762,0.000
1673805674.670,-38.574,-1.465,-30.273,-18.066,0.000
1673805674.674,-41.504,-5.371,-30.762,-10.254,0.000
1673805674.678,-41.016,-13.672,-32.227,-20.996,0.000
1673805674.682,-30.762,-8.789,-37.598,-22.461,0.000
1673805674.686,-25.879,5.371,-35.645,-25.391,0.000
1673805674.690,-26.855,-3.418,-33.203,-40.527,0.000
1673805674.694,-29.297,-17.090,-28.809,-51.270,0.000
1673805674.698,-13.184,-13.184,-26.855,-52.246,0.000
1673805674.701,-5.371,-15.625,-25.879,-56.152,0.000
1673805674.705,-16.602,-19.043,-24.414,-49.805,0.000
1673805674.709,-12.695,-6.348,-23.926,-26.855,0.000
1673805674.713,-6.348,-19.043,-26.367,-18.066,0.000
1673805674.717,-14.648,-29.785,-37.109,-32.715,0.000
1673805674.721,-31.738,-13.184,-45.898,-26.855,0.000
1673805674.725,-41.992,-6.836,-37.109,-16.602,0.000
1673805674.729,-44.922,-20.508,-28.809,-19.531,0.000
1673805674.733,-36.133,-32.715,-31.250,-11.719,0.000
1673805674.737,-23.438,-14.160,-27.832,-15.625,0.000
1673805674.741,-27.344,-3.906,-31.250,-27.344,0.000
1673805674.744,-39.551,-11.230,-37.598,-13.672,0.000
1673805674.748,-46.875,-23.438,-31.738,-6.348,0.000
1673805674.752,-47.363,-32.715,-33.203,-22.949,0.000
1673805674.756,-44.434,-28.320,-31.250,-26.855,0.000
1673805674.760,-43.457,-14.160,-27.832,-21.973,0.000
1673805674.764,-32.227,-11.230,-30.273,-29.785,0.000
1673805674.768,-25.879,-23.926,-34.668,-27.344,0.000
1673805674.772,-26.367,-19.043,-41.992,-20.020,0.000
1673805674.776,-38.086,-22.949,-32.715,-20.020,0.000
1673805674.780,-42.969,-40.527,-26.855,-20.996,0.000
1673805674.783,-23.926,-23.926,-19.531,-28.809,0.000
1673805674.787,-27.832,-13.672,-18.555,-41.992,0.000
1673805674.791,-44.434,-25.879,-32.715,-53.223,0.000
1673805674.795,-35.645,-22.949,-27.344,-41.504,0.000
1673805674.799,-36.621,-12.207,-20.508,-27.344,0.000
1673805674.803,-44.434,-12.695,-26.855,-41.504,0.000
1673805674.807,-28.320,-16.602,-29.297,-44.922,0.000
1673805674.811,-39.062,-24.414,-38.574,-36.621,0.000
1673805674.815,-43.945,-29.785,-35.156,-24.414,0.000
1673805674.819,-38.086,-29.297,-27.344,-17.090,0.000
1673805674.823,-30.762,-25.879,-28.809,-21.973,0.000
1673805674.826,-33.691,-27.344,-27.832,-18.066,0.000
1673805674.830,-34.180,-24.414,-21.484,-11.230,0.000
1673805674.834,-32.227,-29.785,-19.043,-3.418,0.000
1673805674.838,-36.133,-48.340,-24.902,-10.254,0.000
1673805674.842,-49.805,-34.668,-22.949,-20.020,0.000
1673805674.846,-50.781,-10.254,-28.320,-13.184,0.000
1673805674.850,-47.852,-13.672,-31.250,-10.742,0.000
1673805674.854,-51.270,-12.695,-33.691,-13.184,0.000
1673805674.858,-38.574,-8.301,-43.457,-11.230,0.000
1673805674.862,-29.785,-16.602,-21.973,0.000,0.000
1673805674.866,-32.715,-16.602,-15.137,9.277,0.000
1673805674.869,-41.992,-23.926,-29.297,0.488,0.000
1673805674.873,-35.645,-28.320,-21.484,-17.090,0.000
1673805674.877,-32.227,-25.391,-27.344,-25.879,0.000
1673805674.881,-41.992,-30.273,-33.203,-28.809,0.000
1673805674.885,-38.086,-19.043,-20.508,-37.598,0.000
1673805674.889,-28.320,-5.371,-20.020,-33.203,0.000
1673805674.893,-36.621,-10.254,-23.438,-26.855,0.000
1673805674.897,-34.668,-19.531,-18.066,-24.902,0.000
1673805674.901,-27.832,-26.855,-22.461,-24.414,0.000
1673805674.905,-22.949,-25.391,-28.320,-33.203,0.000
1673805674.908,-12.695,-10.742,-19.043,-20.996,0.000
1673805674.912,-19.043,-13.184,-16.113,-11.230,0.000
1673805674.916,-31.250,-32.715,-26.367,-14.648,0.000
1673805674.920,-51.758,-44.434,-34.180,-26.855,0.000
1673805674.924,-72.754,-30.762,-39.062,-27.832,0.000
1673805674.928,-59.570,-23.438,-38.574,-13.184,0.000
1673805674.932,-52.246,-22.949,-29.297,-11.719,0.000
1673805674.936,-61.035,-24.414,-31.250,-3.418,0.000
1673805674.940,-57.129,-28.809,-38.574,5.859,0.000
1673805674.944,-51.758,-23.926,-33.691,-9.277,0.000
1673805674.948,-51.758,-30.273,-21.484,-17.090,0.000
1673805674.951,-51.758,-30.762,-17.090,-11.230,0.000
1673805674.955,-50.293,-24.902,-19.531,0.488,0.000
1673805674.959,-58.105,-44.434,-27.832,-7.812,0.000
1673805674.963,-54.688,-55.664,-31.250,-12.695,0.000
1673805674.967,-51.270,-26.367,-33.203,-5.371,0.000
1673805674.971,-56.641,-16.113,-27.832,-9.766,0.000
1673805674.975,-49.805,-20.020,-20.020,-9.277,0.000
1673805674.979,-45.898,-20.020,-24.414,-7.324,0.000
1673805674.983,-42.480,-18.555,-23.438,-1.953,0.000
1673805674.987,-47.852,-23.438,-22.461,0.977,0.000
1673805674.991,-44.922,-37.109,-27.344,-10.742,0.000
1673805674.994,-41.992,-39.062,-25.879,-19.531,0.000
1673805674.998,-54.688,-31.250,-20.996,-15.625,0.000
1673805675.002,-54.199,-37.598,-32.227,-19.531,0.000
1673805675.006,-41.504,-21.484,-28.320,-18.555,0.000
1673805675.010,-43.945,-10.742,-19.043,-7.812,0.000
1673805675.014,-45.410,-25.879,-26.855,-13.672,0.000
1673805675.018,-51.758,-36.621,-26.367,-19.531,0.000
1673805675.022,-61.523,-33.691,-27.832,-8.301,0.000
1673805675.026,-57.129,-27.344,-29.297,-18.066,0.000
1673805675.030,-47.363,-29.785,-23.926,-25.391,0.000
1673805675.033,-45.410,-34.668,-32.227,-28.320,0.000
1673805675.037,-35.645,-32.227,-37.598,-24.902,0.000
1673805675.041,-28.809,-26.855,-22.949,-19.043,0.000
1673805675.045,-53.711,-23.438,-20.508,-19.531,0.000
1673805675.049,-72.754,-25.879,-28.809,-19.531,0.000
1673805675.053,-57.617,-25.391,-26.855,-14.160,0.000
1673805675.057,-49.316,-25.879,-29.785,-17.090,0.000
1673805675.061,-48.828,-20.020,-44.922,-16.602,0.000
1673805675.065,-29.785,-30.762,-31.738,0.488,0.000
1673805675.069,-30.273,-39.062,-7.812,-6.836,0.000
1673805675.073,-53.711,-31.250,-15.625,-29.785,0.000
1673805675.076,-60.547,-33.691,-23.926,-27.344,0.000
1673805675.080,-65.918,-45.410,-26.855,-26.855,0.000
1673805675.084,-55.176,-53.711,-29.297,-24.414,0.000
1673805675.088,-50.781,-47.363,-18.066,-20.020,0.000
1673805675.092,-59.082,-44.922,-7.324,-34.180,0.000
1673805675.096,-53.223,-46.387,-6.348,-28.809,0.000
1673805675.100,-55.176,-49.316,-7.812,-20.020,0.000
1673805675.104,-65.430,-56.152,-15.137,-25.879,0.000
1673805675.108,-66.895,-70.312,-22.949,-26.367,0.000
1673805675.112,-54.688,-56.152,-19.531,-21.484,0.000
1673805675.115,-50.781,-17.578,-9.766,-10.742,0.000
1673805675.119,-66.895,-17.578,-18.066,-6.836,0.000
1673805675.123,-59.570,-29.297,-31.250,2.441,0.000
1673805675.127,-49.316,-44.434,-33.203,10.254,0.000
1673805675.131,-65.430,-56.152,-16.602,3.418,0.000
1673805675.135,-74.219,-46.875,-5.859,-2.441,0.000
1673805675.139,-68.848,-35.156,-13.672,-6.836,0.000
1673805675.143,-58.594,-33.203,-18.066,-6.348,0.000
1673805675.147,-47.852,-35.156,-13.672,-2.930,0.000
1673805675.151,-47.363,-30.273,-10.742,0.000,0.000
1673805675.155,-44.434,-32.227,-13.184,-5.859,0.000
1673805675.158,-24.902,-36.133,-6.836,1.953,0.000
1673805675.162,-24.902,-20.020,-9.277,14.648,0.000
1673805675.166,-43.457,-24.902,-25.391,-2.930,0.000
1673805675.170,-38.574,-38.086,-34.668,-13.672,0.000
1673805675.174,-33.203,-33.203,-41.016,-16.113,0.000
1673805675.178,-36.621,-24.902,-34.668,-11.719,0.000
1673805675.182,-28.320,-33.203,-27.832,-10.254,0.000
1673805675.186,-21.973,-28.320,-23.438,-18.555,0.000
1673805675.190,-8.301,-16.602,-24.902,-19.531,0.000
1673805675.194,-11.230,-31.250,-23.926,-16.602,0.000
1673805675.198,-40.527,-31.738,-21.973,-16.113,0.000
1673805675.201,-41.504,-24.902,-27.344,-18.066,0.000
1673805675.205,-33.691,-22.949,-30.273,-20.020,0.000
1673805675.209,-40.527,-20.996,-32.715,-9.277,0.000
1673805675.213,-35.645,-20.020,-40.039,-3.418,0.000
1673805675.217,-44.434,-31.250,-38.574,-13.184,0.000
1673805675.221,-45.898,-39.062,-22.949,-17.578,0.000
1673805675.225,-35.645,-24.902,-19.531,-11.719,0.000
1673805675.229,-51.270,-26.855,-25.391,-5.859,0.000
1673805675.233,-54.688,-33.203,-24.414,-4.883,0.000
1673805675.237,-47.363,-33.203,-27.832,-11.230,0.000
1673805675.240,-50.293,-23.926,-22.949,-24.902,0.000
1673805675.244,-46.387,-12.695,-21.973,-29.297,0.000
1673805675.248,-46.875,-22.949,-31.738,-35.156,0.000
1673805675.252,-46.875,-36.133,-29.297,-30.273,0.000
1673805675.256,-48.340,-38.086,-26.855,-33.691,0.000
1673805675.260,-47.363,-47.852,-36.621,-40.039,0.000
1673805675.264,-52.734,-55.176,-41.016,-43.945,0.000
1673805675.268,-47.852,-23.926,-28.320,-47.363,0.000
1673805675.272,-38.574,-3.906,-24.414,-40.527,0.000
1673805675.276,-35.645,-15.625,-32.715,-31.250,0.000
1673805675.280,-23.438,-20.020,-39.551,-24.902,0.000
1673805675.283,-30.273,-13.672,-35.645,-14.648,0.000
1673805675.287,-49.805,-9.766,-19.531,-17.578,0.000
1673805675.291,-55.176,-22.461,-12.207,-17.090,0.000
1673805675.295,-62.500,-34.180,-12.695,-3.418,0.000
1673805675.299,-69.824,-32.227,-21.973,-8.789,0.000
1673805675.303,-69.824,-33.691,-30.273,-27.344,0.000
1673805675.307,-68.359,-37.598,-22.461,-13.672,0.000
1673805675.311,-67.383,-32.227,-16.113,5.859,0.000
1673805675.315,-58.594,-21.973,-18.066,3.906,0.000
1673805675.319,-48.828,-18.555,-24.414,8.301,0.000
1673805675.323,-37.109,-17.578,-21.484,9.277,0.000
1673805675.326,-41.504,-18.555,-10.254,2.441,0.000
1673805675.330,-55.664,-29.785,-15.137,7.812,0.000
1673805675.334,-56.152,-31.250,-20.996,10.742,0.000
1673805675.338,-44.922,-16.602,-21.484,9.766,0.000
1673805675.342,-38.574,-7.324,-30.762,0.488,0.000
1673805675.346,-35.156,-4.395,-35.156,-15.137,0.000
1673805675.350,-32.227,0.000,-40.527,-26.855,0.000
1673805675.354,-41.504,-7.812,-43.457,-27.344,0.000
1673805675.358,-34.668,-20.508,-34.180,-13.184,0.000
1673805675.362,-22.461,-20.508,-21.484,6.348,0.000
1673805675.365,-6.836,-15.625,-13.184,4.395,0.000
1673805675.369,-1.953,-22.461,-17.090,-12.695,0.000
1673805675.373,-20.508,-18.555,-20.996,-7.324,0.000
1673805675.377,-28.809,-11.719,-21.973,0.977,0.000
1673805675.381,-23.926,-13.184,-29.297,-4.883,0.000
1673805675.385,-24.902,-1.465,-31.250,-7.812,0.000
1673805675.389,-23.438,2.930,-28.809,-7.324,0.000
1673805675.393,-30.273,-9.277,-36.621,-20.020,0.000
1673805675.397,-41.016,-16.113,-31.250,-21.973,0.000
1673805675.401,-37.109,-16.113,-29.785,-16.602,0.000
1673805675.405,-36.133,-14.160,-32.715,-17.090,0.000
1673805675.408,-36.133,-17.578,-26.367,-20.020,0.000
1673805675.412,-32.715,-23.438,-30.273,-18.555,0.000
1673805675.416,-35.156,-23.926,-36.133,-9.766,0.000
1673805675.420,-43.945,-25.391,-33.691,-16.113,0.000
1673805675.424,-50.781,-20.508,-33.691,-19.531,0.000
1673805675.428,-60.547,-25.391,-34.180,-25.391,0.000
1673805675.432,-56.641,-38.574,-34.180,-29.297,0.000
1673805675.436,-46.875,-31.250,-30.762,-22.949,0.000
1673805675.440,-43.945,-30.273,-30.273,-27.832,0.000
1673805675.444,-41.016,-36.621,-32.227,-35.645,0.000
1673805675.448,-27.344,-37.598,-29.785,-30.273,0.000
1673805675.451,-20.508,-38.086,-28.320,-24.902,0.000
1673805675.455,-47.363,-38.086,-26.367,-27.832,0.000
1673805675.459,-50.781,-36.621,-21.484,-18.555,0.000
1673805675.463,-38.086,-23.926,-15.625,3.906,0.000
1673805675.467,-44.434,-19.043,-25.879,10.742,0.000
1673805675.471,-45.898,-20.996,-38.086,-2.441,0.000
1673805675.475,-47.852,-20.508,-25.391,-8.301,0.000
1673805675.479,-46.387,-20.020,-13.672,2.441,0.000
1673805675.483,-37.109,-23.438,-10.742,-5.859,0.000
1673805675.487,-28.320,-30.762,-18.555,-12.207,0.000
1673805675.490,-55.176,-25.879,-38.086,-13.184,0.000
1673805675.494,-71.289,-24.902,-29.297,-16.602,0.000
1673805675.498,-62.988,-25.391,-11.719,-12.695,0.000
1673805675.502,-57.129,-20.020,-15.625,-21.484,0.000
1673805675.506,-53.223,-19.531,-30.273,-30.762,0.000
1673805675.510,-47.363,-20.020,-35.645,-25.879,0.000
1673805675.514,-42.480,-33.691,-33.203,-20.020,0.000
1673805675.518,-31.738,-28.320,-32.715,-21.973,0.000
1673805675.522,-23.926,-13.184,-33.203,-17.090,0.000
1673805675.526,-39.062,-22.949,-36.621,-5.371,0.000
1673805675.530,-52.246,-20.996,-34.180,-9.277,0.000
1673805675.533,-51.758,-18.066,-21.973,-12.207,0.000
1673805675.537,-47.852,-29.297,-13.184,-14.160,0.000
1673805675.541,-36.133,-25.391,-23.438,-14.160,0.000
1673805675.545,-33.203,-13.184,-28.809,-13.672,0.000
1673805675.549,-32.227,-13.184,-20.020,-7.324,0.000
1673805675.553,-25.879,-20.996,-22.949,-14.160,0.000
1673805675.557,-30.273,-27.344,-26.367,-26.367,0.000
1673805675.561,-36.621,-24.902,-30.273,-23.926,0.000
1673805675.565,-41.504,-22.949,-37.598,-20.508,0.000
1673805675.569,-29.785,-20.020,-27.832,-21.973,0.000
1673805675.573,-27.344,-13.184,-27.344,-26.855,0.000
1673805675.576,-39.062,-11.230,-25.879,-22.949,0.000
1673805675.580,-27.832,-19.043,-25.879,-18.066,0.000
1673805675.584,-19.531,-21.484,-34.668,-20.020,0.000
1673805675.588,-18.555,-16.602,-30.273,-24.414,0.000
1673805675.592,-20.996,-15.137,-21.484,-16.113,0.000
1673805675.596,-43.457,-23.438,-25.879,-14.160,0.000
1673805675.600,-42.480,-28.809,-28.320,-16.602,0.000
1673805675.604,-48.340,-27.344,-21.973,-18.066,0.000
1673805675.608,-68.848,-29.785,-27.832,-10.742,0.000
1673805675.612,-67.383,-29.785,-31.250,5.371,0.000
1673805675.615,-56.152,-22.461,-25.879,6.836,0.000
1673805675.619,-47.852,-29.785,-38.086,-2.930,0.000
1673805675.623,-45.410,-34.180,-36.621,-2.441,0.000
1673805675.627,-40.527,-14.160,-14.648,5.371,0.000
1673805675.631,-41.504,-13.672,-12.207,1.953,0.000
1673805675.635,-47.363,-26.855,-25.391,-2.930,0.000
1673805675.639,-35.645,-19.531,-26.855,-3.418,0.000
1673805675.643,-20.508,-11.719,-19.531,-2.930,0.000
1673805675.647,-26.367,-20.508,-19.531,-12.695,0.000
1673805675.651,-37.598,-18.066,-23.926,-24.902,0.000
1673805675.655,-40.039,-25.391,-16.113,-27.344,0.000
1673805675.658,-39.062,-32.227,-10.742,-21.973,0.000
1673805675.662,-40.039,-20.996,-19.043,-29.785,0.000
1673805675.666,-37.109,-12.695,-27.344,-36.133,0.000
1673805675.670,-33.203,-18.555,-32.227,-36.133,0.000
1673805675.674,-43.945,-40.039,-36.133,-24.414,0.000
1673805675.678,-49.805,-37.109,-33.691,-20.020,0.000
1673805675.682,-24.902,-26.367,-37.598,-22.461,0.000
1673805675.686,-16.113,-24.902,-32.715,-17.090,0.000
1673805675.690,-30.762,-23.926,-16.602,-14.160,0.000
1673805675.694,-32.715,-28.320,-14.160,-5.859,0.000
1673805675.698,-33.203,-36.621,-12.207,-1.465,0.000
1673805675.701,-43.457,-39.551,-14.648,-0.977,0.000
1673805675.705,-45.410,-41.016,-27.344,8.789,0.000
1673805675.709,-51.270,-39.551,-23.438,-0.488,0.000
1673805675.713,-54.199,-29.785,-10.254,-8.789,0.000
1673805675.717,-42.480,-23.926,-7.324,-7.812,0.000
1673805675.721,-35.645,-27.344,-16.602,-20.020,0.000
1673805675.725,-37.598,-26.367,-22.949,-17.090,0.000
1673805675.729,-43.457,-27.344,-19.531,-14.648,0.000
1673805675.733,-47.852,-28.320,-16.602,-20.020,0.000
1673805675.737,-35.156,-25.391,-17.090,-17.578,0.000
1673805675.740,-30.762,-22.461,-18.066,-12.695,0.000
1673805675.744,-34.180,-22.949,-25.391,-20.020,0.000
1673805675.748,-31.250,-20.020,-23.438,-36.133,0.000
1673805675.752,-34.180,-27.832,-16.602,-43.457,0.000
1673805675.756,-35.645,-30.762,-28.320,-45.410,0.000
1673805675.760,-37.109,-22.949,-39.062,-41.992,0.000
1673805675.764,-42.480,-27.344,-29.297,-32.715,0.000
1673805675.768,-48.340,-41.504,-35.156,-27.832,0.000
1673805675.772,-49.316,-37.109,-32.227,-26.367,0.000
1673805675.776,-41.992,-24.414,-21.973,-17.578,0.000
1673805675.780,-42.480,-20.020,-24.902,-19.043,0.000
1673805675.783,-47.852,-29.297,-27.832,-32.715,0.000
1673805675.787,-47.363,-45.898,-22.461,-32.715,0.000
1673805675.791,-50.781,-45.898,-25.391,-29.297,0.000
1673805675.795,-49.316,-20.508,-31.738,-16.602,0.000
1673805675.799,-43.945,-16.602,-26.855,-10.742,0.000
1673805675.803,-45.898,-24.414,-26.367,-22.949,0.000
1673805675.807,-40.527,-29.297,-29.785,-29.297,0.000
1673805675.811,-49.805,-41.992,-27.344,-22.949,0.000
1673805675.815,-69.824,-41.016,-21.973,-10.742,0.000
1673805675.819,-62.500,-32.715,-19.043,-15.137,0.000
1673805675.823,-51.758,-34.668,-20.020,-14.160,0.000
1673805675.826,-53.223,-30.273,-29.297,-11.230,0.000
1673805675.830,-41.992,-25.879,-33.691,-27.344,0.000
1673805675.834,-35.156,-24.414,-32.227,-30.273,0.000
1673805675.838,-30.762,-23.438,-29.297,-19.043,0.000
1673805675.842,-22.461,-31.250,-23.438,-11.230,0.000
1673805675.846,-29.785,-35.645,-24.414,-9.766,0.000
1673805675.850,-51.270,-25.879,-25.391,-19.043,0.000
1673805675.854,-54.688,-25.391,-28.809,-27.832,0.000
1673805675.858,-53.711,-27.344,-33.203,-28.809,0.000
1673805675.862,-54.688,-30.762,-33.691,-22.461,0.000
1673805675.865,-49.805,-39.062,-37.598,-16.113,0.000
1673805675.869,-38.086,-37.109,-28.320,-11.719,0.000
1673805675.873,-31.738,-19.531,-23.438,-13.672,0.000
1673805675.877,-40.039,-21.484,-35.645,-20.508,0.000
1673805675.881,-36.133,-32.227,-27.344,-17.090,0.000
1673805675.885,-29.297,-26.855,-20.996,-17.090,0.000
1673805675.889,-34.668,-19.043,-30.273,-23.438,0.000
1673805675.893,-41.016,-19.043,-30.762,-27.344,0.000
1673805675.897,-38.574,-19.043,-28.809,-16.602,0.000
1673805675.901,-38.086,-18.555,-29.297,-11.230,0.000
1673805675.905,-42.969,-27.344,-32.227,-21.973,0.000
1673805675.908,-41.016,-30.273,-40.527,-29.297,0.000
1673805675.912,-39.551,-20.020,-41.504,-28.320,0.000
1673805675.916,-40.527,-14.160,-43.457,-38.086,0.000
1673805675.920,-35.645,-23.926,-44.922,-51.270,0.000
1673805675.924,-28.809,-21.484,-41.016,-43.945,0.000
1673805675.928,-28.809,-20.508,-29.297,-28.809,0.000
1673805675.932,-31.738,-44.922,-23.926,-26.855,0.000
1673805675.936,-37.109,-38.574,-25.879,-27.832,0.000
1673805675.940,-44.922,-13.672,-24.902,-17.090,0.000
1673805675.944,-43.945,-19.043,-15.137,-8.301,0.000
1673805675.948,-42.969,-28.809,-32.227,-12.207,0.000
1673805675.951,-44.434,-24.902,-40.039,-14.648,0.000
1673805675.955,-36.621,-25.879,-17.578,-21.484,0.000
1673805675.959,-32.227,-38.086,-18.066,-21.973,0.000
1673805675.963,-43.945,-24.902,-23.438,-20.996,0.000
1673805675.967,-54.688,-21.973,-22.461,-25.879,0.000
1673805675.971,-53.223,-36.133,-21.484,-22.949,0.000
1673805675.975,-41.016,-27.344,-23.438,-24.902,0.000
1673805675.979,-41.016,-21.973,-28.809,-20.996,0.000
1673805675.983,-48.828,-34.668,-33.691,-9.277,0.000
1673805675.987,-55.664,-31.250,-34.180,-12.207,0.000
1673805675.990,-62.500,-29.785,-35.156,-22.949,0.000
1673805675.994,-55.664,-35.645,-39.062,-17.578,0.000
1673805675.998,-39.062,-28.809,-38.086,-8.789,0.000
1673805676.002,-38.574,-27.344,-33.203,-20.508,0.000
1673805676.006,-31.250,-21.973,-31.738,-26.855,0.000
1673805676.010,-27.832,-22.461,-39.062,-30.762,0.000
1673805676.014,-32.715,-30.273,-52.246,-31.738,0.000
1673805676.018,-41.504,-33.691,-56.152,-23.926,0.000
1673805676.022,-48.340,-24.902,-48.828,-20.020,0.000
1673805676.026,-49.805,-16.113,-33.691,-19.043,0.000
1673805676.030,-46.387,-25.879,-21.973,-21.484,0.000
1673805676.033,-32.227,-21.973,-22.461,-22.949,0.000
1673805676.037,-34.180,-19.043,-30.273,-34.668,0.000
1673805676.041,-35.156,-26.367,-31.738,-32.715,0.000
1673805676.045,-19.531,-22.461,-29.297,-14.648,0.000
1673805676.049,-18.555,-16.602,-25.879,-13.672,0.000
1673805676.053,-14.160,-16.602,-27.832,-19.531,0.000
1673805676.057,-10.742,-23.926,-28.809,-12.207,0.000
1673805676.061,-22.949,-27.832,-24.902,0.000,0.000
1673805676.065,-25.879,-21.484,-20.996,5.859,0.000
1673805676.069,-22.949,-10.742,-19.043,6.348,0.000
1673805676.072,-20.996,-10.742,-20.020,-11.230,0.000
1673805676.076,-17.090,-15.625,-24.902,-25.879,0.000
1673805676.080,-20.508,-24.414,-24.902,-13.672,0.000
1673805676.084,-36.621,-41.016,-23.438,-12.695,0.000
1673805676.088,-40.039,-31.738,-26.367,-35.645,0.000
1673805676.092,-42.480,-20.508,-19.531,-32.715,0.000
1673805676.096,-41.016,-32.227,-26.367,-17.578,0.000
1673805676.100,-42.480,-30.273,-40.527,-24.902,0.000
1673805676.104,-43.945,-23.926,-29.297,-22.461,0.000
1673805676.108,-52.734,-21.973,-22.949,-11.230,0.000
1673805676.112,-49.805,-20.508,-24.414,-27.832,0.000
1673805676.115,-44.434,-21.484,-20.996,-40.527,0.000
1673805676.119,-44.434,-19.531,-18.555,-36.133,0.000
1673805676.123,-33.203,-23.926,-26.367,-17.578,0.000
1673805676.127,-31.738,-26.367,-32.227,-10.254,0.000
1673805676.131,-35.156,-25.391,-32.227,-17.578,0.000
1673805676.135,-38.574,-22.949,-30.273,-13.184,0.000
1673805676.139,-46.875,-23.438,-33.691,-21.973,0.000
1673805676.143,-47.363,-22.461,-34.180,-21.484,0.000
1673805676.147,-44.434,-21.973,-32.227,-17.578,0.000
1673805676.151,-43.457,-24.414,-31.738,-18.066,0.000
1673805676.155,-32.227,-29.297,-25.391,-17.090,0.000
1673805676.158,-24.414,-37.109,-27.344,-22.949,0.000
1673805676.162,-27.344,-32.227,-33.691,-19.531,0.000
1673805676.166,-33.203,-27.344,-31.250,-15.137,0.000
1673805676.170,-25.879,-25.391,-28.320,-10.742,0.000
1673805676.174,-17.090,-20.508,-25.391,-7.324,0.000
1673805676.178,-21.973,-19.043,-27.344,-6.348,0.000
1673805676.182,-37.598,-22.949,-35.645,-11.230,0.000
1673805676.186,-40.039,-28.320,-35.156,-12.695,0.000
1673805676.190,-31.738,-23.926,-26.367,-11.719,0.000
1673805676.194,-38.086,-21.484,-19.043,-9.766,0.000
1673805676.197,-36.133,-30.273,-20.020,-6.836,0.000
1673805676.201,-26.855,-26.855,-25.879,-4.883,0.000
1673805676.205,-24.414,-24.902,-30.762,-17.578,0.000
1673805676.209,-21.973,-24.414,-30.273,-27.344,0.000
1673805676.213,-21.973,-16.113,-29.785,-11.230,0.000
1673805676.217,-25.391,-19.043,-18.066,-4.883,0.000
1673805676.221,-22.949,-25.391,-19.043,-18.066,0.000
1673805676.225,-20.020,-19.531,-35.156,-16.113,0.000
1673805676.229,-15.137,-17.578,-33.691,-19.043,0.000
1673805676.233,-14.160,-13.184,-20.508,-25.879,0.000
1673805676.237,-16.113,-14.160,-14.648,-26.367,0.000
1673805676.240,-23.438,-14.160,-13.672,-27.344,0.000
1673805676.244,-39.551,-12.207,-11.719,-22.461,0.000
1673805676.248,-43.945,-11.719,-18.066,-20.020,0.000
1673805676.252,-48.828,-4.395,-18.555,-18.555,0.000
1673805676.256,-45.410,-15.625,-11.230,-8.301,0.000
1673805676.260,-38.086,-22.949,-4.883,-3.418,0.000
1673805676.264,-38.086,-11.719,-5.859,-9.277,0.000
1673805676.268,-26.855,-12.695,-17.578,-12.695,0.000
1673805676.272,-14.160,-20.020,-25.879,-12.207,0.000
1673805676.276,-13.184,-14.648,-20.020,-8.301,0.000
1673805676.280,-26.855,-15.625,-16.602,-4.883,0.000
1673805676.283,-26.855,-19.043,-16.113,-17.090,0.000
1673805676.287,-20.508,-16.602,-8.301,-16.602,0.000
1673805676.291,-28.320,-17.578,-12.207,-13.184,0.000
1673805676.295,-38.086,-19.043,-18.066,-12.695,0.000
1673805676.299,-41.992,-16.602,-15.137,-0.488,0.000
1673805676.303,-34.180,-19.043,-9.277,6.348,0.000
1673805676.307,-41.504,-27.344,-12.207,-0.977,0.000
1673805676.311,-42.480,-28.320,-12.695,-10.254,0.000
1673805676.315,-32.715,-24.902,-5.371,-12.207,0.000
1673805676.319,-27.832,-23.926,-7.812,-18.066,0.000
1673805676.322,-21.973,-18.066,-23.438,-24.414,0.000
1673805676.326,-24.902,-13.184,-23.926,-19.043,0.000
1673805676.330,-31.738,-21.973,-10.742,-21.973,0.000
1673805676.334,-26.855,-30.273,-12.207,-23.926,0.000
1673805676.338,-25.879,-32.227,-17.578,-25.879,0.000
1673805676.342,-33.203,-30.273,-25.391,-20.508,0.000
1673805676.346,-31.738,-26.367,-31.250,-9.277,0.000
1673805676.350,-30.762,-21.973,-20.020,-9.766,0.000
1673805676.354,-29.785,-23.438,-13.672,-17.090,0.000
1673805676.358,-29.785,-23.926,-14.160,-28.809,0.000
1673805676.362,-28.320,-19.043,-16.602,-27.344,0.000
1673805676.365,-30.762,-15.137,-22.949,-19.043,0.000
1673805676.369,-30.762,-17.578,-24.902,-22.461,0.000
1673805676.373,-28.320,-23.438,-25.391,-26.367,0.000
1673805676.377,-29.297,-24.414,-32.715,-22.461,0.000
1673805676.381,-32.715,-21.973,-37.109,-21.973,0.000
1673805676.385,-29.297,-20.020,-29.297,-22.949,0.000
1673805676.389,-31.250,-29.297,-22.949,-18.066,0.000
1673805676.393,-41.504,-31.738,-24.414,-17.578,0.000
1673805676.397,-36.621,-25.879,-22.461,-20.508,0.000
1673805676.401,-41.992,-20.020,-19.531,-26.367,0.000
1673805676.405,-44.434,-18.066,-34.180,-28.809,0.000
1673805676.408,-39.551,-20.508,-28.809,-26.367,0.000
1673805676.412,-41.504,-20.020,-11.719,-29.785,0.000
1673805676.416,-42.969,-25.391,-11.719,-33.691,0.000
1673805676.420,-39.062,-29.785,-13.672,-28.809,0.000
1673805676.424,-37.109,-27.832,-24.902,-31.250,0.000
1673805676.428,-32.227,-34.668,-29.297,-30.273,0.000
1673805676.432,-41.504,-34.180,-14.648,-23.438,0.000
1673805676.436,-56.152,-24.414,-15.625,-32.227,0.000
1673805676.440,-53.223,-26.367,-20.996,-39.551,0.000
1673805676.444,-44.922,-32.227,-19.043,-35.156,0.000
1673805676.447,-48.340,-32.715,-19.531,-32.227,0.000
1673805676.451,-51.270,-26.855,-17.578,-35.645,0.000
1673805676.455,-59.082,-24.414,-20.996,-36.133,0.000
1673805676.459,-62.988,-25.391,-27.832,-36.621,0.000
1673805676.463,-42.969,-33.691,-34.668,-26.367,0.000
1673805676.467,-39.062,-36.133,-39.062,-23.926,0.000
1673805676.471,-48.340,-28.809,-32.227,-36.133,0.000
1673805676.475,-44.434,-35.156,-33.691,-42.969,0.000
1673805676.479,-43.457,-35.156,-32.715,-31.738,0.000
1673805676.483,-48.340,-35.645,-30.762,-30.762,0.000
1673805676.487,-48.340,-46.387,-34.180,-40.527,0.000
1673805676.490,-41.504,-35.156,-28.320,-37.109,0.000
1673805676.494,-22.949,-27.832,-29.785,-30.273,0.000
1673805676.498,-28.809,-23.926,-36.133,-24.414,0.000
1673805676.502,-40.039,-18.555,-31.738,-17.578,0.000
1673805676.506,-39.062,-46.875,-30.273,-21.973,0.000
1673805676.510,-51.758,-62.012,-40.527,-26.855,0.000
1673805676.514,-42.480,-43.457,-36.621,-21.973,0.000
1673805676.518,-34.180,-35.645,-20.508,-20.996,0.000
1673805676.522,-35.156,-30.273,-13.672,-16.113,0.000
1673805676.526,-33.203,-28.320,-24.414,-6.836,0.000
1673805676.530,-33.691,-27.832,-28.809,2.441,0.000
1673805676.533,-37.109,-24.902,-17.090,7.812,0.000
1673805676.537,-38.574,-31.250,-13.184,1.953,0.000
1673805676.541,-28.320,-24.902,-20.508,2.441,0.000
1673805676.545,-32.715,-23.438,-27.344,2.441,0.000
1673805676.549,-45.898,-33.203,-22.949,-13.184,0.000
1673805676.553,-37.598,-31.738,-18.555,-20.508,0.000
1673805676.557,-29.785,-34.180,-18.555,-14.648,0.000
1673805676.561,-29.785,-33.203,-23.438,-11.719,0.000
1673805676.565,-34.668,-18.555,-35.645,-11.719,0.000
1673805676.569,-38.574,-24.414,-31.738,-11.230,0.000
1673805676.572,-32.227,-29.297,-17.090,-0.977,0.000
1673805676.576,-32.227,-19.043,-19.043,-5.859,0.000
1673805676.580,-37.109,-18.066,-23.926,-19.043,0.000
1673805676.584,-33.691,-15.137,-24.902,-18.555,0.000
1673805676.588,-26.855,-25.391,-30.273,-20.508,0.000
1673805676.592,-22.461,-29.297,-28.809,-20.508,0.000
1673805676.596,-26.367,-25.391,-23.438,-22.949,0.000
1673805676.600,-22.461,-24.414,-20.996,-26.367,0.000
1673805676.604,-17.090,-18.066,-17.090,-18.555,0.000
1673805676.608,-17.090,-19.043,-21.484,-15.625,0.000
1673805676.612,-28.320,-22.461,-25.391,-18.555,0.000
1673805676.615,-48.340,-37.598,-21.973,-22.949,0.000
1673805676.619,-52.246,-40.039,-24.414,-27.832,0.000
1673805676.623,-40.527,-28.320,-30.762,-28.320,0.000
1673805676.627,-27.832,-25.391,-32.715,-33.203,0.000
1673805676.631,-21.484,-35.156,-41.016,-41.504,0.000
1673805676.635,-28.320,-44.922,-39.551,-35.645,0.000
1673805676.639,-42.480,-30.273,-26.855,-27.832,0.000
1673805676.643,-51.758,-15.625,-30.273,-18.066,0.000
1673805676.647,-56.641,-19.531,-30.273,-5.859,0.000
1673805676.651,-67.871,-20.508,-32.715,-9.766,0.000
1673805676.655,-65.918,-26.367,-41.992,-20.508,0.000
1673805676.658,-49.805,-28.320,-33.691,-16.113,0.000
1673805676.662,-32.227,-24.414,-34.180,-12.695,0.000
1673805676.666,-40.039,-23.438,-40.039,-22.461,0.000
1673805676.670,-32.715,-21.484,-32.227,-26.855,0.000
1673805676.674,-14.160,-25.879,-30.762,-22.461,0.000
1673805676.678,-21.484,-28.809,-35.156,-19.043,0.000
1673805676.682,-30.273,-39.551,-34.668,-22.949,0.000
1673805676.686,-37.109,-44.922,-32.715,-31.738,0.000
1673805676.690,-24.414,-33.203,-31.738,-26.367,0.000
1673805676.694,-9.766,-21.973,-33.691,-20.508,0.000
1673805676.697,-28.809,-34.180,-41.016,-24.414,0.000
1673805676.701,-44.434,-41.016,-30.762,-20.020,0.000
1673805676.705,-33.691,-32.227,-26.855,-7.812,0.000
1673805676.709,-33.203,-33.691,-43.457,-9.766,0.000
1673805676.713,-44.434,-38.574,-42.969,-8.789,0.000
1673805676.717,-33.203,-33.203,-25.391,-7.324,0.000
1673805676.721,-30.762,-28.809,-17.090,-16.113,0.000
1673805676.725,-39.551,-34.668,-22.949,-11.230,0.000
1673805676.729,-34.180,-46.875,-22.461,2.441,0.000
1673805676.733,-34.180,-42.969,-18.066,3.906,0.000
1673805676.737,-41.504,-19.531,-24.902,-5.859,0.000
1673805676.740,-40.527,-24.414,-29.297,-2.930,0.000
1673805676.744,-38.086,-40.527,-32.715,-6.348,0.000
1673805676.748,-27.344,-40.527,-28.320,-23.926,0.000
1673805676.752,-20.020,-37.598,-24.902,-31.738,0.000
1673805676.756,-43.945,-26.855,-22.461,-25.879,0.000
1673805676.760,-56.641,-18.066,-30.273,-20.508,0.000
1673805676.764,-48.340,-27.832,-37.598,-13.184,0.000
1673805676.768,-51.758,-26.367,-27.344,-16.113,0.000
1673805676.772,-49.805,-33.691,-19.531,-27.344,0.000
1673805676.776,-39.551,-53.711,-20.996,-25.391,0.000
1673805676.780,-34.668,-35.156,-23.438,-18.066,0.000
1673805676.783,-44.434,-22.949,-27.344,-27.832,0.000
1673805676.787,-47.363,-32.227,-25.391,-36.133,0.000
1673805676.791,-46.875,-40.039,-21.973,-32.227,0.000
1673805676.795,-51.758,-36.621,-30.273,-32.715,0.000
1673805676.799,-49.805,-29.297,-34.668,-28.320,0.000
1673805676.803,-47.852,-25.879,-30.762,-30.273,0.000
1673805676.807,-49.316,-18.066,-22.949,-37.109,0.000
1673805676.811,-46.387,-17.578,-23.926,-35.645,0.000
1673805676.815,-31.738,-33.691,-32.715,-35.156,0.000
1673805676.819,-13.184,-34.180,-34.180,-34.668,0.000
1673805676.822,2.930,-25.391,-26.367,-31.738,0.000
1673805676.826,-21.973,-23.438,-25.391,-32.227,0.000
1673805676.830,-53.711,-25.879,-31.250,-20.020,0.000
1673805676.834,-61.035,-35.645,-38.574,-14.648,0.000
1673805676.838,-47.363,-37.109,-31.738,-20.020,0.000
1673805676.842,-33.203,-30.762,-20.020,-14.160,0.000
1673805676.846,-27.832,-26.367,-20.508,-17.578,0.000
1673805676.850,-24.414,-28.320,-27.344,-27.832,0.000
1673805676.854,-36.133,-27.344,-38.574,-26.367,0.000
1673805676.858,-35.156,-22.461,-37.109,-20.996,0.000
1673805676.862,-43.945,-31.738,-34.668,-20.508,0.000
1673805676.865,-57.129,-41.016,-23.926,-29.297,0.000
1673805676.869,-47.363,-35.156,-20.996,-36.133,0.000
1673805676.873,-38.574,-25.879,-26.367,-42.480,0.000
1673805676.877,-41.504,-19.043,-27.344,-39.062,0.000
1673805676.881,-48.828,-19.043,-30.762,-34.180,0.000
1673805676.885,-34.180,-21.973,-35.156,-38.574,0.000
1673805676.889,-18.555,-26.367,-41.504,-24.902,0.000
1673805676.893,-30.762,-20.996,-35.156,-15.625,0.000
1673805676.897,-44.434,-10.254,-25.879,-20.020,0.000
1673805676.901,-38.086,-21.973,-32.715,-25.879,0.000
1673805676.905,-38.574,-28.320,-33.203,-18.066,0.000
1673805676.908,-40.039,-24.902,-30.762,-12.695,0.000
1673805676.912,-30.273,-32.715,-35.645,-10.742,0.000
1673805676.916,-32.227,-33.203,-31.250,-9.766,0.000
1673805676.920,-40.039,-27.344,-31.738,-8.301,0.000
1673805676.924,-43.945,-19.531,-24.902,10.254,0.000
1673805676.928,-47.852,-23.438,-23.438,5.371,0.000
1673805676.932,-50.781,-36.621,-33.691,-17.578,0.000
1673805676.936,-45.898,-26.367,-24.414,-14.648,0.000
1673805676.940,-47.852,-21.973,-17.578,-22.949,0.000
1673805676.944,-40.039,-30.762,-21.484,-32.715,0.000
1673805676.947,-34.668,-24.414,-34.668,-25.391,0.000
1673805676.951,-43.457,-22.949,-35.156,-21.973,0.000
1673805676.955,-32.715,-28.320,-20.508,-27.344,0.000
1673805676.959,-19.531,-23.926,-19.043,-41.504,0.000
1673805676.963,-17.090,-30.762,-26.855,-38.086,0.000
1673805676.967,-20.996,-36.621,-34.180,-18.555,0.000
1673805676.971,-41.504,-27.832,-31.738,-12.695,0.000
1673805676.975,-49.316,-24.902,-24.902,-25.391,0.000
1673805676.979,-40.527,-33.691,-23.438,-36.621,0.000
1673805676.983,-25.391,-42.969,-25.879,-32.715,0.000
1673805676.987,-21.484,-33.203,-26.367,-28.809,0.000
1673805676.990,-34.668,-25.879,-29.785,-41.504,0.000
1673805676.994,-27.832,-24.414,-33.691,-44.922,0.000
1673805676.998,-11.719,-25.879,-34.180,-44.922,0.000
1673805677.002,-21.973,-29.297,-23.438,-44.434,0.000
1673805677.006,-31.738,-24.414,-18.555,-37.109,0.000
1673805677.010,-43.457,-32.227,-26.367,-37.598,0.000
1673805677.014,-53.223,-45.410,-34.180,-38.574,0.000
1673805677.018,-50.293,-43.945,-39.062,-37.109,0.000
1673805677.022,-59.082,-37.598,-39.062,-32.715,0.000
1673805677.026,-66.406,-29.785,-41.504,-31.250,0.000
1673805677.030,-49.316,-31.250,-41.016,-24.414,0.000
1673805677.033,-38.086,-30.762,-41.992,-14.160,0.000
1673805677.037,-46.387,-33.203,-48.828,-16.113,0.000
1673805677.041,-36.621,-33.203,-52.734,-22.949,0.000
1673805677.045,-23.926,-25.391,-43.945,-28.320,0.000
1673805677.049,-24.902,-35.645,-35.156,-27.344,0.000
1673805677.053,-23.438,-36.133,-37.598,-27.832,0.000
1673805677.057,-33.691,-30.273,-30.273,-17.578,0.000
1673805677.061,-39.062,-41.016,-29.785,-9.766,0.000
1673805677.065,-30.762,-44.922,-40.527,-16.602,0.000
1673805677.069,-26.855,-36.133,-33.691,-21.973,0.000
1673805677.072,-30.273,-34.668,-24.414,-19.043,0.000
1673805677.076,-38.574,-35.156,-34.668,-20.996,0.000
1673805677.080,-31.250,-28.320,-42.969,-28.809,0.000
1673805677.084,-18.555,-27.832,-36.621,-23.926,0.000
1673805677.088,-26.367,-30.273,-31.250,-19.043,0.000
1673805677.092,-24.414,-24.414,-26.855,-28.809,0.000
1673805677.096,-15.137,-17.578,-29.297,-35.156,0.000
1673805677.100,-5.371,-18.555,-34.180,-23.438,0.000
1673805677.104,-3.418,-26.367,-29.297,-16.113,0.000
1673805677.108,-3.906,-31.738,-28.320,-21.973,0.000
1673805677.112,9.766,-28.809,-32.227,-26.367,0.000
1673805677.115,-20.020,-37.109,-39.062,-20.508,0.000
1673805677.119,-51.758,-38.086,-53.711,-5.859,0.000
1673805677.123,-42.969,-28.320,-45.410,-0.977,0.000
1673805677.127,-32.227,-27.344,-25.879,-23.438,0.000
1673805677.131,-24.414,-20.508,-26.855,-37.109,0.000
1673805677.135,-28.320,-16.602,-24.902,-31.738,0.000
1673805677.139,-17.090,-27.344,-31.738,-30.273,0.000
1673805677.143,-8.789,-28.320,-39.551,-32.227,0.000
1673805677.147,-4.883,-19.531,-36.133,-32.715,0.000
1673805677.151,1.465,-14.160,-29.297,-28.320,0.000
1673805677.155,3.906,-19.043,-28.320,-19.531,0.000
1673805677.158,-7.324,-30.762,-34.180,-14.160,0.000
1673805677.162,-17.090,-32.227,-25.879,-16.602,0.000
1673805677.166,-24.414,-22.461,-25.391,-8.789,0.000
1673805677.170,-16.602,-25.391,-23.438,-10.742,0.000
1673805677.174,-7.812,-30.762,-20.508,-11.230,0.000
1673805677.178,-20.508,-20.020,-27.344,-7.812,0.000
1673805677.182,-24.902,-19.531,-28.320,-18.066,0.000
1673805677.186,-24.414,-28.809,-22.461,-19.531,0.000
1673805677.190,-23.438,-32.227,-19.043,-14.160,0.000
1673805677.194,-17.578,-23.438,-21.484,-10.742,0.000
1673805677.197,-24.902,-26.367,-22.461,-17.578,0.000
1673805677.201,-32.715,-36.133,-23.926,-15.625,0.000
1673805677.205,-32.227,-32.715,-22.461,-16.602,0.000
1673805677.209,-24.414,-24.902,-25.879,-22.949,0.000
1673805677.213,-8.301,-21.973,-22.949,-27.344,0.000
1673805677.217,-10.254,-13.672,-24.902,-25.391,0.000
1673805677.221,-28.320,-27.344,-40.527,-18.555,0.000
1673805677.225,-43.945,-39.062,-27.344,-17.578,0.000
1673805677.229,-25.879,-20.996,-13.184,-15.625,0.000
1673805677.233,-13.672,-14.160,-13.184,-17.578,0.000
1673805677.237,-6.836,-17.090,-7.324,-21.973,0.000
1673805677.240,-0.977,-19.043,-12.207,-26.367,0.000
1673805677.244,-36.621,-31.738,-24.902,-30.273,0.000
1673805677.248,-51.270,-34.668,-23.438,-25.391,0.000
1673805677.252,-41.504,-34.180,-17.578,-24.902,0.000
1673805677.256,-55.664,-40.039,-20.508,-27.832,0.000
1673805677.260,-50.293,-34.668,-18.066,-25.391,0.000
1673805677.264,-35.156,-26.367,-15.137,-29.297,0.000
1673805677.268,-45.410,-19.043,-17.578,-20.996,0.000
1673805677.272,-45.898,-11.719,-22.949,-23.926,0.000
1673805677.276,-35.156,-18.555,-26.855,-41.016,0.000
1673805677.280,-41.992,-30.762,-27.344,-41.504,0.000
1673805677.283,-45.410,-30.762,-23.438,-39.062,0.000
1673805677.287,-43.945,-35.156,-21.973,-32.715,0.000
1673805677.291,-36.621,-37.598,-28.320,-24.414,0.000
1673805677.295,-37.109,-25.391,-25.391,-24.414,0.000
1673805677.299,-47.852,-22.461,-9.766,-21.484,0.000
1673805677.303,-53.711,-31.738,-4.883,-14.648,0.000
1673805677.307,-58.105,-37.598,-12.695,-15.137,0.000
1673805677.311,-46.875,-26.367,-19.531,-15.625,0.000
1673805677.315,-39.551,-20.508,-33.203,-22.949,0.000
1673805677.319,-30.273,-20.020,-26.855,-30.762,0.000
1673805677.322,-22.461,-26.367,-12.695,-33.203,0.000
1673805677.326,-26.855,-26.855,-12.207,-29.785,0.000
1673805677.330,-37.109,-12.207,-18.066,-20.508,0.000
1673805677.334,-38.086,-14.160,-31.250,-11.230,0.000
1673805677.338,-41.504,-20.020,-27.832,-15.137,0.000
1673805677.342,-40.527,-20.996,-16.602,-24.414,0.000
1673805677.346,-35.645,-23.438,-18.555,-32.227,0.000
1673805677.350,-27.832,-35.156,-20.996,-37.109,0.000
1673805677.354,-38.086,-45.898,-21.973,-46.387,0.000
1673805677.358,-52.734,-49.316,-33.203,-33.203,0.000
1673805677.362,-48.828,-49.316,-41.016,-23.926,0.000
1673805677.365,-50.293,-33.691,-38.086,-36.621,0.000
1673805677.369,-50.781,-22.949,-32.715,-36.621,0.000
1673805677.373,-43.457,-24.414,-25.391,-30.762,0.000
1673805677.377,-33.203,-26.367,-17.090,-24.902,0.000
1673805677.381,-33.691,-27.832,-16.113,-22.949,0.000
1673805677.385,-39.551,-33.203,-20.020,-20.020,0.000
1673805677.389,-51.758,-37.598,-23.438,-23.438,0.000
1673805677.393,-59.082,-29.297,-24.902,-30.762,0.000
1673805677.397,-59.082,-29.297,-33.691,-24.414,0.000
1673805677.401,-72.266,-42.480,-35.645,-19.043,0.000
1673805677.405,-74.219,-46.875,-21.484,-19.531,0.000
1673805677.408,-52.734,-36.133,-18.066,-12.207,0.000
1673805677.412,-35.156,-17.090,-14.648,-8.789,0.000
1673805677.416,-22.461,-13.672,-10.742,-9.766,0.000
1673805677.420,-14.648,-22.949,-20.020,-9.766,0.000
1673805677.424,-18.066,-23.438,-29.785,-18.066,0.000
1673805677.428,-30.273,-41.016,-24.414,-14.160,0.000
1673805677.432,-38.086,-46.387,-21.973,-0.977,0.000
1673805677.436,-37.598,-29.785,-19.531,-0.977,0.000
1673805677.440,-37.109,-28.809,-5.371,0.977,0.000
1673805677.444,-39.062,-19.531,0.488,8.301,0.000
1673805677.447,-33.203,-14.648,-5.859,12.695,0.000
1673805677.451,-13.184,-23.438,-12.207,14.160,0.000
1673805677.455,1.465,-23.438,-14.648,15.137,0.000
1673805677.459,1.465,-17.578,-20.996,-2.441,0.000
1673805677.463,-4.883,-22.949,-22.461,-13.184,0.000
1673805677.467,-13.672,-36.621,-19.043,3.906,0.000
1673805677.471,-21.484,-25.879,-26.855,3.906,0.000
1673805677.475,-30.273,-9.766,-32.227,3.906,0.000
1673805677.479,-32.227,-19.043,-25.391,-1.953,0.000
1673805677.483,-33.691,-29.297,-24.902,-7.324,0.000
1673805677.487,-33.203,-27.832,-25.879,-12.207,0.000
1673805677.490,-21.973,-21.973,-29.785,-24.902,0.000
1673805677.494,-16.113,-20.508,-33.203,-35.645,0.000
1673805677.498,-18.066,-26.855,-32.715,-26.367,0.000
1673805677.502,-24.414,-22.949,-27.344,-24.414,0.000
1673805677.506,-46.875,-13.184,-27.832,-29.785,0.000
1673805677.510,-48.340,-14.648,-29.785,-22.949,0.000
1673805677.514,-20.996,-17.090,-26.367,-21.973,0.000
1673805677.518,-18.066,-31.250,-32.227,-27.832,0.000
1673805677.522,-42.969,-35.156,-28.320,-28.320,0.000
1673805677.526,-53.223,-23.438,-28.809,-33.203,0.000
1673805677.530,-41.992,-23.438,-33.691,-28.320,0.000
1673805677.533,-34.180,-26.855,-31.738,-24.414,0.000
1673805677.537,-38.574,-29.785,-26.367,-19.531,0.000
1673805677.541,-46.875,-36.621,-24.414,-18.066,0.000
1673805677.545,-42.480,-38.574,-40.527,-24.902,0.000
1673805677.549,-46.875,-32.227,-39.062,-17.578,0.000
1673805677.553,-55.664,-31.250,-28.809,-15.625,0.000
1673805677.557,-49.805,-23.926,-20.996,-10.742,0.000
1673805677.561,-41.016,-28.320,-20.996,-15.137,0.000
1673805677.565,-25.879,-31.738,-27.344,-14.648,0.000
1673805677.569,-15.625,-23.926,-20.508,-2.930,0.000
1673805677.572,-10.742,-24.902,-21.973,-7.812,0.000
1673805677.576,-19.043,-25.879,-37.598,-23.438,0.000
1673805677.580,-34.180,-26.367,-27.832,-16.602,0.000
1673805677.584,-32.715,-22.461,-13.672,-6.836,0.000
1673805677.588,-40.527,-24.902,-9.766,-11.719,0.000
1673805677.592,-33.691,-28.809,-12.695,-12.207,0.000
1673805677.596,-26.855,-31.250,-19.531,-21.973,0.000
1673805677.600,-35.156,-30.762,-26.855,-22.949,0.000
1673805677.604,-32.715,-28.320,-27.832,-29.785,0.000
1673805677.608,-24.902,-31.250,-17.578,-39.062,0.000
1673805677.612,-5.859,-23.438,-14.648,-25.879,0.000
1673805677.615,-8.789,-19.531,-23.438,-13.184,0.000
1673805677.619,-19.531,-23.438,-24.414,-15.625,0.000
1673805677.623,-10.742,-21.973,-18.066,-22.461,0.000
1673805677.627,0.977,-28.320,-24.902,-21.973,0.000
1673805677.631,-9.277,-37.598,-42.480,-18.066,0.000
1673805677.635,-36.621,-22.949,-40.527,-14.648,0.000
1673805677.639,-41.992,-26.367,-18.555,-15.137,0.000
1673805677.643,-42.480,-45.410,-12.695,-21.484,0.000
1673805677.647,-48.340,-37.598,-20.508,-24.414,0.000
1673805677.651,-50.781,-29.785,-26.855,-18.555,0.000
1673805677.655,-51.270,-31.738,-33.691,-19.043,0.000
1673805677.658,-34.180,-28.320,-41.992,-29.297,0.000
1673805677.662,-21.484,-30.762,-35.645,-30.762,0.000
1673805677.666,-23.926,-37.109,-35.156,-23.438,0.000
1673805677.670,-25.879,-28.809,-35.156,-20.996,0.000
1673805677.674,-32.715,-20.996,-25.391,-17.090,0.000
1673805677.678,-39.551,-31.250,-25.879,-9.277,0.000
1673805677.682,-38.574,-34.668,-34.668,-4.883,0.000
1673805677.686,-30.762,-28.320,-37.109,-2.441,0.000
1673805677.690,-31.250,-30.273,-34.180,-14.160,0.000
1673805677.694,-35.645,-34.668,-34.180,-14.160,0.000
1673805677.697,-36.133,-43.945,-30.762,-13.672,0.000
1673805677.701,-38.574,-50.293,-28.809,-26.367,0.000
1673805677.705,-30.762,-44.922,-30.273,-31.738,0.000
1673805677.709,-20.508,-32.227,-25.879,-37.109,0.000
1673805677.713,-26.367,-27.832,-26.367,-37.598,0.000
1673805677.717,-31.250,-36.133,-27.344,-28.809,0.000
1673805677.721,-23.438,-29.297,-29.297,-18.066,0.000
1673805677.725,-42.969,-31.738,-28.320,-14.648,0.000
1673805677.729,-58.105,-28.809,-31.250,-8.301,0.000
1673805677.733,-33.691,-32.715,-36.621,-5.371,0.000
1673805677.737,-27.344,-44.434,-20.996,-15.625,0.000
1673805677.740,-41.504,-30.762,-6.348,-22.461,0.000
1673805677.744,-58.594,-23.438,-16.113,-36.621,0.000
1673805677.748,-48.828,-15.137,-20.020,-32.715,0.000
1673805677.752,-43.945,-17.578,-18.555,-20.508,0.000
1673805677.756,-50.293,-32.715,-21.973,-30.762,0.000
1673805677.760,-45.410,-34.180,-31.738,-28.809,0.000
1673805677.764,-48.340,-27.832,-36.621,-22.461,0.000
1673805677.768,-51.270,-25.879,-27.344,-19.531,0.000
1673805677.772,-43.945,-29.297,-21.973,-15.625,0.000
1673805677.776,-36.621,-30.762,-25.391,-28.320,0.000
1673805677.780,-32.715,-29.785,-37.109,-40.039,0.000
1673805677.783,-31.250,-23.926,-41.016,-35.645,0.000
1673805677.787,-21.973,-24.902,-38.574,-31.250,0.000
1673805677.791,-24.414,-34.180,-35.156,-28.320,0.000
1673805677.795,-41.016,-44.434,-27.832,-21.973,0.000
1673805677.799,-43.457,-43.945,-28.809,-9.766,0.000
1673805677.803,-44.434,-32.227,-28.320,-5.371,0.000
1673805677.807,-45.898,-36.621,-29.297,-6.836,0.000
1673805677.811,-23.926,-25.391,-33.203,-12.207,0.000
1673805677.815,-22.949,-17.090,-46.875,-36.133,0.000
1673805677.819,-40.039,-28.320,-47.852,-33.203,0.000
1673805677.822,-42.969,-36.621,-37.598,-19.531,0.000
1673805677.826,-45.410,-34.180,-41.016,-20.996,0.000
