timestamp,TP9,AF7,AF8,TP10,Right AUX
0.000,-12.695,-11.719,-23.926,-22.461,0.000
4.000,10.254,-15.137,-27.832,-43.945,0.000
8.000,12.207,-10.742,-26.855,-38.086,0.000
12.000,-22.461,-13.184,-24.902,-26.367,0.000
16.000,-27.832,-18.066,-25.391,-15.625,0.000
20.000,-21.973,-12.207,-24.902,-16.113,0.000
23.000,-27.832,-12.695,-25.391,-14.648,0.000
27.000,-23.926,-14.160,-24.414,-1.953,0.000
31.000,-20.508,-9.766,-27.344,-1.465,0.000
35.000,-23.438,-11.230,-31.738,-14.160,0.000
39.000,-23.926,-15.137,-28.809,-18.555,0.000
43.000,-21.973,-11.719,-24.902,-3.906,0.000
47.000,-13.184,-2.441,-20.020,2.441,0.000
51.000,-11.230,-3.906,-19.043,-4.883,0.000
55.000,-6.836,-6.836,-20.996,-12.207,0.000
59.000,5.371,-5.859,-19.531,-8.789,0.000
62.000,-2.930,-13.184,-21.484,-0.977,0.000
66.000,-8.789,-17.090,-16.602,-3.418,0.000
70.000,-4.395,-17.578,-15.625,-7.812,0.000
74.000,2.441,-15.137,-18.555,-11.719,0.000
78.000,4.395,-8.789,-15.625,-12.207,0.000
82.000,-9.277,-14.648,-17.578,-10.742,0.000
86.000,-17.090,-15.625,-20.508,-16.602,0.000
90.000,-9.766,-12.207,-21.973,-22.949,0.000
94.000,-3.418,-18.066,-22.949,-23.926,0.000
98.000,-14.160,-17.090,-19.531,-22.949,0.000
102.000,-18.555,-16.113,-22.461,-22.949,0.000
105.000,-8.301,-17.090,-28.320,-31.250,0.000
109.000,-23.926,-12.695,-25.879,-36.621,0.000
113.000,-28.320,-12.207,-27.344,-35.156,0.000
117.000,-21.484,-9.277,-29.297,-26.855,0.000
121.000,-25.391,-3.906,-31.250,-29.297,0.000
125.000,-23.926,-7.812,-26.855,-20.508,0.000
129.000,-25.391,-10.254,-23.926,-3.906,0.000
133.000,-26.855,-12.695,-30.762,-16.113,0.000
137.000,-36.621,-11.719,-28.320,-27.344,0.000
141.000,-45.898,-12.207,-26.367,-23.438,0.000
145.000,-24.902,-11.719,-24.902,-19.043,0.000
148.000,-16.602,-8.789,-23.926,-18.066,0.000
152.000,-21.484,-8.789,-28.809,-16.113,0.000
156.000,-20.996,-10.742,-34.668,-33.203,0.000
160.000,-17.090,-14.160,-31.250,-35.645,0.000
164.000,2.930,-9.766,-24.414,-15.625,0.000
168.000,-1.953,-11.719,-24.902,-23.438,0.000
172.000,-17.578,-13.672,-24.902,-33.691,0.000
176.000,-28.320,-9.766,-27.832,-30.762,0.000
180.000,-26.367,-14.648,-35.156,-24.902,0.000
184.000,-16.602,-19.531,-36.621,-32.715,0.000
187.000,-28.320,-21.484,-35.156,-49.805,0.000
191.000,-35.156,-20.996,-34.668,-43.457,0.000
195.000,-22.461,-22.461,-30.762,-25.879,0.000
199.000,-24.414,-23.926,-32.715,-20.996,0.000
203.000,-27.344,-23.926,-37.598,-21.973,0.000
207.000,-8.301,-21.484,-32.227,-9.766,0.000
211.000,-15.625,-21.973,-29.785,-7.812,0.000
215.000,-22.461,-24.414,-41.504,-19.043,0.000
219.000,5.859,-17.090,-41.504,-11.719,0.000
223.000,33.691,-5.859,-31.250,6.348,0.000
227.000,43.457,-3.906,-33.691,6.348,0.000
230.000,39.062,-5.371,-34.180,7.324,0.000
234.000,4.395,-12.207,-29.297,14.160,0.000
238.000,-15.625,-16.602,-30.762,17.578,0.000
242.000,9.766,-11.719,-32.715,22.461,0.000
246.000,25.879,-11.230,-29.297,22.461,0.000
250.000,29.297,-8.301,-29.785,30.273,0.000
254.000,26.367,-7.812,-25.879,27.344,0.000
258.000,20.508,-9.277,-21.973,19.043,0.000
262.000,21.973,-3.906,-25.391,22.461,0.000
266.000,27.344,-2.930,-24.902,14.160,0.000
270.000,18.066,-4.395,-27.344,8.301,0.000
273.000,21.484,-2.441,-32.227,11.230,0.000
277.000,32.227,0.488,-26.855,22.949,0.000
281.000,33.691,-1.465,-23.926,31.738,0.000
285.000,51.758,1.953,-26.855,33.691,0.000
289.000,61.035,8.301,-26.367,35.156,0.000
293.000,44.434,6.836,-23.926,40.527,0.000
297.000,50.293,8.301,-22.949,35.156,0.000
301.000,51.270,6.836,-22.461,17.090,0.000
305.000,41.992,1.465,-24.414,27.832,0.000
309.000,37.598,4.883,-22.949,50.293,0.000
312.000,31.738,8.789,-24.902,62.012,0.000
316.000,16.113,4.883,-27.832,45.410,0.000
320.000,31.738,2.930,-25.879,29.785,0.000
324.000,54.199,2.930,-29.297,37.598,0.000
328.000,41.504,2.930,-30.273,41.504,0.000
332.000,33.203,-1.465,-29.785,33.691,0.000
336.000,43.945,-2.930,-28.809,35.645,0.000
340.000,53.711,1.953,-33.691,39.551,0.000
344.000,46.875,0.488,-36.621,40.527,0.000
348.000,37.598,-5.859,-35.156,36.133,0.000
352.000,37.109,-5.371,-38.574,33.203,0.000
355.000,43.945,-1.953,-38.086,28.320,0.000
359.000,48.828,-1.465,-33.203,37.598,0.000
363.000,42.969,-3.418,-34.668,41.992,0.000
367.000,44.434,-3.906,-38.574,31.738,0.000
371.000,45.898,-7.324,-34.180,23.926,0.000
375.000,41.504,-13.184,-28.809,16.602,0.000
379.000,32.227,-11.719,-29.297,19.531,0.000
383.000,26.367,-10.742,-27.832,33.203,0.000
387.000,28.320,-10.254,-28.320,21.484,0.000
391.000,30.273,-13.672,-29.297,14.160,0.000
394.000,26.367,-22.461,-29.785,11.230,0.000
398.000,40.527,-22.949,-35.156,0.488,0.000
402.000,45.410,-17.090,-38.086,-5.859,0.000
406.000,25.391,-17.578,-39.551,-6.348,0.000
410.000,10.742,-20.508,-36.133,9.277,0.000
414.000,13.672,-17.578,-26.855,16.602,0.000
418.000,20.020,-14.648,-27.832,3.906,0.000
422.000,18.555,-18.066,-29.297,3.418,0.000
426.000,-27.832,-21.484,-26.855,8.789,0.000
430.000,-50.781,-28.320,-28.320,11.230,0.000
434.000,-25.879,-24.414,-27.344,15.625,0.000
437.000,5.859,-11.230,-35.645,16.113,0.000
441.000,9.277,-9.277,-41.504,1.953,0.000
445.000,9.277,-17.578,-37.598,0.488,0.000
449.000,20.508,-22.461,-39.551,6.836,0.000
453.000,21.973,-20.508,-40.039,-3.418,0.000
457.000,-2.930,-15.625,-32.227,-4.395,0.000
461.000,-26.367,-16.602,-32.227,7.812,0.000
465.000,-7.324,-19.531,-33.691,9.277,0.000
469.000,9.766,-16.602,-29.785,1.953,0.000
473.000,8.789,-16.113,-32.715,-4.395,0.000
477.000,10.254,-14.648,-33.203,-5.371,0.000
480.000,2.441,-22.461,-32.227,-8.789,0.000
484.000,0.000,-26.855,-34.668,-20.996,0.000
488.000,6.836,-17.090,-29.297,-23.926,0.000
492.000,0.488,-16.602,-28.809,-14.160,0.000
496.000,-10.742,-23.926,-30.273,-12.695,0.000
500.000,-24.414,-24.902,-25.391,-15.137,0.000
504.000,-14.648,-24.902,-26.367,-11.230,0.000
508.000,-0.977,-23.926,-28.320,-8.789,0.000
512.000,-12.207,-25.879,-26.367,-4.395,0.000
516.000,-17.578,-26.367,-21.973,-1.465,0.000
519.000,-14.160,-22.461,-17.578,-10.254,0.000
523.000,-7.324,-19.531,-19.531,-3.418,0.000
527.000,-2.441,-21.484,-26.855,5.371,0.000
531.000,-25.879,-25.879,-26.367,0.000,0.000
535.000,-29.785,-25.879,-19.531,-2.441,0.000
539.000,-14.160,-21.484,-19.531,1.953,0.000
543.000,-22.949,-18.066,-22.461,2.441,0.000
547.000,-4.883,-18.066,-19.531,-3.906,0.000
551.000,0.000,-17.090,-15.625,-12.695,0.000
555.000,-30.762,-21.484,-17.090,-20.996,0.000
559.000,-28.320,-24.414,-19.531,-27.344,0.000
562.000,-34.180,-21.973,-19.043,-29.297,0.000
566.000,-60.547,-21.484,-18.066,-30.762,0.000
570.000,-71.289,-25.391,-23.926,-52.246,0.000
574.000,-80.078,-31.250,-30.273,-78.125,0.000
578.000,-95.703,-41.504,-29.785,-90.820,0.000
582.000,-103.027,-44.434,-25.879,-95.703,0.000
586.000,-102.539,-40.039,-20.996,-102.539,0.000
590.000,-102.539,-44.434,-17.578,-111.328,0.000
594.000,-116.211,-49.316,-18.066,-121.582,0.000
598.000,-128.906,-47.852,-22.949,-124.512,0.000
602.000,-117.676,-55.176,-25.391,-130.859,0.000
605.000,-141.113,-64.941,-25.391,-166.504,0.000
609.000,-164.062,-65.918,-22.949,-163.086,0.000
613.000,-151.367,-64.941,-20.020,-146.973,0.000
617.000,-162.109,-69.824,-20.996,-159.668,0.000
621.000,-168.945,-71.777,-27.832,-149.902,0.000
625.000,-176.758,-69.336,-33.203,-154.785,0.000
629.000,-184.082,-74.219,-21.484,-165.527,0.000
633.000,-179.688,-74.219,-9.766,-155.762,0.000
637.000,-180.176,-68.359,-17.090,-172.852,0.000
641.000,-151.367,-51.270,-24.902,-163.086,0.000
644.000,-139.160,-61.035,-29.785,-143.555,0.000
648.000,-181.641,-83.008,-40.039,-150.879,0.000
652.000,-186.035,-62.500,-32.715,-137.207,0.000
656.000,-157.715,-43.457,-28.320,-129.395,0.000
660.000,-138.184,-40.527,-35.156,-129.883,0.000
664.000,-132.812,-45.898,-37.109,-124.512,0.000
668.000,-126.465,-48.340,-33.203,-114.746,0.000
672.000,-104.004,-48.828,-30.273,-106.934,0.000
676.000,-87.891,-48.828,-38.086,-92.285,0.000
680.000,-83.496,-45.410,-42.969,-69.824,0.000
684.000,-71.289,-41.016,-40.527,-65.918,0.000
687.000,-55.176,-35.156,-36.621,-62.988,0.000
691.000,-40.527,-35.156,-34.180,-53.711,0.000
695.000,-34.180,-31.738,-37.109,-51.758,0.000
699.000,-36.133,-33.203,-35.156,-51.758,0.000
703.000,-28.320,-36.133,-32.227,-51.270,0.000
707.000,-20.508,-27.832,-31.738,-46.875,0.000
711.000,-15.137,-24.902,-30.762,-40.039,0.000
715.000,-20.020,-27.344,-33.203,-33.203,0.000
719.000,-34.180,-31.250,-33.203,-37.598,0.000
723.000,-40.527,-32.715,-32.227,-42.969,0.000
726.000,-16.113,-27.832,-35.156,-33.203,0.000
730.000,-18.555,-27.344,-33.203,-25.879,0.000
734.000,-56.152,-29.785,-31.738,-23.438,0.000
738.000,-54.688,-28.320,-35.645,-32.715,0.000
742.000,-39.062,-29.297,-37.109,-29.297,0.000
746.000,-38.574,-30.762,-34.180,-11.719,0.000
750.000,-38.574,-28.809,-33.691,-10.254,0.000
754.000,-35.156,-24.902,-33.691,-9.766,0.000
758.000,-26.367,-26.367,-28.320,-8.301,0.000
762.000,-21.484,-27.832,-28.320,-2.441,0.000
766.000,-26.855,-28.809,-29.785,-0.977,0.000
769.000,-37.109,-33.203,-30.762,-12.695,0.000
773.000,-29.297,-36.133,-35.156,-20.020,0.000
777.000,-14.648,-33.203,-33.203,-3.906,0.000
781.000,-5.859,-34.180,-29.785,13.672,0.000
785.000,-8.789,-25.391,-28.320,7.324,0.000
789.000,-12.207,-20.508,-24.902,2.441,0.000
793.000,-21.973,-29.297,-21.973,6.348,0.000
797.000,-24.414,-30.762,-20.996,6.836,0.000
801.000,-11.719,-28.320,-24.414,-0.977,0.000
805.000,-8.301,-23.926,-26.367,-8.789,0.000
809.000,6.348,-20.996,-25.391,-13.672,0.000
812.000,9.766,-20.020,-23.438,-11.719,0.000
816.000,1.953,-16.602,-24.414,-2.930,0.000
820.000,-9.277,-16.602,-20.020,-9.766,0.000
824.000,-13.184,-19.531,-22.461,-20.508,0.000
828.000,-20.020,-20.996,-26.367,-13.672,0.000
832.000,-25.391,-21.973,-23.926,-7.812,0.000
836.000,-16.113,-21.484,-28.320,-19.043,0.000
840.000,-9.277,-21.484,-33.203,-27.832,0.000
844.000,-19.043,-21.973,-32.715,-27.832,0.000
848.000,-32.715,-15.137,-29.785,-19.531,0.000
851.000,-36.621,-10.742,-32.715,-17.578,0.000
855.000,-37.598,-19.531,-32.227,-31.250,0.000
859.000,-41.504,-22.461,-27.832,-37.598,0.000
863.000,-34.668,-16.602,-27.344,-29.297,0.000
867.000,-26.367,-12.207,-23.926,-19.531,0.000
871.000,-24.902,-13.184,-25.391,-16.113,0.000
875.000,-33.203,-12.695,-30.762,-29.297,0.000
879.000,-46.387,-13.184,-27.832,-29.297,0.000
883.000,-43.457,-20.996,-24.414,-20.508,0.000
887.000,-38.086,-19.043,-24.414,-28.320,0.000
891.000,-35.156,-17.090,-27.832,-27.832,0.000
894.000,-33.691,-14.160,-28.320,-25.879,0.000
898.000,-29.785,-18.066,-26.367,-34.668,0.000
902.000,-41.504,-28.320,-29.297,-34.180,0.000
906.000,-62.988,-23.438,-27.344,-37.109,0.000
910.000,-58.594,-20.020,-23.926,-34.668,0.000
914.000,-54.688,-20.996,-27.832,-27.832,0.000
918.000,-52.734,-24.414,-26.855,-39.062,0.000
922.000,-41.504,-30.762,-21.484,-41.504,0.000
926.000,-30.762,-27.832,-19.043,-27.832,0.000
930.000,-30.762,-25.391,-23.926,-17.090,0.000
934.000,-34.180,-22.461,-24.414,-18.555,0.000
937.000,-32.227,-20.996,-20.020,-25.391,0.000
941.000,-22.949,-27.832,-25.391,-23.438,0.000
945.000,-28.320,-30.762,-27.344,-16.113,0.000
949.000,-45.898,-33.203,-22.461,-22.461,0.000
953.000,-50.781,-30.273,-20.508,-20.996,0.000
957.000,-36.133,-25.879,-22.461,-13.184,0.000
961.000,-32.715,-30.273,-26.367,-15.137,0.000
965.000,-25.391,-33.203,-31.250,-23.926,0.000
969.000,-17.090,-30.762,-31.738,-29.297,0.000
973.000,-26.855,-33.203,-31.250,-28.809,0.000
976.000,-23.438,-31.250,-33.203,-32.715,0.000
980.000,-15.625,-29.785,-32.227,-29.785,0.000
984.000,-20.020,-32.715,-34.180,-20.508,0.000
988.000,-24.414,-31.738,-37.109,-10.742,0.000
992.000,-11.719,-30.762,-34.668,7.324,0.000
996.000,-6.836,-26.367,-33.691,-0.488,0.000
1000.000,-30.273,-23.438,-36.621,-27.344,0.000
1004.000,-37.109,-24.902,-39.062,-27.344,0.000
1008.000,-19.531,-24.902,-43.945,-20.508,0.000
1012.000,-26.855,-26.855,-45.898,-37.598,0.000
1016.000,-33.691,-27.344,-46.387,-25.879,0.000
1019.000,-16.602,-24.902,-44.434,-2.441,0.000
1023.000,-15.625,-20.996,-43.457,-19.043,0.000
1027.000,-19.531,-19.531,-41.992,-15.625,0.000
1031.000,-18.555,-18.555,-40.527,-5.371,0.000
1035.000,-18.555,-18.066,-42.969,-18.066,0.000
1039.000,-24.902,-19.043,-41.504,-25.879,0.000
1043.000,-25.879,-17.090,-38.086,-21.973,0.000
1047.000,-13.672,-13.184,-38.574,-6.836,0.000
1051.000,-15.137,-18.555,-38.086,-3.906,0.000
1055.000,-12.207,-20.996,-41.992,-24.902,0.000
1058.000,7.324,-21.973,-43.945,-36.621,0.000
1062.000,15.137,-21.484,-43.457,-22.949,0.000
1066.000,-39.551,-22.461,-44.434,-19.531,0.000
1070.000,-91.797,-20.020,-42.480,-39.062,0.000
1074.000,-79.590,-20.020,-41.016,-37.598,0.000
1078.000,-54.688,-18.555,-37.109,-31.250,0.000
1082.000,-73.242,-17.578,-40.039,-56.152,0.000
1086.000,-95.215,-19.531,-40.527,-75.195,0.000
1090.000,-76.660,-15.137,-30.762,-59.570,0.000
1094.000,-45.898,-16.602,-25.879,-46.387,0.000
1098.000,-41.016,-13.672,-29.297,-51.270,0.000
1101.000,-60.059,-10.742,-32.227,-60.059,0.000
1105.000,-58.105,-9.277,-27.344,-50.293,0.000
1109.000,-61.523,-16.602,-26.855,-30.273,0.000
1113.000,-62.500,-16.113,-33.203,-28.809,0.000
1117.000,-45.898,-11.230,-30.762,-31.250,0.000
1121.000,-21.973,-14.648,-29.297,-24.414,0.000
1125.000,-6.836,-11.230,-34.668,-8.789,0.000
1129.000,-6.836,-15.625,-35.645,-1.953,0.000
1133.000,-10.742,-15.625,-33.691,1.953,0.000
1137.000,-14.648,-10.742,-32.227,9.766,0.000
1141.000,13.184,-11.230,-35.156,26.855,0.000
1144.000,51.758,-6.836,-42.969,44.434,0.000
1148.000,38.086,-7.324,-43.457,57.129,0.000
1152.000,16.602,-7.812,-44.922,61.523,0.000
1156.000,27.832,-6.836,-45.410,55.664,0.000
1160.000,48.828,-5.371,-40.039,61.523,0.000
1164.000,71.777,4.395,-36.133,71.777,0.000
1168.000,99.609,9.766,-38.086,53.223,0.000
1172.000,89.844,9.277,-44.922,37.598,0.000
1176.000,98.633,6.836,-49.316,49.805,0.000
1180.000,109.375,8.301,-49.316,59.082,0.000
1183.000,83.496,9.277,-44.922,76.172,0.000
1187.000,55.176,5.859,-41.504,86.426,0.000
1191.000,40.039,6.348,-45.898,73.242,0.000
1195.000,38.574,3.418,-46.875,66.406,0.000
1199.000,53.223,2.441,-40.527,83.496,0.000
1203.000,64.453,6.836,-41.016,81.055,0.000
1207.000,55.176,1.465,-43.457,68.848,0.000
1211.000,59.082,-9.277,-42.480,71.777,0.000
1215.000,54.688,-14.648,-43.457,81.055,0.000
1219.000,57.617,-10.742,-43.457,69.824,0.000
1223.000,63.965,-10.254,-43.945,46.387,0.000
1226.000,51.270,-19.531,-46.387,49.316,0.000
1230.000,51.270,-19.043,-43.457,60.547,0.000
1234.000,72.266,-10.742,-40.039,59.082,0.000
1238.000,91.797,-9.766,-40.039,41.504,0.000
1242.000,89.355,-9.277,-48.340,38.086,0.000
1246.000,67.871,-12.207,-52.246,47.852,0.000
1250.000,43.457,-20.020,-43.457,47.852,0.000
1254.000,28.809,-22.461,-41.016,28.320,0.000
1258.000,18.066,-20.996,-43.457,19.043,0.000
1262.000,29.785,-19.043,-41.504,33.203,0.000
1266.000,41.504,-15.625,-35.645,35.645,0.000
1269.000,32.227,-10.742,-33.203,27.832,0.000
1273.000,6.348,-16.602,-34.668,24.902,0.000
1277.000,-1.953,-20.020,-31.250,23.926,0.000
1281.000,7.812,-19.531,-36.133,23.926,0.000
1285.000,17.090,-18.555,-32.227,29.785,0.000
1289.000,19.531,-17.578,-32.227,23.926,0.000
1293.000,6.836,-23.926,-37.598,20.020,0.000
1297.000,-3.418,-22.949,-27.832,22.949,0.000
1301.000,3.418,-21.484,-19.531,17.090,0.000
1305.000,12.207,-21.973,-25.879,14.160,0.000
1308.000,13.672,-24.902,-27.344,10.742,0.000
1312.000,9.766,-23.926,-27.344,-2.930,0.000
1316.000,19.043,-20.020,-34.668,-18.555,0.000
1320.000,22.461,-20.020,-36.133,-23.926,0.000
1324.000,19.043,-18.555,-34.180,-22.461,0.000
1328.000,28.320,-15.625,-31.250,-9.766,0.000
1332.000,23.438,-18.066,-34.668,-12.695,0.000
1336.000,4.395,-22.461,-40.527,-31.250,0.000
1340.000,-9.766,-22.461,-38.086,-39.551,0.000
1344.000,0.977,-19.531,-37.598,-40.039,0.000
1348.000,14.648,-26.855,-39.551,-36.133,0.000
1351.000,2.441,-29.297,-43.457,-20.996,0.000
1355.000,-5.859,-19.043,-41.992,-12.695,0.000
1359.000,-29.785,-20.996,-32.227,-25.391,0.000
1363.000,-48.340,-25.391,-33.691,-38.086,0.000
1367.000,-31.738,-23.926,-40.527,-37.109,0.000
1371.000,-21.973,-25.391,-40.039,-38.574,0.000
1375.000,-42.480,-27.344,-38.086,-34.180,0.000
1379.000,-51.758,-35.156,-36.133,-28.809,0.000
1383.000,-46.875,-33.691,-36.133,-30.273,0.000
1387.000,-53.223,-36.133,-35.156,-35.156,0.000
1390.000,-50.293,-38.574,-34.180,-31.738,0.000
1394.000,-34.180,-37.109,-39.062,-31.250,0.000
1398.000,-32.715,-40.039,-40.527,-38.086,0.000
1402.000,-30.762,-39.551,-38.574,-34.668,0.000
1406.000,-36.133,-40.527,-38.574,-28.320,0.000
1410.000,-48.340,-39.062,-35.645,-23.438,0.000
1414.000,-44.922,-39.062,-34.180,-17.090,0.000
1418.000,-31.738,-40.527,-37.109,-11.719,0.000
1422.000,-22.949,-38.086,-34.668,-10.254,0.000
1426.000,-16.602,-36.133,-34.180,-4.883,0.000
1430.000,-4.883,-35.156,-35.645,-3.418,0.000
1433.000,-12.207,-33.203,-30.762,-7.324,0.000
1437.000,-12.695,-31.738,-27.344,-12.207,0.000
1441.000,-11.719,-32.227,-28.809,-16.602,0.000
1445.000,-30.762,-33.203,-30.273,-19.531,0.000
1449.000,-22.949,-31.250,-28.320,-15.137,0.000
1453.000,-0.488,-29.297,-27.344,-2.441,0.000
1457.000,4.395,-28.320,-18.066,11.230,0.000
1461.000,-21.973,-33.691,-12.207,-3.906,0.000
1465.000,-56.641,-39.551,-18.555,-27.344,0.000
1469.000,-56.641,-48.340,-20.508,-44.434,0.000
1473.000,-59.570,-42.969,-20.508,-48.340,0.000
1476.000,-79.102,-37.598,-23.438,-49.805,0.000
1480.000,-85.938,-44.922,-27.832,-58.105,0.000
1484.000,-93.750,-60.547,-24.414,-69.336,0.000
1488.000,-103.516,-76.172,-9.277,-90.820,0.000
1492.000,-103.027,-55.176,-4.395,-85.449,0.000
1496.000,-122.070,-52.734,-15.137,-92.285,0.000
1500.000,-141.113,-68.848,-28.320,-109.375,0.000
1504.000,-126.953,-43.945,-41.016,-116.211,0.000
1508.000,-117.188,-51.270,-58.594,-127.441,0.000
1512.000,-119.629,-61.035,-50.293,-117.676,0.000
1515.000,-110.352,-44.434,-37.598,-113.770,0.000
1519.000,-118.652,-49.316,-31.250,-128.906,0.000
1523.000,-126.953,-52.734,-4.883,-120.605,0.000
1527.000,-121.094,-49.316,-4.883,-111.816,0.000
1531.000,-127.930,-57.129,-29.785,-117.676,0.000
1535.000,-125.488,-55.176,-34.180,-108.887,0.000
1539.000,-122.070,-58.105,-19.531,-99.121,0.000
1543.000,-135.742,-60.547,-16.602,-102.539,0.000
1547.000,-125.488,-43.457,-21.973,-85.938,0.000
1551.000,-106.445,-42.480,-19.043,-69.336,0.000
1555.000,-96.680,-46.387,-24.414,-71.777,0.000
1558.000,-81.055,-47.363,-33.203,-76.172,0.000
1562.000,-72.754,-48.340,-26.855,-66.406,0.000
1566.000,-65.918,-46.875,-22.949,-48.828,0.000
1570.000,-65.430,-44.434,-28.320,-50.781,0.000
1574.000,-64.453,-44.434,-27.344,-42.480,0.000
1578.000,-53.223,-41.992,-23.926,-29.297,0.000
1582.000,-55.664,-43.945,-22.461,-22.949,0.000
1586.000,-53.711,-44.922,-16.113,-30.273,0.000
1590.000,-39.551,-39.062,-14.160,-42.969,0.000
1594.000,-34.668,-37.109,-19.043,-42.480,0.000
1598.000,-26.367,-35.156,-21.973,-39.062,0.000
1601.000,-36.621,-35.645,-20.508,-39.062,0.000
1605.000,-46.875,-39.062,-24.902,-45.410,0.000
1609.000,-50.293,-36.621,-27.832,-40.039,0.000
1613.000,-62.500,-33.203,-30.273,-32.715,0.000
1617.000,-51.270,-31.250,-33.203,-34.668,0.000
1621.000,-33.203,-30.762,-30.762,-41.992,0.000
1625.000,-15.625,-28.320,-30.273,-53.711,0.000
1629.000,-12.695,-26.855,-30.762,-52.734,0.000
1633.000,-42.969,-33.203,-31.738,-46.875,0.000
1637.000,-56.152,-33.691,-29.297,-43.945,0.000
1640.000,-45.410,-28.809,-23.438,-46.875,0.000
1644.000,-31.738,-31.250,-23.438,-44.434,0.000
1648.000,-21.973,-30.762,-28.809,-31.738,0.000
1652.000,-44.434,-32.227,-29.785,-30.762,0.000
1656.000,-62.988,-34.180,-26.367,-34.180,0.000
1660.000,-54.199,-28.809,-23.438,-31.738,0.000
1664.000,-42.480,-30.762,-24.414,-32.715,0.000
1668.000,-43.945,-31.250,-23.926,-43.457,0.000
1672.000,-43.457,-27.344,-21.973,-44.434,0.000
1676.000,-39.062,-34.180,-25.879,-40.527,0.000
1680.000,-40.039,-34.180,-25.391,-44.434,0.000
1683.000,-31.738,-20.020,-19.043,-46.387,0.000
1687.000,-26.855,-21.484,-19.531,-46.875,0.000
1691.000,-21.973,-24.902,-21.973,-42.480,0.000
1695.000,-23.438,-20.020,-19.043,-24.902,0.000
1699.000,-38.574,-17.090,-22.949,-15.137,0.000
1703.000,-43.457,-15.137,-23.926,-18.066,0.000
1707.000,-24.414,-11.719,-17.090,-25.391,0.000
1711.000,-10.742,-14.648,-16.113,-34.668,0.000
1715.000,-3.418,-16.602,-16.602,-30.273,0.000
1719.000,-10.254,-18.555,-18.555,-22.461,0.000
1722.000,-31.738,-18.555,-19.043,-18.555,0.000
1726.000,-41.016,-17.578,-19.531,-18.555,0.000
1730.000,-26.855,-17.090,-20.996,-18.555,0.000
1734.000,-11.719,-13.672,-21.973,-11.230,0.000
1738.000,-35.156,-17.090,-21.973,-19.043,0.000
1742.000,-39.062,-17.578,-24.902,-24.414,0.000
1746.000,-19.043,-13.184,-26.855,-19.043,0.000
1750.000,-6.836,-12.207,-26.367,-21.484,0.000
1754.000,5.859,-11.719,-30.273,-26.367,0.000
1758.000,-6.836,-6.348,-29.297,-21.973,0.000
1762.000,-30.762,-4.395,-22.461,-10.254,0.000
1765.000,-23.926,-7.324,-24.902,-9.766,0.000
1769.000,-19.043,-9.766,-24.902,-14.648,0.000
1773.000,-30.762,-10.254,-20.508,-24.414,0.000
1777.000,-32.227,-12.207,-23.438,-32.715,0.000
1781.000,-35.156,-18.066,-21.973,-32.715,0.000
1785.000,-28.320,-16.602,-19.043,-38.086,0.000
1789.000,-29.297,-11.230,-20.508,-41.504,0.000
1793.000,-36.133,-17.578,-23.438,-39.551,0.000
1797.000,-36.133,-22.461,-25.391,-34.668,0.000
1801.000,-39.062,-18.555,-21.484,-34.180,0.000
1805.000,-42.480,-26.367,-22.949,-41.992,0.000
1808.000,-46.875,-32.715,-29.785,-43.945,0.000
1812.000,-28.809,-25.879,-28.320,-32.227,0.000
1816.000,-29.297,-24.902,-21.973,-29.297,0.000
1820.000,-45.898,-20.508,-25.879,-44.434,0.000
1824.000,-53.223,-17.090,-28.320,-40.039,0.000
1828.000,-59.082,-21.484,-27.344,-26.855,0.000
1832.000,-56.641,-20.508,-28.809,-16.602,0.000
1836.000,-40.527,-20.508,-25.879,-19.531,0.000
1840.000,-19.531,-18.555,-25.391,-24.902,0.000
1844.000,1.953,-16.113,-23.438,-11.230,0.000
1847.000,17.090,-16.602,-21.973,-2.441,0.000
1851.000,-15.137,-16.602,-21.484,-16.602,0.000
1855.000,-44.922,-18.066,-19.043,-26.367,0.000
1859.000,-32.715,-17.578,-19.531,-9.766,0.000
1863.000,-20.996,-17.578,-16.113,0.977,0.000
1867.000,-19.043,-19.043,-16.602,2.930,0.000
1871.000,-28.320,-18.555,-19.043,2.441,0.000
1875.000,-13.184,-15.625,-23.438,-4.883,0.000
1879.000,-4.395,-11.230,-22.461,-1.465,0.000
1883.000,-9.766,-11.719,-15.625,-1.465,0.000
1887.000,-2.930,-11.719,-13.672,-16.602,0.000
1890.000,-4.395,-10.254,-13.672,-18.066,0.000
1894.000,13.184,-13.184,-16.602,5.859,0.000
1898.000,28.320,-5.859,-17.090,17.090,0.000
1902.000,13.184,2.930,-18.066,0.000,0.000
1906.000,2.441,-5.371,-24.902,-12.695,0.000
1910.000,11.230,-5.859,-20.996,0.000,0.000
1914.000,32.715,0.488,-18.555,12.695,0.000
1918.000,32.227,2.441,-17.578,4.395,0.000
1922.000,-9.766,2.930,-18.066,2.441,0.000
1926.000,-18.555,5.859,-24.414,16.113,0.000
1930.000,3.906,5.859,-23.438,24.902,0.000
1933.000,2.930,2.930,-20.020,19.043,0.000
1937.000,15.137,2.930,-26.367,11.230,0.000
1941.000,26.855,4.395,-31.738,15.625,0.000
1945.000,25.391,6.348,-28.320,28.809,0.000
1949.000,37.109,4.395,-25.879,33.691,0.000
1953.000,30.762,4.883,-24.902,16.602,0.000
1957.000,42.969,9.277,-23.926,10.254,0.000
1961.000,47.852,3.906,-26.367,28.809,0.000
1965.000,24.902,0.000,-24.902,42.480,0.000
1969.000,35.156,5.859,-27.832,32.227,0.000
1972.000,47.363,7.812,-26.367,26.855,0.000
1976.000,49.316,5.859,-24.414,36.133,0.000
1980.000,51.758,9.766,-23.438,39.551,0.000
1984.000,36.133,5.859,-23.926,38.086,0.000
1988.000,35.156,4.395,-24.902,41.504,0.000
1992.000,65.918,9.766,-20.996,65.918,0.000
1996.000,67.383,9.766,-24.414,74.707,0.000
2000.000,41.016,5.859,-29.785,50.293,0.000
2004.000,41.016,3.906,-28.320,43.945,0.000
2008.000,62.012,9.766,-20.020,61.523,0.000
2012.000,75.684,8.301,-22.461,61.035,0.000
2015.000,84.473,7.324,-24.902,41.504,0.000
2019.000,91.797,7.812,-14.160,37.598,0.000
2023.000,75.195,8.301,-17.090,23.926,0.000
2027.000,35.156,3.418,-20.996,22.461,0.000
2031.000,15.137,0.000,-16.113,46.875,0.000
2035.000,29.297,0.000,-18.555,40.039,0.000
2039.000,38.574,-5.859,-20.508,26.855,0.000
2043.000,32.227,-10.742,-25.879,27.832,0.000
2047.000,37.598,-14.160,-23.438,32.715,0.000
2051.000,44.922,-9.766,-19.043,31.738,0.000
2054.000,33.203,-4.883,-20.996,29.785,0.000
2058.000,17.090,-8.789,-20.996,25.391,0.000
2062.000,7.324,-10.254,-17.090,26.855,0.000
2066.000,5.371,-12.695,-18.066,30.762,0.000
2070.000,5.371,-15.625,-23.926,22.949,0.000
2074.000,12.207,-17.578,-21.973,22.461,0.000
2078.000,32.227,-11.719,-16.113,37.109,0.000
2082.000,34.180,-9.277,-10.254,34.668,0.000
2086.000,14.648,-15.137,-11.230,17.578,0.000
2090.000,23.438,-16.602,-12.695,20.508,0.000
2094.000,26.367,-13.672,-12.207,31.738,0.000
2097.000,28.809,-11.230,-20.020,28.809,0.000
2101.000,17.578,-12.207,-15.625,24.414,0.000
2105.000,-13.184,-15.137,-9.766,24.902,0.000
2109.000,-17.090,-20.020,-17.090,27.344,0.000
2113.000,-9.277,-20.020,-23.438,21.973,0.000
2117.000,-4.395,-20.996,-22.461,4.883,0.000
2121.000,-5.371,-26.367,-25.391,-10.254,0.000
2125.000,1.465,-25.391,-27.832,4.395,0.000
2129.000,12.207,-19.531,-25.879,6.836,0.000
2133.000,2.441,-21.973,-28.809,-13.672,0.000
2137.000,-7.324,-21.484,-31.250,-28.320,0.000
2140.000,-15.625,-19.531,-33.203,-26.855,0.000
2144.000,-25.391,-23.926,-36.133,-17.578,0.000
2148.000,-22.461,-26.367,-38.574,-28.320,0.000
2152.000,-22.949,-25.879,-36.621,-36.621,0.000
2156.000,-41.504,-30.273,-36.621,-42.969,0.000
2160.000,-48.828,-27.344,-41.992,-25.391,0.000
2164.000,-37.598,-25.879,-42.480,-14.160,0.000
2168.000,-20.996,-30.273,-38.086,-22.461,0.000
2172.000,-8.789,-23.926,-39.062,-35.645,0.000
2176.000,-23.926,-23.438,-39.062,-37.598,0.000
2179.000,-25.391,-27.832,-32.715,-22.949,0.000
2183.000,-15.625,-24.902,-27.832,-22.461,0.000
2187.000,-21.484,-25.879,-22.461,-20.020,0.000
2191.000,-29.297,-29.785,-23.438,-9.277,0.000
2195.000,-33.691,-31.250,-25.879,-10.254,0.000
2199.000,-39.062,-32.715,-24.414,-17.090,0.000
2203.000,-45.898,-37.598,-23.926,-25.391,0.000
2207.000,-40.527,-38.574,-22.949,-33.691,0.000
2211.000,-32.227,-34.668,-23.438,-45.410,0.000
2215.000,-25.879,-36.133,-20.508,-49.316,0.000
2219.000,-24.414,-42.969,-20.996,-48.828,0.000
2222.000,-42.480,-41.504,-23.926,-58.105,0.000
2226.000,-64.941,-49.316,-21.484,-73.730,0.000
2230.000,-75.684,-59.570,-26.367,-84.473,0.000
2234.000,-79.590,-55.176,-27.832,-86.426,0.000
2238.000,-84.961,-56.641,-21.973,-90.820,0.000
2242.000,-104.004,-55.176,-18.555,-95.703,0.000
2246.000,-118.164,-52.734,-14.648,-90.332,0.000
2250.000,-122.070,-57.129,-17.090,-90.332,0.000
2254.000,-135.254,-66.895,-20.996,-111.816,0.000
2258.000,-127.441,-67.383,-14.648,-114.258,0.000
2262.000,-110.352,-62.988,-17.090,-98.145,0.000
2265.000,-129.883,-62.500,-23.438,-110.352,0.000
2269.000,-156.738,-63.477,-25.879,-125.977,0.000
2273.000,-153.809,-61.523,-29.785,-129.395,0.000
2277.000,-152.832,-57.617,-24.414,-117.676,0.000
2281.000,-146.484,-57.617,-25.391,-106.934,0.000
2285.000,-128.906,-57.617,-26.367,-106.445,0.000
2289.000,-126.953,-61.035,-29.297,-112.793,0.000
2293.000,-122.559,-63.965,-37.598,-101.562,0.000
2297.000,-117.676,-62.500,-34.668,-83.008,0.000
2301.000,-114.258,-55.664,-32.227,-97.168,0.000
2304.000,-100.586,-49.316,-36.133,-108.398,0.000
2308.000,-99.121,-49.805,-36.621,-101.562,0.000
2312.000,-113.770,-52.246,-37.109,-89.355,0.000
2316.000,-112.793,-51.758,-39.062,-71.289,0.000
2320.000,-102.539,-55.176,-39.062,-64.941,0.000
2324.000,-88.867,-52.734,-39.062,-66.406,0.000
2328.000,-77.148,-39.062,-37.598,-54.199,0.000
2332.000,-63.965,-29.785,-34.668,-41.992,0.000
2336.000,-49.805,-27.344,-34.180,-44.434,0.000
2340.000,-49.316,-32.715,-35.645,-50.781,0.000
2344.000,-55.176,-36.621,-34.180,-36.621,0.000
2347.000,-51.270,-34.180,-34.668,-22.461,0.000
2351.000,-32.227,-30.762,-33.203,-24.902,0.000
2355.000,-28.809,-32.227,-28.809,-33.203,0.000
2359.000,-37.109,-28.320,-31.250,-33.691,0.000
2363.000,-54.199,-23.438,-34.668,-20.996,0.000
2367.000,-62.988,-27.344,-31.738,-17.090,0.000
2371.000,-60.547,-27.832,-31.738,-24.414,0.000
2375.000,-71.289,-21.973,-34.180,-24.414,0.000
2379.000,-63.477,-23.926,-29.785,-8.789,0.000
2383.000,-43.945,-24.414,-28.809,-3.906,0.000
2386.000,-41.016,-21.484,-28.809,-14.160,0.000
2390.000,-39.062,-17.090,-27.832,-14.648,0.000
2394.000,-27.344,-19.531,-27.344,-7.812,0.000
2398.000,-12.695,-23.438,-28.809,-6.348,0.000
2402.000,-22.949,-20.508,-28.320,-12.695,0.000
2406.000,-41.504,-17.578,-22.949,-13.672,0.000
2410.000,-35.645,-20.020,-25.391,-13.184,0.000
2414.000,-23.926,-18.555,-25.391,-5.859,0.000
2418.000,-12.695,-20.996,-21.973,-9.766,0.000
2422.000,-16.113,-26.855,-22.461,-19.531,0.000
2426.000,-26.855,-24.414,-25.879,-33.691,0.000
2429.000,-33.203,-27.344,-31.250,-42.969,0.000
2433.000,-39.062,-25.879,-29.785,-41.016,0.000
2437.000,-26.367,-19.531,-23.438,-34.668,0.000
2441.000,1.465,-17.090,-15.625,-30.273,0.000
2445.000,-10.254,-18.555,-12.695,-22.461,0.000
2449.000,-36.133,-20.020,-20.508,-20.508,0.000
2453.000,-37.109,-16.113,-23.926,-26.855,0.000
2457.000,-27.344,-18.555,-19.531,-26.855,0.000
2461.000,-16.113,-20.508,-20.020,-30.762,0.000
2465.000,-21.484,-14.160,-20.020,-26.855,0.000
2469.000,-51.758,-11.230,-20.508,-23.438,0.000
2472.000,-58.105,-13.184,-23.438,-17.578,0.000
2476.000,-38.574,-18.066,-20.020,-12.695,0.000
2480.000,-24.414,-15.137,-16.602,-7.812,0.000
2484.000,-36.133,-16.602,-17.578,-6.348,0.000
2488.000,-50.781,-24.414,-23.438,-17.578,0.000
2492.000,-40.527,-27.832,-26.367,-20.508,0.000
2496.000,-39.062,-30.762,-26.855,-19.043,0.000
2500.000,-41.016,-29.297,-30.273,-16.113,0.000
2504.000,-46.387,-26.855,-28.809,-18.066,0.000
2508.000,-32.715,-29.297,-31.738,-24.414,0.000
2511.000,-37.109,-28.809,-33.203,-18.555,0.000
2515.000,-52.246,-28.809,-27.832,-6.836,0.000
2519.000,-38.086,-25.879,-26.855,-15.137,0.000
2523.000,-36.621,-21.973,-25.879,-21.484,0.000
2527.000,-40.527,-23.438,-25.391,-23.438,0.000
2531.000,-34.668,-28.809,-28.320,-26.367,0.000
2535.000,-28.809,-23.926,-27.344,-29.297,0.000
2539.000,-28.809,-21.973,-31.738,-40.039,0.000
2543.000,-36.621,-28.320,-35.156,-36.133,0.000
2547.000,-34.180,-28.320,-31.738,-24.902,0.000
2551.000,-27.344,-24.902,-32.227,-30.273,0.000
2554.000,-19.043,-23.926,-30.273,-39.551,0.000
2558.000,-8.789,-22.461,-22.461,-34.180,0.000
2562.000,-11.230,-20.508,-20.508,-31.250,0.000
2566.000,-17.090,-20.020,-22.461,-30.273,0.000
2570.000,-26.367,-17.578,-21.973,-31.738,0.000
2574.000,-37.109,-19.043,-23.438,-23.926,0.000
2578.000,-36.133,-12.695,-24.902,-10.742,0.000
2582.000,-27.832,-13.672,-20.996,-15.625,0.000
2586.000,-24.414,-22.461,-22.461,-28.809,0.000
2590.000,-34.668,-20.508,-22.461,-28.320,0.000
2594.000,-55.176,-23.926,-22.949,-16.602,0.000
2597.000,-67.871,-24.414,-26.367,-9.277,0.000
2601.000,-61.523,-25.879,-23.438,-23.438,0.000
2605.000,-42.969,-24.902,-22.461,-33.203,0.000
2609.000,-31.738,-23.926,-25.391,-21.484,0.000
2613.000,-36.133,-26.855,-22.949,-14.648,0.000
2617.000,-35.645,-21.484,-19.531,-9.766,0.000
2621.000,-26.855,-16.113,-25.879,-21.484,0.000
2625.000,-24.414,-18.066,-30.762,-28.320,0.000
2629.000,-21.973,-19.531,-27.832,-18.555,0.000
2633.000,-21.484,-23.438,-28.809,-21.973,0.000
2636.000,-24.902,-22.461,-29.297,-20.996,0.000
2640.000,-11.230,-19.531,-32.227,-13.672,0.000
2644.000,11.719,-14.160,-27.832,2.930,0.000
2648.000,8.301,-13.672,-25.391,-3.906,0.000
2652.000,-18.555,-19.043,-29.297,-23.926,0.000
2656.000,-34.668,-22.949,-28.809,-32.715,0.000
2660.000,-17.090,-23.438,-26.367,-26.367,0.000
2664.000,5.859,-17.578,-29.785,-21.973,0.000
2668.000,23.926,-17.578,-30.762,-23.438,0.000
2672.000,-6.836,-19.531,-26.855,-6.836,0.000
2676.000,-58.594,-16.602,-21.973,1.465,0.000
2679.000,-45.898,-16.113,-19.043,6.836,0.000
2683.000,-29.785,-16.113,-24.902,5.371,0.000
2687.000,-22.461,-13.672,-24.902,4.883,0.000
2691.000,-11.719,-13.672,-17.578,7.324,0.000
2695.000,-0.488,-11.719,-12.207,21.973,0.000
2699.000,5.371,-9.277,-14.648,29.785,0.000
2703.000,5.859,-3.906,-12.207,17.090,0.000
2707.000,4.883,0.488,-10.742,13.184,0.000
2711.000,16.602,2.441,-10.742,20.508,0.000
2715.000,16.602,-1.953,-11.230,16.113,0.000
2718.000,6.348,-2.930,-5.859,7.812,0.000
2722.000,10.254,3.418,-9.766,-0.488,0.000
2726.000,16.602,0.000,-22.461,0.000,0.000
2730.000,19.531,-2.441,-20.020,9.277,0.000
2734.000,16.113,1.953,-18.555,13.184,0.000
2738.000,18.066,1.465,-20.020,13.184,0.000
2742.000,28.320,3.418,-19.531,29.297,0.000
2746.000,33.203,6.836,-19.531,42.969,0.000
2750.000,36.133,3.418,-14.648,35.645,0.000
2754.000,53.223,3.906,-12.207,36.133,0.000
2758.000,84.961,11.719,-10.742,55.176,0.000
2761.000,68.359,11.230,-9.766,61.523,0.000
2765.000,36.133,5.371,-16.113,46.875,0.000
2769.000,26.855,6.348,-17.578,48.340,0.000
2773.000,13.184,5.859,-21.484,53.223,0.000
2777.000,26.855,9.766,-24.902,51.758,0.000
2781.000,44.434,12.695,-22.949,46.875,0.000
2785.000,40.527,9.766,-28.809,35.156,0.000
2789.000,36.621,6.348,-33.691,29.297,0.000
2793.000,43.945,1.465,-33.203,27.832,0.000
2797.000,56.152,2.441,-34.668,29.785,0.000
2801.000,57.617,0.977,-34.180,24.902,0.000
2804.000,42.969,0.977,-24.414,18.555,0.000
2808.000,14.160,2.441,-22.461,31.250,0.000
2812.000,7.324,-2.441,-27.344,29.785,0.000
2816.000,23.926,-4.395,-22.949,28.320,0.000
2820.000,19.531,-2.930,-22.461,35.645,0.000
2824.000,-5.371,-5.371,-26.367,22.461,0.000
2828.000,8.301,-4.395,-28.320,25.391,0.000
2832.000,17.578,-0.488,-28.320,44.922,0.000
2836.000,8.789,0.977,-23.926,41.504,0.000
2840.000,16.602,3.418,-22.949,18.555,0.000
2843.000,15.137,3.418,-25.391,26.367,0.000
2847.000,23.438,0.000,-32.227,37.598,0.000
2851.000,15.137,-4.395,-30.273,17.578,0.000
2855.000,5.371,-3.906,-24.414,8.789,0.000
2859.000,13.672,-4.395,-23.926,9.277,0.000
2863.000,11.230,-7.324,-28.320,3.418,0.000
2867.000,16.602,-3.906,-31.738,9.277,0.000
2871.000,41.016,0.000,-27.344,16.602,0.000
2875.000,42.480,-0.488,-28.320,-3.418,0.000
2879.000,3.906,-3.906,-27.344,0.488,0.000
2883.000,-20.996,-0.488,-23.926,13.184,0.000
2886.000,-17.090,-0.977,-29.297,8.301,0.000
2890.000,-9.277,-3.906,-28.809,3.418,0.000
2894.000,4.883,-3.906,-33.203,-2.930,0.000
2898.000,22.949,0.488,-35.156,-5.371,0.000
2902.000,25.879,4.395,-26.855,-12.695,0.000
2906.000,19.043,-0.977,-29.785,-6.348,0.000
2910.000,-21.973,-8.789,-31.250,-1.465,0.000
2914.000,-49.805,-15.137,-31.738,-8.301,0.000
2918.000,-24.414,-17.090,-31.250,-10.742,0.000
2922.000,-13.184,-13.184,-27.832,-19.531,0.000
2926.000,-29.785,-13.672,-28.809,-20.996,0.000
2929.000,-27.832,-20.020,-34.180,-18.555,0.000
2933.000,-2.441,-16.113,-30.762,-24.414,0.000
2937.000,-6.836,-14.648,-20.996,-27.344,0.000
2941.000,-24.414,-18.555,-20.996,-25.879,0.000
2945.000,-22.949,-17.090,-24.902,-12.207,0.000
2949.000,-29.785,-18.555,-26.367,-3.906,0.000
2953.000,-37.598,-21.973,-24.902,-19.531,0.000
2957.000,-38.574,-21.484,-25.879,-25.879,0.000
2961.000,-38.574,-20.996,-30.762,-22.949,0.000
2965.000,-20.508,-17.578,-27.832,-19.531,0.000
2968.000,-9.277,-17.578,-24.414,-23.438,0.000
2972.000,-23.438,-22.461,-26.855,-33.691,0.000
2976.000,-22.461,-20.996,-26.367,-35.156,0.000
2980.000,-16.602,-16.602,-23.438,-30.273,0.000
2984.000,-29.785,-20.020,-24.414,-33.691,0.000
2988.000,-42.969,-24.902,-24.414,-38.574,0.000
2992.000,-41.992,-28.320,-28.320,-34.180,0.000
2996.000,-40.527,-31.738,-30.762,-43.457,0.000
3000.000,-37.598,-35.156,-25.879,-54.688,0.000
3004.000,-44.922,-35.645,-24.902,-56.152,0.000
3008.000,-38.574,-33.203,-21.973,-52.734,0.000
3011.000,-24.902,-39.551,-19.043,-45.410,0.000
3015.000,-37.598,-47.852,-23.926,-57.129,0.000
3019.000,-64.941,-46.875,-27.832,-64.941,0.000
3023.000,-79.102,-48.340,-24.414,-55.176,0.000
3027.000,-68.359,-53.223,-24.902,-48.340,0.000
3031.000,-72.266,-56.152,-27.832,-57.129,0.000
3035.000,-84.961,-55.176,-27.344,-71.777,0.000
3039.000,-88.379,-55.664,-29.297,-72.754,0.000
3043.000,-101.074,-57.617,-24.414,-64.941,0.000
3047.000,-107.422,-54.688,-18.066,-57.129,0.000
3050.000,-105.957,-56.641,-13.184,-62.500,0.000
3054.000,-106.934,-63.477,-19.531,-78.125,0.000
3058.000,-113.281,-64.453,-24.902,-83.984,0.000
3062.000,-125.977,-64.453,-18.555,-89.844,0.000
3066.000,-117.676,-58.105,-6.836,-90.332,0.000
3070.000,-104.492,-70.312,-20.020,-96.680,0.000
3074.000,-115.723,-91.309,-53.223,-112.305,0.000
3078.000,-132.812,-83.496,-44.434,-126.953,0.000
3082.000,-143.555,-64.453,-20.996,-143.555,0.000
3086.000,-149.414,-62.012,-13.184,-147.949,0.000
3090.000,-166.992,-68.359,-18.555,-156.738,0.000
3093.000,-170.410,-48.828,-21.484,-168.945,0.000
3097.000,-171.387,-55.664,-36.133,-172.363,0.000
3101.000,-175.781,-64.453,-49.805,-171.387,0.000
3105.000,-164.062,-51.758,-37.598,-169.922,0.000
3109.000,-145.508,-47.852,-23.438,-148.438,0.000
3113.000,-164.062,-54.199,-28.320,-136.719,0.000
3117.000,-172.852,-56.641,-40.039,-136.230,0.000
3121.000,-148.438,-53.711,-37.109,-127.441,0.000
3125.000,-137.207,-48.828,-32.715,-126.465,0.000
3129.000,-125.488,-41.016,-36.133,-109.375,0.000
3133.000,-114.258,-35.645,-36.133,-97.656,0.000
3136.000,-110.352,-37.598,-35.156,-104.004,0.000
3140.000,-96.680,-38.574,-35.645,-95.215,0.000
3144.000,-92.773,-39.062,-37.109,-78.613,0.000
3148.000,-94.727,-36.621,-33.691,-71.289,0.000
3152.000,-88.379,-33.691,-30.273,-65.430,0.000
3156.000,-77.148,-38.086,-31.738,-55.664,0.000
3160.000,-63.965,-34.668,-36.621,-53.223,0.000
3164.000,-54.199,-30.273,-34.668,-41.016,0.000
3168.000,-41.504,-31.738,-32.715,-38.574,0.000
3172.000,-39.062,-29.785,-32.227,-52.246,0.000
3175.000,-42.969,-31.250,-33.203,-52.246,0.000
3179.000,-28.320,-30.273,-36.133,-40.527,0.000
3183.000,-20.996,-28.809,-40.527,-41.016,0.000
3187.000,-11.719,-22.461,-40.039,-49.805,0.000
3191.000,-8.301,-16.113,-37.598,-38.086,0.000
3195.000,-23.438,-18.066,-39.551,-18.066,0.000
3199.000,-31.250,-26.855,-39.551,-15.625,0.000
3203.000,-42.480,-29.785,-40.039,-18.555,0.000
3207.000,-46.875,-24.902,-33.203,-24.902,0.000
3211.000,-46.387,-28.809,-38.086,-34.668,0.000
3215.000,-41.992,-27.832,-40.039,-31.250,0.000
3218.000,-35.156,-22.461,-34.668,-29.785,0.000
3222.000,-21.973,-20.996,-38.574,-27.344,0.000
3226.000,-11.719,-21.484,-38.574,-24.414,0.000
3230.000,-11.719,-23.926,-41.016,-15.137,0.000
3234.000,-10.742,-21.973,-41.992,-8.301,0.000
3238.000,-10.742,-26.855,-38.574,-12.695,0.000
3242.000,-14.160,-30.273,-37.598,-13.184,0.000
3246.000,-12.695,-19.043,-37.109,-15.137,0.000
3250.000,-9.277,-19.043,-36.621,-16.602,0.000
3254.000,-7.324,-23.438,-39.062,-19.043,0.000
3257.000,-15.137,-25.391,-35.645,-17.578,0.000
3261.000,-18.555,-23.926,-31.250,-1.465,0.000
3265.000,-20.996,-21.973,-28.320,3.906,0.000
3269.000,-20.020,-19.531,-31.250,-16.113,0.000
3273.000,-17.090,-25.391,-32.715,-29.785,0.000
3277.000,-15.137,-33.203,-29.785,-28.809,0.000
3281.000,-23.926,-34.668,-31.250,-21.973,0.000
3285.000,-34.668,-31.250,-30.273,-26.855,0.000
3289.000,-25.879,-26.367,-26.367,-38.574,0.000
3293.000,-37.598,-29.297,-28.320,-34.180,0.000
3297.000,-44.434,-32.227,-26.855,-25.391,0.000
3300.000,-32.227,-27.832,-24.902,-31.250,0.000
3304.000,-37.109,-33.203,-28.809,-40.039,0.000
3308.000,-31.738,-35.645,-32.715,-35.156,0.000
3312.000,-15.625,-29.297,-33.203,-21.973,0.000
3316.000,-31.250,-30.762,-30.762,-23.926,0.000
3320.000,-36.621,-31.738,-30.273,-40.039,0.000
3324.000,-27.832,-36.133,-28.320,-41.992,0.000
3328.000,-54.199,-38.574,-29.297,-34.180,0.000
3332.000,-63.477,-31.738,-29.785,-25.879,0.000
3336.000,-51.270,-27.344,-21.973,-27.344,0.000
3340.000,-59.082,-27.832,-21.973,-32.715,0.000
3343.000,-67.383,-28.320,-25.391,-26.367,0.000
3347.000,-66.895,-30.762,-25.879,-25.879,0.000
3351.000,-64.453,-32.227,-23.438,-40.527,0.000
3355.000,-50.293,-23.438,-20.020,-42.969,0.000
3359.000,-21.973,-21.973,-21.484,-27.344,0.000
3363.000,-10.742,-32.227,-25.879,-17.090,0.000
3367.000,-20.996,-30.273,-30.762,-23.926,0.000
3371.000,-24.414,-19.531,-27.344,-35.645,0.000
3375.000,-23.926,-13.184,-23.926,-31.738,0.000
3379.000,-29.785,-11.230,-21.973,-25.391,0.000
3382.000,-32.227,-19.531,-23.926,-28.809,0.000
3386.000,-23.926,-18.555,-23.926,-22.949,0.000
3390.000,-18.555,-14.648,-21.484,-25.391,0.000
3394.000,-13.184,-15.625,-25.391,-29.297,0.000
3398.000,-13.672,-18.555,-28.809,-17.578,0.000
3402.000,-10.254,-19.531,-24.902,-17.578,0.000
3406.000,-17.090,-17.578,-19.531,-22.949,0.000
3410.000,-37.109,-19.531,-18.555,-26.855,0.000
3414.000,-38.086,-19.043,-19.531,-28.320,0.000
3418.000,-29.297,-17.090,-21.484,-35.156,0.000
