timestamp,TP9,AF7,AF8,TP10,Right AUX
0.000,-27.832,-18.555,-25.391,-10.742,0.000
4.000,-26.855,-22.461,-26.367,-19.043,0.000
8.000,-10.742,-27.344,-23.926,-16.113,0.000
12.000,-5.371,-10.254,-25.879,-16.602,0.000
16.000,-6.836,-0.977,-31.250,-8.789,0.000
20.000,-10.742,-11.719,-34.180,-9.766,0.000
23.000,-10.254,-12.695,-30.762,-18.066,0.000
27.000,-9.766,-10.254,-29.297,-12.207,0.000
31.000,-19.043,-17.578,-31.250,-13.672,0.000
35.000,-29.297,-22.949,-29.297,-30.273,0.000
39.000,-33.203,-19.043,-31.738,-33.691,0.000
43.000,-20.508,-16.602,-27.832,-24.902,0.000
47.000,-17.578,-20.996,-23.926,-24.902,0.000
51.000,-42.969,-27.832,-25.879,-30.273,0.000
55.000,-44.922,-26.855,-23.438,-33.203,0.000
59.000,-28.320,-29.297,-21.973,-34.668,0.000
62.000,-17.090,-32.715,-25.879,-36.621,0.000
66.000,-25.391,-32.715,-25.879,-32.715,0.000
70.000,-48.340,-36.621,-22.949,-36.621,0.000
74.000,-43.945,-39.551,-19.531,-37.598,0.000
78.000,-33.691,-35.156,-15.625,-31.738,0.000
82.000,-35.645,-30.762,-17.578,-26.855,0.000
86.000,-28.320,-28.809,-15.137,-10.254,0.000
90.000,-28.320,-32.227,-11.719,-15.625,0.000
94.000,-25.879,-31.250,-14.648,-23.438,0.000
98.000,-17.578,-26.367,-16.113,-13.184,0.000
102.000,-33.691,-29.785,-20.020,-15.625,0.000
105.000,-33.691,-28.320,-20.508,-22.461,0.000
109.000,-16.113,-21.484,-20.020,-30.273,0.000
113.000,-15.625,-21.973,-16.602,-20.508,0.000
117.000,-20.996,-24.902,-14.648,-4.395,0.000
121.000,-24.902,-23.438,-10.254,-10.742,0.000
125.000,-33.203,-19.531,-12.695,-21.484,0.000
129.000,-41.016,-22.949,-20.020,-22.949,0.000
133.000,-30.273,-22.949,-18.555,-12.207,0.000
137.000,-32.715,-23.438,-17.578,-18.555,0.000
141.000,-36.133,-25.879,-19.043,-23.926,0.000
145.000,-32.227,-23.438,-21.973,-26.367,0.000
148.000,-29.297,-19.043,-20.508,-25.391,0.000
152.000,-20.020,-18.066,-17.578,-20.996,0.000
156.000,-28.320,-16.602,-23.438,-37.109,0.000
160.000,-36.133,-15.625,-26.367,-40.039,0.000
164.000,-37.598,-20.020,-24.902,-27.832,0.000
168.000,-38.574,-20.996,-26.855,-23.438,0.000
172.000,-31.250,-17.090,-23.926,-22.461,0.000
176.000,-32.715,-19.043,-21.973,-25.391,0.000
180.000,-37.109,-18.555,-22.461,-21.973,0.000
184.000,-24.902,-20.996,-22.949,-18.555,0.000
187.000,-25.879,-24.902,-23.926,-21.484,0.000
191.000,-48.340,-23.926,-22.461,-26.855,0.000
195.000,-41.504,-26.855,-24.902,-16.113,0.000
199.000,-18.066,-23.438,-32.227,-5.859,0.000
203.000,-8.301,-19.531,-27.344,-7.324,0.000
207.000,-9.277,-15.625,-18.555,-9.277,0.000
211.000,-23.438,-23.926,-18.555,-12.695,0.000
215.000,-35.156,-34.668,-20.020,-14.648,0.000
219.000,-43.457,-35.645,-24.414,-19.531,0.000
223.000,-35.645,-36.621,-28.809,-19.531,0.000
227.000,-31.250,-36.621,-28.320,-22.949,0.000
230.000,-38.574,-35.645,-25.391,-22.949,0.000
234.000,-39.062,-32.227,-26.367,-10.742,0.000
238.000,-38.086,-34.180,-24.902,-10.254,0.000
242.000,-28.809,-35.645,-18.555,-10.254,0.000
246.000,-38.086,-33.203,-14.648,-13.672,0.000
250.000,-52.734,-37.598,-17.090,-23.926,0.000
254.000,-47.852,-37.109,-22.461,-32.715,0.000
258.000,-30.762,-29.297,-25.879,-36.133,0.000
262.000,-22.461,-27.344,-24.902,-26.367,0.000
266.000,-32.227,-34.180,-24.414,-21.484,0.000
270.000,-41.504,-37.109,-28.809,-35.156,0.000
273.000,-40.039,-33.691,-34.668,-49.805,0.000
277.000,-21.973,-30.762,-30.762,-44.434,0.000
281.000,-21.973,-30.273,-30.762,-34.180,0.000
285.000,-33.203,-28.320,-38.086,-41.504,0.000
289.000,-30.762,-24.902,-35.645,-39.062,0.000
293.000,-41.016,-26.367,-30.762,-29.297,0.000
297.000,-35.645,-27.344,-37.598,-22.949,0.000
301.000,-33.691,-29.785,-41.992,-19.043,0.000
305.000,-41.016,-30.273,-39.062,-29.785,0.000
309.000,-29.785,-27.344,-33.691,-25.879,0.000
312.000,-20.996,-16.602,-29.785,-10.742,0.000
316.000,-16.602,-15.137,-29.785,-15.625,0.000
320.000,-14.160,-18.555,-26.855,-20.996,0.000
324.000,-8.789,-13.672,-21.973,-22.949,0.000
328.000,-5.371,-12.695,-23.926,-26.855,0.000
332.000,-19.531,-17.090,-33.203,-23.926,0.000
336.000,-32.227,-17.090,-32.715,-19.043,0.000
340.000,-20.996,-12.207,-28.809,-26.367,0.000
344.000,-13.184,-13.672,-28.809,-24.414,0.000
348.000,-22.461,-16.602,-29.297,-15.137,0.000
352.000,-23.926,-21.973,-26.367,-15.625,0.000
355.000,-26.367,-26.367,-22.461,-24.902,0.000
359.000,-31.250,-31.738,-23.926,-28.809,0.000
363.000,-24.414,-29.785,-21.973,-23.926,0.000
367.000,-23.926,-16.602,-22.461,-21.973,0.000
371.000,-26.855,-29.785,-23.438,-32.227,0.000
375.000,-33.203,-40.039,-23.926,-39.062,0.000
379.000,-42.969,-27.344,-27.832,-35.156,0.000
383.000,-42.480,-25.391,-24.414,-29.785,0.000
387.000,-41.504,-28.320,-23.926,-31.738,0.000
391.000,-37.598,-28.320,-23.926,-33.203,0.000
395.000,-20.020,-22.949,-18.555,-37.109,0.000
398.000,4.883,-24.902,-14.160,-24.902,0.000
402.000,5.371,-22.949,-14.160,-7.812,0.000
406.000,-20.020,-16.113,-15.137,-14.648,0.000
410.000,-29.785,-23.438,-15.625,-21.973,0.000
414.000,-19.531,-27.344,-16.602,-12.207,0.000
418.000,-16.113,-23.926,-18.066,-4.883,0.000
422.000,-10.254,-20.020,-14.648,-6.836,0.000
426.000,-18.066,-20.996,-11.719,-7.812,0.000
430.000,-16.113,-25.391,-10.742,-5.371,0.000
434.000,-11.230,-24.414,-11.719,-1.465,0.000
437.000,-6.836,-26.367,-16.602,-5.371,0.000
441.000,0.000,-26.367,-14.160,-14.160,0.000
445.000,0.977,-24.902,-13.184,-17.578,0.000
449.000,-3.906,-23.438,-15.137,-10.742,0.000
453.000,-20.996,-30.273,-16.602,-12.695,0.000
457.000,-23.926,-35.645,-20.020,-25.391,0.000
461.000,-20.020,-33.203,-22.461,-24.902,0.000
465.000,-19.043,-29.785,-19.531,-14.648,0.000
469.000,-19.531,-25.879,-21.484,-14.160,0.000
473.000,-24.902,-23.926,-25.391,-23.926,0.000
477.000,-21.484,-23.926,-23.926,-23.438,0.000
480.000,-15.137,-30.762,-27.832,-25.391,0.000
484.000,-12.207,-38.574,-27.344,-26.855,0.000
488.000,-9.277,-29.785,-25.391,-19.043,0.000
492.000,-6.348,-17.578,-25.879,-21.484,0.000
496.000,-12.695,-27.344,-26.367,-27.832,0.000
500.000,-23.438,-34.180,-26.367,-16.113,0.000
504.000,-29.785,-31.250,-22.949,-13.672,0.000
508.000,-37.109,-32.715,-21.484,-23.926,0.000
512.000,-34.668,-30.273,-19.531,-23.926,0.000
516.000,-22.949,-29.785,-18.555,-18.066,0.000
519.000,-21.973,-35.156,-22.949,-17.578,0.000
523.000,-28.320,-36.621,-18.066,-27.832,0.000
527.000,-25.391,-30.273,-11.230,-30.762,0.000
531.000,-13.184,-27.832,-19.043,-27.832,0.000
535.000,-11.719,-27.832,-26.367,-22.949,0.000
539.000,-10.742,-25.391,-28.320,-24.414,0.000
543.000,-16.113,-29.297,-28.320,-30.273,0.000
547.000,-31.250,-33.203,-30.762,-24.902,0.000
551.000,-26.367,-29.297,-27.832,-11.230,0.000
555.000,-23.926,-27.832,-28.809,-17.578,0.000
559.000,-22.949,-30.273,-27.832,-33.691,0.000
562.000,-8.301,-30.273,-21.973,-26.367,0.000
566.000,0.000,-23.926,-21.973,-8.301,0.000
570.000,0.977,-17.090,-23.438,-5.371,0.000
574.000,-16.602,-23.926,-23.926,-1.953,0.000
578.000,-21.973,-30.273,-19.531,-7.812,0.000
582.000,-20.996,-24.902,-22.461,-19.043,0.000
586.000,-12.695,-36.621,-26.855,-17.090,0.000
590.000,-13.184,-41.992,-26.367,-25.391,0.000
594.000,-24.414,-28.320,-30.273,-37.109,0.000
598.000,-15.137,-25.879,-26.855,-25.879,0.000
602.000,-25.391,-26.855,-22.461,-29.785,0.000
605.000,-46.875,-22.461,-18.555,-34.668,0.000
609.000,-44.922,-20.508,-15.137,-28.809,0.000
613.000,-35.645,-20.508,-19.043,-29.785,0.000
617.000,-31.738,-23.926,-17.578,-27.344,0.000
621.000,-31.250,-29.785,-20.508,-34.180,0.000
625.000,-24.902,-26.367,-24.414,-41.504,0.000
629.000,-22.461,-25.391,-19.043,-31.250,0.000
633.000,-18.066,-26.855,-17.578,-20.020,0.000
637.000,-18.555,-27.344,-13.672,-18.066,0.000
641.000,-14.648,-27.832,-12.207,-17.090,0.000
644.000,0.977,-27.344,-14.648,-12.207,0.000
648.000,7.324,-23.438,-13.672,3.906,0.000
652.000,0.000,-20.508,-11.230,14.160,0.000
656.000,-10.742,-22.461,-17.578,7.812,0.000
660.000,4.883,-19.043,-20.020,10.742,0.000
664.000,22.949,-20.996,-18.066,20.508,0.000
668.000,26.855,-29.785,-20.020,22.461,0.000
672.000,33.691,-24.414,-20.508,13.184,0.000
676.000,34.180,-23.438,-20.020,1.953,0.000
680.000,20.996,-30.273,-30.273,9.766,0.000
684.000,1.953,-24.414,-32.227,23.926,0.000
687.000,-6.836,-10.742,-13.184,17.578,0.000
691.000,-2.930,-9.766,-17.090,-2.930,0.000
695.000,5.859,-28.809,-29.785,-8.789,0.000
699.000,5.859,-31.738,-28.320,-4.395,0.000
703.000,-7.812,-22.461,-21.484,-14.648,0.000
707.000,-19.043,-16.113,-18.066,-25.391,0.000
711.000,-6.348,-14.160,-13.184,-8.789,0.000
715.000,-6.836,-12.207,-11.230,4.883,0.000
719.000,-21.484,-19.531,-20.508,-0.977,0.000
723.000,-32.715,-42.480,-27.344,-14.160,0.000
727.000,-38.574,-41.504,-20.508,-17.090,0.000
730.000,-27.344,-27.832,-20.020,-13.184,0.000
734.000,-21.973,-25.879,-23.438,-13.184,0.000
738.000,-14.160,-24.414,-21.973,-18.555,0.000
742.000,0.488,-26.855,-24.414,-14.648,0.000
746.000,4.883,-21.973,-25.879,-8.301,0.000
750.000,2.441,-20.020,-25.391,-4.395,0.000
754.000,-13.672,-22.461,-26.855,-9.277,0.000
758.000,-8.301,-16.602,-29.785,-15.625,0.000
762.000,-4.883,-16.602,-27.344,-8.301,0.000
766.000,-13.184,-16.602,-24.414,-4.883,0.000
769.000,-3.906,-13.184,-26.855,-8.301,0.000
773.000,4.883,-11.230,-29.297,-13.184,0.000
777.000,5.859,-18.555,-25.879,-3.906,0.000
781.000,0.488,-27.832,-28.320,-7.324,0.000
785.000,-8.789,-24.414,-27.832,-12.695,0.000
789.000,-8.789,-29.297,-22.461,-10.742,0.000
793.000,-17.090,-31.738,-24.414,-16.113,0.000
797.000,-23.926,-21.484,-24.902,-14.648,0.000
801.000,-19.531,-20.508,-25.879,-16.113,0.000
805.000,-20.020,-24.902,-22.461,-15.625,0.000
809.000,-11.230,-22.949,-18.066,-14.648,0.000
812.000,-15.137,-20.508,-17.578,-5.859,0.000
816.000,-16.113,-24.902,-14.648,-6.836,0.000
820.000,-14.160,-23.438,-15.625,-18.555,0.000
824.000,-14.160,-16.113,-24.414,-22.949,0.000
828.000,-6.836,-18.066,-20.508,-17.578,0.000
832.000,-5.371,-20.020,-19.043,-15.625,0.000
836.000,-5.859,-20.020,-22.949,-16.113,0.000
840.000,-7.812,-20.508,-21.973,-19.043,0.000
844.000,-21.973,-20.020,-21.484,-30.762,0.000
848.000,-16.602,-21.973,-20.020,-26.367,0.000
852.000,-9.766,-18.555,-15.137,-19.531,0.000
855.000,-17.578,-18.066,-13.672,-26.855,0.000
859.000,-20.508,-22.949,-15.625,-24.414,0.000
863.000,-21.484,-29.785,-17.578,-17.578,0.000
867.000,-30.273,-35.645,-20.996,-13.184,0.000
871.000,-37.598,-30.762,-24.902,-13.184,0.000
875.000,-34.180,-25.391,-22.949,-20.996,0.000
879.000,-28.320,-27.832,-25.879,-25.879,0.000
883.000,-26.855,-29.297,-27.832,-14.160,0.000
887.000,-30.762,-30.762,-18.555,-0.488,0.000
891.000,-46.387,-35.156,-18.555,-28.320,0.000
894.000,-50.781,-32.227,-22.949,-50.293,0.000
898.000,-41.992,-32.715,-22.949,-30.762,0.000
902.000,-42.480,-32.715,-24.414,-26.855,0.000
906.000,-49.316,-31.250,-21.484,-43.457,0.000
910.000,-49.316,-29.785,-16.602,-44.434,0.000
914.000,-37.598,-29.297,-20.020,-37.109,0.000
918.000,-34.668,-28.809,-23.438,-37.109,0.000
922.000,-36.621,-22.461,-22.949,-45.410,0.000
926.000,-39.062,-15.137,-19.531,-50.781,0.000
930.000,-49.805,-21.973,-16.113,-49.805,0.000
934.000,-61.035,-26.367,-21.484,-40.527,0.000
937.000,-55.664,-22.949,-24.902,-31.250,0.000
941.000,-58.594,-21.973,-23.926,-52.246,0.000
945.000,-58.105,-23.926,-22.949,-57.129,0.000
949.000,-62.500,-29.297,-22.949,-45.410,0.000
953.000,-71.777,-31.250,-25.879,-47.852,0.000
957.000,-54.199,-18.555,-13.184,-45.410,0.000
961.000,-51.758,-20.508,-13.672,-59.570,0.000
965.000,-54.688,-27.832,-18.066,-58.105,0.000
969.000,-71.289,-28.320,-18.555,-57.617,0.000
973.000,-82.031,-28.809,-20.996,-71.777,0.000
977.000,-79.102,-26.367,-18.066,-77.637,0.000
980.000,-71.289,-32.227,-18.555,-67.871,0.000
984.000,-62.500,-29.785,-15.625,-54.688,0.000
988.000,-71.777,-23.438,-10.742,-47.363,0.000
992.000,-79.102,-30.273,-16.113,-50.293,0.000
996.000,-60.059,-31.738,-17.090,-51.758,0.000
1000.000,-49.805,-29.785,-11.719,-32.227,0.000
1004.000,-56.641,-26.855,-6.836,-29.297,0.000
1008.000,-48.828,-21.973,-10.742,-41.504,0.000
1012.000,-34.180,-20.508,-16.113,-31.738,0.000
1016.000,-30.273,-19.531,-15.137,-22.461,0.000
1019.000,-47.363,-21.973,-16.113,-23.926,0.000
1023.000,-51.758,-27.344,-16.113,-30.762,0.000
1027.000,-33.691,-24.414,-16.113,-33.203,0.000
1031.000,-21.484,-17.578,-18.066,-11.230,0.000
1035.000,-25.879,-22.949,-21.973,-5.371,0.000
1039.000,-21.484,-22.461,-20.508,-18.555,0.000
1043.000,-19.531,-20.508,-19.043,-17.578,0.000
1047.000,-22.949,-21.973,-21.484,-8.301,0.000
1051.000,-19.531,-19.531,-20.508,-8.301,0.000
1055.000,-14.160,-18.555,-16.113,-18.066,0.000
1059.000,-25.879,-15.137,-14.648,-19.531,0.000
1062.000,-20.020,-18.555,-17.090,-15.625,0.000
1066.000,-8.301,-20.020,-18.066,-14.160,0.000
1070.000,-32.715,-16.113,-16.113,-9.277,0.000
1074.000,-43.945,-16.602,-17.578,-9.766,0.000
1078.000,-35.645,-19.043,-20.996,-14.648,0.000
1082.000,-30.273,-22.949,-25.391,-10.742,0.000
1086.000,-29.785,-23.438,-23.926,-13.184,0.000
1090.000,-28.320,-25.391,-22.461,-22.461,0.000
1094.000,-18.066,-24.414,-21.484,-20.508,0.000
1098.000,-16.113,-19.531,-19.043,-17.578,0.000
1102.000,-20.996,-19.043,-16.113,-17.090,0.000
1105.000,-24.902,-20.508,-14.648,-14.648,0.000
1109.000,-25.391,-20.996,-15.137,-18.066,0.000
1113.000,-20.996,-21.973,-14.648,-17.578,0.000
1117.000,-16.602,-24.414,-18.555,-13.184,0.000
1121.000,-7.812,-29.297,-15.137,-15.625,0.000
1125.000,-7.324,-29.785,-14.648,-28.320,0.000
1129.000,-15.137,-28.320,-20.508,-24.902,0.000
1133.000,-10.742,-25.391,-18.555,-9.277,0.000
1137.000,-3.906,-21.973,-20.996,-9.766,0.000
1141.000,-15.137,-21.484,-19.043,-3.906,0.000
1144.000,-31.738,-19.531,-13.184,-16.602,0.000
1148.000,-45.898,-20.996,-20.996,-37.598,0.000
1152.000,-38.086,-18.066,-21.973,-27.832,0.000
1156.000,-29.297,-17.090,-15.137,-36.133,0.000
1160.000,-52.734,-19.043,-16.602,-50.781,0.000
1164.000,-58.594,-15.137,-16.113,-32.715,0.000
1168.000,-40.039,-17.578,-15.625,-24.902,0.000
1172.000,-41.504,-19.531,-20.020,-39.062,0.000
1176.000,-48.828,-20.508,-18.555,-36.133,0.000
1180.000,-46.875,-24.902,-20.508,-23.926,0.000
1184.000,-56.152,-28.320,-24.414,-29.297,0.000
1187.000,-65.918,-25.391,-21.484,-35.156,0.000
1191.000,-47.852,-16.602,-18.555,-35.156,0.000
1195.000,-35.156,-14.648,-20.508,-35.156,0.000
1199.000,-39.062,-19.043,-22.461,-35.645,0.000
1203.000,-37.598,-20.020,-19.043,-33.691,0.000
1207.000,-32.715,-15.625,-16.602,-31.738,0.000
1211.000,-31.250,-14.648,-14.648,-23.926,0.000
1215.000,-33.203,-18.555,-18.066,-9.277,0.000
1219.000,-44.434,-20.508,-19.043,-12.207,0.000
1223.000,-46.875,-17.578,-15.137,-16.113,0.000
1227.000,-35.156,-17.578,-13.184,-0.488,0.000
1230.000,-30.762,-29.785,-12.207,2.930,0.000
1234.000,-36.133,-27.832,-16.113,-6.836,0.000
1238.000,-31.250,-19.043,-15.137,-0.977,0.000
1242.000,-23.926,-20.020,-17.090,0.000,0.000
1246.000,-16.602,-24.902,-20.996,-9.766,0.000
1250.000,-15.137,-23.438,-24.414,-7.812,0.000
1254.000,-13.672,-16.113,-22.949,-2.930,0.000
1258.000,-3.906,-18.555,-20.508,-8.789,0.000
1262.000,-0.488,-20.508,-20.996,-6.836,0.000
1266.000,4.395,-16.602,-20.508,2.930,0.000
1269.000,1.953,-17.090,-22.949,4.395,0.000
1273.000,-13.184,-22.461,-27.344,-5.859,0.000
1277.000,-3.906,-20.020,-23.438,-14.160,0.000
1281.000,1.953,-12.207,-20.508,-7.324,0.000
1285.000,-6.348,-11.230,-20.508,5.371,0.000
1289.000,-6.836,-13.672,-21.973,15.137,0.000
1293.000,-16.113,-13.184,-26.367,7.324,0.000
1297.000,-16.113,-19.043,-29.785,1.953,0.000
1301.000,-7.812,-28.320,-28.809,1.465,0.000
1305.000,-3.906,-24.414,-28.320,-6.348,0.000
1309.000,-1.953,-17.578,-28.809,-10.742,0.000
1312.000,-20.508,-12.695,-27.344,0.488,0.000
1316.000,-20.996,-11.719,-25.391,16.113,0.000
1320.000,-14.648,-17.578,-26.855,11.719,0.000
1324.000,-14.648,-19.043,-23.926,-4.395,0.000
1328.000,-4.883,-19.531,-25.391,-3.906,0.000
1332.000,-2.441,-25.879,-23.926,0.000,0.000
1336.000,-14.160,-23.926,-25.391,-1.953,0.000
1340.000,-18.066,-15.137,-26.855,-15.137,0.000
1344.000,-21.484,-17.578,-27.344,-18.066,0.000
1348.000,-30.273,-19.531,-25.391,-6.348,0.000
1352.000,-24.414,-24.902,-22.949,-7.324,0.000
1355.000,-11.230,-27.832,-26.367,-17.578,0.000
1359.000,-3.906,-24.414,-28.320,-18.066,0.000
1363.000,-11.719,-24.414,-27.344,-9.277,0.000
1367.000,-21.484,-20.020,-26.855,-3.418,0.000
1371.000,-26.367,-22.949,-29.785,-10.742,0.000
1375.000,-24.902,-21.484,-28.320,-20.508,0.000
1379.000,-13.672,-18.555,-24.414,-11.719,0.000
1383.000,-9.766,-35.645,-21.973,3.906,0.000
1387.000,-5.859,-28.320,-20.996,-3.418,0.000
1391.000,-0.977,-11.719,-18.066,-7.812,0.000
1394.000,-6.348,-17.578,-20.020,-5.371,0.000
1398.000,-22.461,-23.438,-24.902,-14.648,0.000
1402.000,-30.273,-18.555,-22.461,-13.184,0.000
1406.000,-20.996,-15.137,-20.996,-9.277,0.000
1410.000,-22.461,-21.484,-23.438,-15.137,0.000
1414.000,-19.531,-21.484,-19.531,-10.254,0.000
1418.000,-14.648,-18.555,-12.207,-2.930,0.000
1422.000,-10.254,-14.160,-13.672,-12.207,0.000
1426.000,-13.672,-13.672,-15.625,-16.602,0.000
1430.000,-22.949,-21.484,-15.625,-12.207,0.000
1434.000,-17.090,-20.508,-14.648,-2.441,0.000
1437.000,-19.043,-11.719,-7.812,4.395,0.000
1441.000,-25.879,-9.766,-7.324,-7.812,0.000
1445.000,-20.996,-22.949,-8.301,-14.160,0.000
1449.000,-23.438,-29.297,-13.672,-16.113,0.000
1453.000,-24.414,-18.066,-16.113,-18.555,0.000
1457.000,-5.371,-17.578,-12.207,-14.160,0.000
1461.000,0.000,-19.043,-12.207,-17.578,0.000
1465.000,6.836,-13.672,-10.742,-14.160,0.000
1469.000,13.672,-14.648,-9.766,-11.719,0.000
1473.000,-9.277,-20.020,-6.348,-21.973,0.000
1477.000,-23.926,-22.461,-11.230,-19.531,0.000
1480.000,-20.508,-23.438,-21.484,-9.766,0.000
1484.000,-9.766,-22.461,-20.996,-12.695,0.000
1488.000,-10.742,-15.137,-16.602,-26.855,0.000
1492.000,-21.484,-11.719,-18.555,-19.531,0.000
1496.000,-15.137,-16.113,-16.602,-4.883,0.000
1500.000,-7.812,-23.926,-13.184,-0.977,0.000
1504.000,-8.789,-17.578,-17.090,-6.348,0.000
1508.000,-11.719,-13.672,-23.926,-14.648,0.000
1512.000,-24.414,-16.602,-29.785,-14.160,0.000
1516.000,-21.484,-20.996,-30.762,-8.789,0.000
1519.000,-10.254,-24.902,-30.762,-3.906,0.000
1523.000,-6.836,-18.555,-31.250,-10.254,0.000
1527.000,-2.441,-18.066,-24.902,-2.930,0.000
1531.000,-5.371,-29.785,-27.344,0.488,0.000
1535.000,-10.254,-30.273,-25.879,-0.977,0.000
1539.000,-17.578,-25.391,-20.020,-2.930,0.000
1543.000,-18.555,-25.879,-22.949,-5.859,0.000
1547.000,-23.438,-27.832,-19.531,3.418,0.000
1551.000,-26.367,-34.668,-18.066,7.324,0.000
1555.000,-24.902,-44.922,-21.484,-5.859,0.000
1559.000,-21.973,-44.922,-20.508,-16.113,0.000
1562.000,-15.137,-37.598,-20.508,-19.043,0.000
1566.000,-8.789,-29.785,-22.949,-18.066,0.000
1570.000,3.418,-27.832,-17.578,-3.906,0.000
1574.000,17.578,-21.973,-10.742,8.789,0.000
1578.000,-18.066,-25.879,-13.184,-7.324,0.000
1582.000,-52.246,-39.062,-20.020,-19.043,0.000
1586.000,-33.691,-34.180,-15.137,-9.766,0.000
1590.000,-32.715,-38.574,-15.137,-8.789,0.000
1594.000,-30.273,-47.852,-20.996,-9.766,0.000
1598.000,-18.066,-40.527,-10.254,8.301,0.000
1601.000,-31.738,-35.645,-5.859,14.648,0.000
1605.000,-34.180,-30.273,-14.648,-4.883,0.000
1609.000,-30.273,-37.109,-25.391,-27.832,0.000
1613.000,-27.344,-29.785,-18.555,-27.832,0.000
1617.000,-17.090,-16.113,-7.812,-20.020,0.000
1621.000,-17.090,-40.527,-10.742,-30.762,0.000
1625.000,-41.992,-44.922,-24.414,-41.504,0.000
1629.000,-56.641,-33.203,-33.203,-41.992,0.000
1633.000,-52.246,-37.109,-28.809,-33.691,0.000
1637.000,-45.410,-38.574,-25.391,-32.715,0.000
1641.000,-33.203,-28.809,-19.043,-31.250,0.000
1644.000,-24.902,-13.184,-13.672,-17.578,0.000
1648.000,-18.066,-17.578,-18.066,-10.254,0.000
1652.000,-19.043,-21.973,-21.484,-20.996,0.000
1656.000,-21.973,-17.578,-18.555,-27.344,0.000
1660.000,-17.090,-21.973,-14.160,-20.020,0.000
1664.000,-13.672,-22.949,-17.578,-10.742,0.000
1668.000,-14.648,-18.066,-19.043,-11.230,0.000
1672.000,-21.973,-20.508,-14.648,-14.648,0.000
1676.000,-20.508,-22.461,-13.672,-9.766,0.000
1680.000,-24.414,-21.973,-14.160,-13.672,0.000
1684.000,-38.086,-25.879,-16.602,-18.555,0.000
1687.000,-31.250,-31.250,-22.949,-24.414,0.000
1691.000,-31.738,-38.574,-23.926,-29.297,0.000
1695.000,-24.414,-40.039,-28.320,-16.113,0.000
1699.000,-10.254,-39.551,-25.879,-3.418,0.000
1703.000,-7.324,-41.504,-15.625,-1.465,0.000
1707.000,-21.973,-41.016,-14.160,-8.301,0.000
1711.000,-44.922,-38.574,-14.160,-2.930,0.000
1715.000,-43.945,-35.156,-17.578,3.418,0.000
1719.000,-34.668,-25.391,-13.672,5.859,0.000
1723.000,-22.461,-23.438,-9.277,18.066,0.000
1726.000,-14.648,-34.180,-12.695,8.301,0.000
1730.000,-14.160,-30.762,-9.766,5.371,0.000
1734.000,-26.855,-32.227,-11.230,11.719,0.000
1738.000,-24.902,-38.574,-17.578,13.672,0.000
1742.000,-10.254,-36.621,-15.137,4.883,0.000
1746.000,-10.742,-34.180,-8.301,3.906,0.000
1750.000,-26.367,-33.691,-9.766,13.672,0.000
1754.000,-39.551,-32.715,-10.742,6.836,0.000
1758.000,-34.668,-34.668,-13.672,-5.371,0.000
1762.000,-25.391,-30.762,-9.277,-10.254,0.000
1766.000,-11.230,-25.391,-2.930,-7.324,0.000
1769.000,-6.348,-24.414,-6.348,-4.395,0.000
1773.000,-16.602,-24.414,-4.395,-6.836,0.000
1777.000,-20.996,-20.508,-2.441,-7.324,0.000
1781.000,-25.879,-24.414,-4.883,-4.883,0.000
1785.000,-31.250,-21.973,-6.836,-8.301,0.000
1789.000,-19.531,-15.137,-5.859,-13.672,0.000
1793.000,-7.324,-13.184,-6.836,-17.578,0.000
1797.000,-17.090,-11.719,-15.137,-18.555,0.000
1801.000,-23.926,-14.648,-15.137,-11.719,0.000
1805.000,-28.320,-15.137,-11.719,-24.902,0.000
1809.000,-21.973,-16.602,-13.672,-30.273,0.000
1812.000,-17.578,-13.672,-16.113,-15.625,0.000
1816.000,-33.203,-16.113,-25.391,-30.762,0.000
1820.000,-26.855,-17.578,-26.855,-40.527,0.000
1824.000,-31.738,-13.672,-22.949,-40.527,0.000
1828.000,-56.641,-14.648,-27.832,-55.176,0.000
1832.000,-53.711,-21.484,-30.762,-54.688,0.000
1836.000,-36.133,-25.391,-34.180,-44.922,0.000
1840.000,-30.762,-20.996,-36.133,-50.293,0.000
1844.000,-35.156,-19.043,-34.180,-59.570,0.000
1848.000,-45.410,-24.414,-33.691,-57.129,0.000
1851.000,-52.734,-26.367,-30.762,-51.758,0.000
1855.000,-48.828,-21.973,-28.320,-49.805,0.000
1859.000,-50.293,-23.926,-25.391,-49.316,0.000
1863.000,-49.316,-31.738,-24.414,-50.781,0.000
1867.000,-62.500,-32.715,-20.020,-42.480,0.000
1871.000,-83.496,-34.668,-21.973,-41.504,0.000
1875.000,-71.289,-31.738,-24.902,-41.016,0.000
1879.000,-62.500,-29.785,-24.902,-38.086,0.000
1883.000,-62.012,-30.762,-27.832,-31.738,0.000
1887.000,-53.223,-31.738,-26.367,-34.668,0.000
1891.000,-52.246,-29.785,-23.438,-45.898,0.000
1894.000,-49.805,-27.832,-23.926,-39.551,0.000
1898.000,-45.410,-25.879,-24.414,-33.203,0.000
1902.000,-46.387,-28.320,-23.438,-34.668,0.000
1906.000,-38.574,-30.273,-28.320,-47.363,0.000
1910.000,-30.762,-25.879,-35.645,-54.199,0.000
1914.000,-29.297,-22.461,-28.320,-44.434,0.000
1918.000,-35.645,-22.461,-23.926,-38.574,0.000
1922.000,-33.691,-20.996,-24.414,-43.457,0.000
1926.000,-24.902,-20.020,-21.973,-43.945,0.000
1930.000,-17.090,-20.996,-21.484,-28.809,0.000
1934.000,-12.207,-19.531,-20.020,-16.602,0.000
1937.000,0.000,-15.625,-14.160,-19.531,0.000
1941.000,7.812,-9.766,-14.648,-25.391,0.000
1945.000,-7.324,-7.812,-16.602,-10.742,0.000
1949.000,-6.836,-12.207,-13.184,7.324,0.000
1953.000,-14.160,-13.184,-9.766,5.859,0.000
1957.000,-24.414,-8.301,-7.812,0.488,0.000
1961.000,-24.414,-9.766,-5.371,0.000,0.000
1965.000,-32.227,-15.137,-8.789,0.000,0.000
1969.000,-36.133,-18.555,-15.625,-9.766,0.000
1973.000,-34.668,-15.137,-15.625,-25.391,0.000
1976.000,-31.738,-9.277,-9.277,-19.531,0.000
1980.000,-22.949,-13.184,-13.184,-12.695,0.000
1984.000,-20.996,-18.066,-19.531,-13.184,0.000
1988.000,-17.578,-18.066,-20.996,-7.324,0.000
1992.000,-22.461,-20.996,-23.438,-7.324,0.000
1996.000,-56.641,-21.973,-29.297,-38.574,0.000
2000.000,-66.406,-22.949,-35.156,-55.664,0.000
2004.000,-64.941,-30.273,-36.133,-59.082,0.000
2008.000,-72.754,-37.109,-36.621,-71.777,0.000
2012.000,-63.477,-36.133,-42.480,-65.918,0.000
2016.000,-61.035,-35.156,-48.340,-55.176,0.000
2019.000,-62.988,-35.156,-45.410,-57.129,0.000
2023.000,-69.824,-36.621,-42.969,-69.336,0.000
2027.000,-69.824,-39.551,-41.504,-59.570,0.000
2031.000,-61.035,-41.016,-43.457,-44.922,0.000
2035.000,-62.988,-38.574,-43.945,-44.922,0.000
2039.000,-57.617,-32.227,-40.039,-46.387,0.000
2043.000,-44.922,-29.297,-39.062,-53.223,0.000
2047.000,-45.898,-32.715,-41.504,-51.758,0.000
2051.000,-42.480,-30.273,-34.668,-39.551,0.000
2055.000,-42.480,-26.367,-29.785,-49.316,0.000
2058.000,-36.621,-26.855,-35.156,-55.176,0.000
2062.000,-24.414,-24.414,-32.227,-38.574,0.000
2066.000,-21.484,-25.391,-25.879,-21.973,0.000
2070.000,-38.574,-30.762,-22.949,-19.531,0.000
2074.000,-54.199,-33.203,-21.973,-31.738,0.000
2078.000,-37.598,-23.438,-18.066,-20.020,0.000
2082.000,-31.250,-18.066,-9.277,5.859,0.000
2086.000,-28.320,-19.531,-3.418,8.789,0.000
2090.000,-24.902,-21.484,-8.301,-1.953,0.000
2094.000,-20.996,-18.555,-12.695,-3.906,0.000
2098.000,-15.137,-15.625,-13.672,-1.953,0.000
2101.000,-15.137,-10.742,-12.695,-4.883,0.000
2105.000,-14.648,-5.859,-6.348,-12.695,0.000
2109.000,-10.742,-2.441,-5.371,-12.695,0.000
2113.000,-11.719,-0.488,-9.766,-3.418,0.000
2117.000,-14.648,-8.789,-13.672,-0.977,0.000
2121.000,-14.160,-9.766,-13.184,-6.348,0.000
2125.000,-20.508,-8.789,-8.789,-5.859,0.000
2129.000,-22.949,-8.789,-10.254,-2.441,0.000
2133.000,-18.066,-6.836,-15.137,-5.859,0.000
2137.000,-12.695,-6.348,-19.531,-12.207,0.000
2141.000,-16.113,-8.789,-18.555,-12.207,0.000
2144.000,-17.090,-9.766,-17.090,-9.277,0.000
2148.000,-15.137,-7.812,-15.625,-4.883,0.000
2152.000,-28.320,-19.043,-16.602,-10.254,0.000
2156.000,-22.949,-20.020,-16.113,-11.230,0.000
2160.000,-23.926,-11.719,-15.625,-16.602,0.000
2164.000,-32.715,-16.602,-20.508,-22.461,0.000
2168.000,-30.762,-20.508,-21.973,-21.484,0.000
2172.000,-18.555,-21.484,-21.973,-26.855,0.000
2176.000,-12.207,-23.926,-27.344,-28.809,0.000
2180.000,-19.531,-22.461,-27.832,-21.973,0.000
2184.000,-19.531,-24.414,-22.461,-12.695,0.000
2187.000,-28.809,-29.297,-24.414,-3.418,0.000
2191.000,-45.898,-28.809,-29.297,-11.230,0.000
2195.000,-46.875,-36.621,-28.809,-11.719,0.000
2199.000,-50.293,-42.480,-29.785,-9.277,0.000
2203.000,-50.781,-39.062,-33.691,-17.090,0.000
2207.000,-46.875,-28.320,-37.109,-30.273,0.000
2211.000,-45.898,-22.949,-36.621,-32.227,0.000
2215.000,-40.527,-22.949,-31.250,-20.020,0.000
2219.000,-44.434,-22.461,-31.250,-20.996,0.000
2223.000,-52.246,-21.973,-30.762,-29.297,0.000
2226.000,-45.410,-20.020,-27.344,-28.809,0.000
2230.000,-39.062,-19.531,-22.949,-19.043,0.000
2234.000,-47.852,-21.973,-21.973,-24.414,0.000
2238.000,-49.805,-25.391,-25.879,-34.180,0.000
2242.000,-47.852,-22.949,-25.391,-27.832,0.000
2246.000,-43.457,-21.484,-22.949,-13.184,0.000
2250.000,-37.109,-22.461,-20.996,-4.883,0.000
2254.000,-20.020,-21.973,-20.020,-8.301,0.000
2258.000,-13.184,-20.508,-20.020,-20.020,0.000
2262.000,-30.273,-19.531,-17.578,-16.113,0.000
2266.000,-32.715,-19.043,-18.555,4.395,0.000
2269.000,-15.625,-21.973,-20.508,-0.977,0.000
2273.000,-5.859,-12.695,-22.461,-19.043,0.000
2277.000,0.000,-6.836,-26.855,-18.066,0.000
2281.000,-3.418,-9.766,-26.855,-13.184,0.000
2285.000,-14.160,-9.766,-24.414,-11.719,0.000
2289.000,-16.602,-13.184,-20.996,-10.742,0.000
2293.000,-16.113,-18.066,-20.508,-15.625,0.000
2297.000,-16.602,-18.066,-19.043,-12.207,0.000
2301.000,-20.020,-17.090,-18.555,-2.930,0.000
2305.000,-6.348,-12.207,-18.066,-4.883,0.000
2308.000,-4.883,-8.301,-11.719,-5.371,0.000
2312.000,-18.555,-16.602,-6.348,-0.488,0.000
2316.000,-19.043,-24.902,-10.742,-1.953,0.000
2320.000,-21.973,-24.414,-11.719,-4.883,0.000
2324.000,-23.926,-20.508,-6.836,-5.859,0.000
2328.000,-19.043,-20.996,-1.465,-6.348,0.000
2332.000,-15.625,-23.926,-2.441,-6.836,0.000
2336.000,-16.602,-26.855,-4.395,-2.441,0.000
2340.000,-13.184,-27.344,-2.441,-12.207,0.000
2344.000,-8.301,-25.391,-8.301,-15.625,0.000
2348.000,-3.906,-23.438,-13.672,-5.859,0.000
2351.000,-3.418,-20.508,-8.789,2.930,0.000
2355.000,-19.043,-26.855,-10.254,-10.742,0.000
2359.000,-24.414,-33.691,-20.996,-23.926,0.000
2363.000,-21.484,-28.809,-22.949,-10.742,0.000
2367.000,-18.555,-23.438,-15.625,-2.930,0.000
2371.000,-13.672,-28.320,-19.043,-14.648,0.000
2375.000,-4.883,-29.785,-23.438,-17.578,0.000
2379.000,-1.953,-21.484,-19.043,-9.277,0.000
2383.000,-15.625,-22.949,-19.531,-6.836,0.000
2387.000,-18.555,-27.344,-24.414,-21.484,0.000
2391.000,-16.113,-23.438,-24.414,-27.832,0.000
2394.000,-21.484,-22.461,-23.438,-18.066,0.000
2398.000,-12.207,-26.367,-26.855,-2.930,0.000
2402.000,-1.465,-23.926,-24.902,3.418,0.000
2406.000,-21.973,-30.762,-19.531,-13.184,0.000
2410.000,-30.273,-36.621,-23.926,-33.691,0.000
2414.000,-20.508,-31.250,-24.414,-28.809,0.000
2418.000,-25.879,-26.367,-24.902,-27.832,0.000
2422.000,-26.855,-23.926,-23.926,-29.785,0.000
2426.000,-16.113,-22.949,-14.648,-26.855,0.000
2430.000,-22.949,-28.320,-10.742,-30.273,0.000
2433.000,-32.715,-31.738,-12.207,-29.297,0.000
2437.000,-34.180,-42.480,-8.789,-34.180,0.000
2441.000,-44.434,-46.875,-8.789,-45.898,0.000
2445.000,-56.152,-34.180,-20.996,-49.805,0.000
2449.000,-50.781,-25.879,-20.020,-38.086,0.000
2453.000,-30.762,-42.480,-9.277,-22.949,0.000
2457.000,-42.969,-39.551,-8.301,-40.527,0.000
2461.000,-57.617,-22.949,-21.484,-58.105,0.000
2465.000,-59.570,-29.297,-26.855,-52.246,0.000
2469.000,-61.035,-36.133,-31.738,-43.945,0.000
2473.000,-54.688,-32.227,-27.832,-40.039,0.000
2476.000,-53.711,-44.434,-18.555,-48.828,0.000
2480.000,-54.199,-39.551,-22.949,-48.340,0.000
2484.000,-39.062,-20.996,-25.391,-31.738,0.000
2488.000,-34.180,-16.602,-30.273,-36.133,0.000
2492.000,-34.180,-25.879,-29.297,-34.180,0.000
2496.000,-35.645,-33.203,-21.973,-16.602,0.000
2500.000,-34.668,-27.344,-20.508,-10.742,0.000
2504.000,-30.273,-29.785,-20.996,-13.184,0.000
2508.000,-22.461,-24.902,-19.043,-19.043,0.000
2512.000,-19.043,-22.949,-20.508,-20.996,0.000
2516.000,-15.625,-23.926,-19.043,-8.789,0.000
2519.000,-20.996,-21.973,-16.602,1.465,0.000
2523.000,-32.227,-30.762,-19.043,-6.836,0.000
2527.000,-26.367,-34.180,-19.531,-11.719,0.000
2531.000,-16.602,-33.691,-19.531,-4.883,0.000
2535.000,-22.461,-28.809,-20.020,2.930,0.000
2539.000,-27.832,-28.809,-26.367,-10.742,0.000
2543.000,-25.879,-30.762,-28.320,-21.484,0.000
2547.000,-23.438,-27.344,-24.902,-7.324,0.000
2551.000,-23.926,-31.250,-21.973,-2.930,0.000
2555.000,-22.461,-36.133,-20.508,-13.184,0.000
2558.000,-11.230,-30.273,-19.043,-18.555,0.000
2562.000,0.488,-26.855,-18.066,-13.184,0.000
2566.000,-8.301,-38.086,-27.832,-25.879,0.000
2570.000,-11.719,-34.668,-37.109,-42.480,0.000
2574.000,-20.020,-28.320,-34.668,-41.016,0.000
2578.000,-57.617,-34.180,-36.133,-36.133,0.000
2582.000,-61.523,-38.574,-40.527,-26.367,0.000
2586.000,-49.805,-39.551,-36.133,-24.902,0.000
2590.000,-50.293,-35.156,-32.715,-35.645,0.000
2594.000,-38.086,-31.738,-33.203,-37.598,0.000
2598.000,-27.832,-36.621,-33.203,-26.855,0.000
2601.000,-38.574,-32.227,-31.250,-30.273,0.000
2605.000,-38.086,-27.344,-28.320,-31.738,0.000
2609.000,-35.645,-37.598,-23.438,-15.625,0.000
2613.000,-38.574,-27.832,-24.902,-13.184,0.000
2617.000,-25.879,-22.461,-26.855,-11.719,0.000
2621.000,-15.625,-21.484,-21.973,-10.254,0.000
2625.000,-16.602,-18.555,-21.484,-15.625,0.000
2629.000,-14.648,-19.531,-20.996,-10.742,0.000
2633.000,-13.184,-21.973,-25.391,0.488,0.000
2637.000,-13.672,-29.785,-30.273,-15.625,0.000
2641.000,-19.043,-31.738,-25.391,-25.879,0.000
2644.000,-11.719,-26.855,-26.367,-19.043,0.000
2648.000,-2.441,-20.020,-28.320,-16.602,0.000
2652.000,-15.625,-22.461,-20.996,-7.812,0.000
2656.000,-15.625,-23.926,-22.949,-20.996,0.000
2660.000,-4.395,-20.996,-25.879,-25.879,0.000
2664.000,-5.859,-21.973,-22.461,-12.695,0.000
2668.000,-21.484,-23.926,-19.043,-11.230,0.000
2672.000,-20.996,-19.531,-18.066,-20.020,0.000
2676.000,-13.184,-18.066,-17.578,-32.715,0.000
2680.000,-18.555,-17.578,-20.996,-33.203,0.000
2683.000,-30.273,-20.996,-25.391,-23.926,0.000
2687.000,-31.738,-20.996,-26.367,-28.320,0.000
2691.000,-27.344,-17.578,-26.367,-32.715,0.000
2695.000,-14.160,-20.020,-21.484,-19.043,0.000
2699.000,-8.789,-20.996,-19.043,-15.625,0.000
2703.000,-7.324,-21.484,-19.531,-24.414,0.000
2707.000,-6.348,-23.926,-20.020,-21.973,0.000
2711.000,-8.301,-16.602,-21.484,-20.020,0.000
2715.000,-19.043,-17.578,-20.508,-18.555,0.000
2719.000,-36.133,-27.832,-20.996,-20.508,0.000
2723.000,-39.551,-27.344,-19.531,-29.297,0.000
2726.000,-33.691,-24.414,-16.113,-28.809,0.000
2730.000,-33.691,-27.344,-22.461,-23.926,0.000
2734.000,-39.062,-28.320,-25.391,-12.695,0.000
2738.000,-41.992,-25.391,-20.996,-17.578,0.000
2742.000,-31.250,-22.949,-21.973,-22.949,0.000
2746.000,-20.020,-20.996,-28.320,-22.949,0.000
2750.000,-18.555,-21.973,-28.809,-29.785,0.000
2754.000,-18.066,-20.508,-26.367,-33.203,0.000
2758.000,-8.789,-15.137,-23.438,-37.598,0.000
2762.000,-6.836,-18.066,-29.297,-36.133,0.000
2766.000,-14.160,-22.461,-29.785,-22.461,0.000
2769.000,-16.602,-16.602,-23.926,-15.625,0.000
2773.000,-22.949,-14.160,-24.414,-22.461,0.000
2777.000,-21.484,-18.066,-27.832,-20.508,0.000
2781.000,-11.719,-18.066,-28.809,-14.160,0.000
2785.000,-3.418,-18.066,-25.391,-11.719,0.000
2789.000,-5.859,-13.184,-22.461,-13.672,0.000
2793.000,-14.648,-14.648,-23.926,-26.855,0.000
2797.000,-7.324,-18.555,-19.043,-21.484,0.000
2801.000,1.465,-13.672,-17.090,-3.906,0.000
2805.000,0.000,-16.113,-19.531,3.418,0.000
2808.000,12.207,-12.207,-17.578,11.230,0.000
2812.000,-2.441,-9.277,-12.695,1.465,0.000
2816.000,-31.250,-20.996,-15.137,-15.625,0.000
2820.000,-28.320,-28.320,-22.461,-20.996,0.000
2824.000,-21.484,-29.785,-28.320,-31.250,0.000
2828.000,-22.461,-37.109,-28.809,-15.137,0.000
2832.000,-24.902,-37.598,-20.996,0.488,0.000
2836.000,-36.133,-33.203,-21.484,-11.719,0.000
2840.000,-42.969,-30.273,-23.438,-30.762,0.000
2844.000,-18.555,-32.715,-24.902,-28.320,0.000
2848.000,-0.977,-32.227,-24.414,-21.484,0.000
2851.000,-21.973,-28.809,-20.020,-28.809,0.000
2855.000,-22.461,-28.809,-22.461,-32.227,0.000
2859.000,-20.508,-26.367,-26.367,-39.062,0.000
2863.000,-28.320,-26.367,-28.320,-35.645,0.000
2867.000,-30.762,-24.414,-27.344,-15.625,0.000
2871.000,-39.551,-25.391,-22.949,-25.879,0.000
2875.000,-38.086,-31.738,-25.391,-42.969,0.000
2879.000,-32.227,-27.832,-25.879,-31.738,0.000
2883.000,-42.480,-27.832,-30.273,-34.180,0.000
2887.000,-45.410,-27.344,-34.180,-39.551,0.000
2891.000,-47.852,-21.484,-31.738,-34.668,0.000
2894.000,-42.969,-20.996,-28.809,-29.785,0.000
2898.000,-29.297,-23.926,-28.809,-35.156,0.000
2902.000,-17.090,-21.484,-29.297,-35.645,0.000
2906.000,-22.949,-14.648,-28.809,-28.320,0.000
2910.000,-45.898,-18.066,-26.855,-29.297,0.000
2914.000,-38.574,-21.484,-27.832,-26.855,0.000
2918.000,-29.297,-19.043,-27.832,-20.020,0.000
2922.000,-33.691,-21.484,-21.484,-21.973,0.000
2926.000,-34.180,-20.508,-15.625,-20.020,0.000
2930.000,-42.480,-21.973,-17.090,-21.484,0.000
2933.000,-47.363,-24.414,-20.508,-21.484,0.000
2937.000,-37.109,-22.949,-16.602,-16.602,0.000
2941.000,-34.180,-24.902,-17.578,-23.438,0.000
2945.000,-22.461,-24.902,-20.508,-19.043,0.000
2949.000,-16.602,-23.438,-21.973,-8.789,0.000
2953.000,-34.668,-26.367,-21.484,-19.531,0.000
2957.000,-31.738,-30.762,-19.531,-26.855,0.000
2961.000,-20.020,-23.438,-17.090,-20.508,0.000
2965.000,-14.648,-19.043,-14.648,-9.766,0.000
2969.000,-19.531,-27.832,-16.602,-15.625,0.000
2973.000,-19.531,-25.391,-20.020,-25.879,0.000
2976.000,-16.113,-18.555,-16.113,-15.625,0.000
2980.000,-18.555,-20.020,-12.207,-9.766,0.000
2984.000,-22.949,-22.949,-16.602,-18.555,0.000
2988.000,-27.344,-18.066,-22.949,-20.996,0.000
2992.000,-20.996,-16.113,-24.414,-16.602,0.000
2996.000,-19.531,-29.297,-20.996,-16.113,0.000
3000.000,-22.461,-28.320,-20.020,-10.254,0.000
3004.000,-33.691,-11.719,-24.902,-13.672,0.000
3008.000,-37.109,-10.742,-26.855,-22.949,0.000
3012.000,-36.133,-21.484,-24.414,-24.414,0.000
3015.000,-32.227,-19.043,-23.926,-19.531,0.000
3019.000,-30.273,-12.695,-21.973,-20.508,0.000
3023.000,-22.949,-16.113,-20.020,-28.320,0.000
3027.000,-8.789,-13.184,-23.926,-23.926,0.000
3031.000,-27.832,-9.766,-20.996,-24.414,0.000
3035.000,-41.016,-11.719,-18.555,-32.715,0.000
3039.000,-32.227,-12.207,-22.461,-34.180,0.000
3043.000,-40.527,-17.578,-21.973,-36.621,0.000
3047.000,-57.617,-25.391,-20.508,-35.645,0.000
3051.000,-43.457,-20.996,-18.066,-32.715,0.000
3055.000,-30.762,-17.090,-18.555,-31.738,0.000
3058.000,-29.297,-17.578,-22.949,-37.598,0.000
3062.000,-31.738,-20.996,-20.996,-28.809,0.000
3066.000,-37.109,-20.020,-19.531,-18.066,0.000
3070.000,-37.109,-19.531,-22.949,-24.902,0.000
3074.000,-45.898,-24.414,-24.902,-33.203,0.000
3078.000,-53.223,-29.297,-28.809,-34.668,0.000
3082.000,-48.340,-32.227,-23.438,-23.926,0.000
3086.000,-47.852,-32.227,-19.043,-20.508,0.000
3090.000,-41.016,-30.273,-24.414,-33.691,0.000
3094.000,-29.785,-33.203,-25.391,-30.273,0.000
3098.000,-17.090,-30.762,-20.508,-16.602,0.000
3101.000,-12.695,-28.809,-16.602,-13.672,0.000
3105.000,-14.160,-28.320,-20.020,-18.555,0.000
3109.000,-9.277,-22.461,-21.484,-25.879,0.000
3113.000,-4.395,-16.113,-18.066,-19.043,0.000
3117.000,-17.578,-20.508,-15.625,-10.742,0.000
3121.000,-15.625,-26.855,-20.020,-18.066,0.000
3125.000,-13.672,-38.086,-23.926,-33.691,0.000
3129.000,-23.926,-41.016,-24.902,-29.297,0.000
3133.000,-25.391,-29.785,-23.926,-13.184,0.000
3137.000,-27.832,-21.484,-25.879,-13.672,0.000
3140.000,-31.738,-24.414,-25.879,-24.414,0.000
3144.000,-23.926,-25.391,-23.438,-22.461,0.000
3148.000,-5.859,-21.973,-24.902,-8.789,0.000
3152.000,-10.254,-27.344,-26.367,-3.418,0.000
3156.000,-10.254,-23.438,-21.484,-7.812,0.000
3160.000,-3.418,-11.719,-13.672,0.000,0.000
3164.000,-25.879,-18.066,-16.113,5.371,0.000
3168.000,-32.227,-22.949,-22.949,-5.859,0.000
3172.000,-17.090,-14.160,-27.344,-17.090,0.000
3176.000,-7.324,-14.648,-25.879,-13.672,0.000
3180.000,-15.625,-23.926,-22.461,-10.742,0.000
3183.000,-23.926,-24.902,-26.367,-12.695,0.000
3187.000,-27.832,-23.438,-24.414,-10.742,0.000
3191.000,-26.367,-21.973,-20.508,-16.602,0.000
3195.000,-23.926,-22.461,-21.973,-15.625,0.000
3199.000,-19.043,-27.344,-20.996,-9.277,0.000
3203.000,1.953,-22.461,-17.578,-0.488,0.000
3207.000,-4.395,-21.484,-15.625,-1.953,0.000
3211.000,-31.250,-33.691,-17.578,-24.902,0.000
3215.000,-33.203,-33.691,-16.602,-18.066,0.000
3219.000,-24.414,-28.809,-11.230,-0.488,0.000
3223.000,-29.785,-26.855,-16.113,-16.113,0.000
3226.000,-34.668,-22.461,-18.555,-31.738,0.000
3230.000,-23.438,-22.949,-18.066,-23.438,0.000
3234.000,-29.785,-27.344,-18.066,-20.996,0.000
3238.000,-40.039,-36.133,-17.090,-36.621,0.000
3242.000,-54.688,-39.062,-28.320,-50.781,0.000
3246.000,-67.383,-31.738,-30.273,-43.945,0.000
3250.000,-57.129,-30.762,-17.090,-33.203,0.000
3254.000,-54.688,-37.598,-14.648,-42.969,0.000
3258.000,-56.152,-35.156,-19.043,-56.152,0.000
3262.000,-58.105,-33.203,-20.508,-52.246,0.000
3265.000,-52.246,-38.086,-15.625,-34.668,0.000
3269.000,-41.016,-44.922,-15.625,-28.809,0.000
3273.000,-53.711,-42.480,-20.508,-41.504,0.000
3277.000,-58.594,-27.344,-15.137,-41.016,0.000
3281.000,-51.270,-26.367,-17.090,-41.016,0.000
3285.000,-47.852,-30.273,-23.438,-37.109,0.000
3289.000,-51.758,-31.250,-25.391,-48.340,0.000
3293.000,-50.781,-35.156,-28.809,-55.664,0.000
3297.000,-40.039,-28.809,-32.715,-37.598,0.000
3301.000,-31.250,-24.902,-29.297,-29.297,0.000
3305.000,-25.391,-32.715,-27.832,-27.832,0.000
3308.000,-12.207,-34.668,-25.879,-22.949,0.000
3312.000,-11.719,-32.715,-22.461,-14.160,0.000
3316.000,-24.902,-28.809,-27.832,-7.812,0.000
3320.000,-25.879,-22.949,-25.879,-17.578,0.000
3324.000,-13.184,-20.020,-13.672,-14.648,0.000
3328.000,-22.949,-22.949,-14.160,-10.742,0.000
3332.000,-34.668,-28.809,-17.578,-11.230,0.000
3336.000,-25.879,-26.855,-22.949,-13.672,0.000
3340.000,-16.602,-21.973,-21.973,-19.531,0.000
3344.000,-12.207,-24.902,-16.113,-12.207,0.000
3348.000,-6.836,-27.832,-18.066,-4.395,0.000
3351.000,-12.207,-24.902,-19.043,-12.207,0.000
3355.000,-20.996,-25.391,-16.113,-21.973,0.000
3359.000,-27.344,-29.297,-20.996,-31.250,0.000
3363.000,-24.902,-25.391,-20.020,-22.461,0.000
3367.000,-24.902,-25.391,-17.090,-14.160,0.000
3371.000,-32.715,-25.391,-15.625,-9.766,0.000
3375.000,-27.832,-20.020,-16.113,-11.230,0.000
3379.000,-19.043,-24.414,-23.926,-21.484,0.000
3383.000,-5.859,-23.438,-24.902,-14.648,0.000
3387.000,0.488,-13.672,-18.555,-10.254,0.000
3390.000,-2.930,-6.348,-12.207,-9.277,0.000
3394.000,-7.812,-8.301,-12.207,-2.930,0.000
3398.000,-18.555,-14.160,-16.113,3.906,0.000
3402.000,-33.691,-19.531,-19.043,-4.395,0.000
3406.000,-20.996,-22.949,-20.996,-16.113,0.000
3410.000,-18.555,-21.484,-21.484,-17.578,0.000
3414.000,-32.715,-19.531,-18.066,-4.395,0.000
3418.000,-39.551,-18.555,-19.043,4.883,0.000
