timestamp,TP9,AF7,AF8,TP10,Right AUX
1673805070.289,-32.227,-35.645,-31.738,-20.020,0.000
1673805070.293,-27.832,-31.738,-29.297,-22.461,0.000
1673805070.297,-21.484,-33.203,-23.438,-21.973,0.000
1673805070.301,-20.020,-30.762,-27.344,-17.090,0.000
1673805070.305,-20.020,-27.832,-34.180,-17.090,0.000
1673805070.309,-20.996,-28.809,-36.621,-22.461,0.000
1673805070.313,-25.391,-27.832,-38.086,-22.949,0.000
1673805070.317,-22.461,-20.020,-35.645,-16.113,0.000
1673805070.320,-15.625,-14.648,-33.691,-12.207,0.000
1673805070.324,-1.953,-21.484,-31.250,-7.812,0.000
1673805070.328,0.488,-26.367,-26.855,-10.742,0.000
1673805070.332,-13.672,-26.367,-26.367,-15.137,0.000
1673805070.336,-14.160,-29.785,-30.273,-11.719,0.000
1673805070.340,-17.090,-28.320,-33.203,-9.277,0.000
1673805070.344,-8.789,-28.320,-30.762,-10.254,0.000
1673805070.348,0.977,-26.855,-28.320,-7.812,0.000
1673805070.352,-18.555,-25.391,-32.227,-6.836,0.000
1673805070.356,-33.691,-28.320,-30.273,-6.348,0.000
1673805070.360,-39.551,-23.926,-28.320,-4.395,0.000
1673805070.363,-37.598,-17.090,-28.320,-3.906,0.000
1673805070.367,-20.508,-18.555,-22.949,-5.859,0.000
1673805070.371,-8.789,-24.902,-26.367,-5.371,0.000
1673805070.375,-8.301,-25.879,-33.203,-2.930,0.000
1673805070.379,-7.812,-24.902,-25.391,-5.859,0.000
1673805070.383,-0.488,-22.949,-18.555,-10.254,0.000
1673805070.387,-7.812,-25.391,-21.484,0.977,0.000
1673805070.391,-12.695,-30.762,-27.832,-4.395,0.000
1673805070.395,1.953,-27.344,-28.320,-13.672,0.000
1673805070.399,-19.531,-32.227,-29.785,-9.766,0.000
1673805070.403,-37.109,-41.016,-32.715,-13.184,0.000
1673805070.406,-17.578,-33.691,-33.203,-8.301,0.000
1673805070.410,-9.277,-27.832,-31.738,-6.836,0.000
1673805070.414,-13.184,-27.832,-34.668,-15.625,0.000
1673805070.418,-8.789,-22.949,-38.574,-13.184,0.000
1673805070.422,-13.672,-20.996,-33.691,-5.371,0.000
1673805070.426,-12.207,-16.602,-24.414,-1.465,0.000
1673805070.430,3.906,-12.207,-22.461,3.418,0.000
1673805070.434,-0.977,-14.160,-24.902,-2.441,0.000
1673805070.438,-0.488,-17.090,-27.344,-9.766,0.000
1673805070.442,0.000,-24.902,-27.344,-4.883,0.000
1673805070.445,-15.625,-34.668,-23.926,4.883,0.000
1673805070.449,-23.438,-37.598,-21.484,-2.441,0.000
1673805070.453,-26.367,-25.391,-27.832,-14.160,0.000
1673805070.457,-19.043,-15.625,-29.297,-5.371,0.000
1673805070.461,-18.066,-16.602,-22.461,2.930,0.000
1673805070.465,-8.789,-13.184,-20.020,-1.465,0.000
1673805070.469,-3.418,-14.648,-18.555,-10.742,0.000
1673805070.473,-2.930,-14.160,-17.578,4.395,0.000
1673805070.477,-4.883,-15.625,-15.137,12.207,0.000
1673805070.481,0.488,-21.973,-13.672,-0.488,0.000
1673805070.485,4.883,-22.461,-13.184,-8.789,0.000
1673805070.488,-3.418,-18.066,-13.184,-13.672,0.000
1673805070.492,-8.789,-15.625,-15.137,-11.719,0.000
1673805070.496,-10.254,-22.949,-16.602,-20.020,0.000
1673805070.500,4.395,-26.367,-13.672,-22.949,0.000
1673805070.504,20.020,-20.020,-11.719,-17.090,0.000
1673805070.508,8.301,-24.414,-16.113,-14.648,0.000
1673805070.512,-25.879,-20.020,-17.578,-16.113,0.000
1673805070.516,-33.203,-10.742,-20.020,-18.066,0.000
1673805070.520,-29.297,-15.625,-24.414,-21.484,0.000
1673805070.524,-26.367,-17.578,-20.508,-14.160,0.000
1673805070.528,-19.043,-12.695,-9.277,-8.301,0.000
1673805070.531,-19.043,-14.648,-8.789,-12.695,0.000
1673805070.535,-9.277,-11.719,-13.672,-12.207,0.000
1673805070.539,-9.766,-9.766,-7.324,-6.836,0.000
1673805070.543,-15.137,-19.531,-3.906,-2.441,0.000
1673805070.547,-15.137,-21.973,-7.324,-4.883,0.000
1673805070.551,-17.578,-19.531,-6.348,-4.883,0.000
1673805070.555,-18.066,-20.508,-12.695,2.441,0.000
1673805070.559,-21.484,-22.949,-16.602,8.789,0.000
1673805070.563,-16.602,-15.137,-16.113,9.766,0.000
1673805070.567,-7.812,-4.883,-11.719,24.414,0.000
1673805070.570,-13.184,-3.906,-6.348,19.531,0.000
1673805070.574,-15.625,-12.207,-8.301,1.465,0.000
1673805070.578,-14.160,-18.555,-14.648,-4.883,0.000
1673805070.582,-10.742,-15.137,-16.113,-5.859,0.000
1673805070.586,-1.953,-15.137,-14.648,-7.812,0.000
1673805070.590,6.836,-15.137,-15.625,5.371,0.000
1673805070.594,5.371,-16.602,-20.508,11.230,0.000
1673805070.598,-3.906,-12.695,-24.414,-9.277,0.000
1673805070.602,-2.930,-8.789,-22.461,-19.043,0.000
1673805070.606,-6.348,-6.836,-23.438,-11.719,0.000
1673805070.610,-12.695,-3.418,-22.461,-6.348,0.000
1673805070.613,-24.414,-6.348,-14.160,-6.348,0.000
1673805070.617,-27.344,-9.277,-15.625,-12.207,0.000
1673805070.621,-14.160,-10.742,-19.043,-18.066,0.000
1673805070.625,-18.555,-10.742,-15.625,-21.484,0.000
1673805070.629,-23.926,-10.742,-23.438,-22.949,0.000
1673805070.633,-31.738,-18.066,-32.227,-34.180,0.000
1673805070.637,-24.414,-14.648,-27.832,-35.645,0.000
1673805070.641,-24.902,-9.277,-26.367,-22.949,0.000
1673805070.645,-33.691,-18.555,-30.762,-18.066,0.000
1673805070.649,-23.438,-17.578,-23.438,-18.555,0.000
1673805070.653,-11.719,-16.602,-19.043,-9.277,0.000
1673805070.656,-20.020,-19.043,-18.555,4.395,0.000
1673805070.660,-19.043,-25.879,-20.020,5.371,0.000
1673805070.664,-20.508,-23.438,-19.043,5.371,0.000
1673805070.668,-22.949,-9.766,-17.090,0.488,0.000
1673805070.672,-4.395,-6.836,-21.973,-6.836,0.000
1673805070.676,-11.719,-7.812,-23.926,-12.695,0.000
1673805070.680,-16.113,-13.184,-22.949,-16.113,0.000
1673805070.684,-0.977,-7.324,-23.438,-15.625,0.000
1673805070.688,0.488,-12.695,-23.926,-20.508,0.000
1673805070.692,7.812,-17.578,-24.414,-13.184,0.000
1673805070.695,4.395,-16.113,-21.484,-6.348,0.000
1673805070.699,-11.230,-21.973,-17.578,-3.418,0.000
1673805070.703,-16.113,-22.949,-17.578,-7.324,0.000
1673805070.707,-29.297,-22.949,-23.926,-10.254,0.000
1673805070.711,-36.621,-20.020,-24.902,-7.324,0.000
1673805070.715,-21.973,-17.578,-20.996,-9.277,0.000
1673805070.719,-19.043,-17.578,-16.602,-6.348,0.000
1673805070.723,-30.762,-18.555,-20.508,-3.418,0.000
1673805070.727,-30.273,-23.438,-22.949,-2.930,0.000
1673805070.731,-21.484,-31.738,-22.949,-5.859,0.000
1673805070.735,-7.324,-33.203,-27.832,-7.324,0.000
1673805070.738,0.000,-23.926,-26.367,-7.812,0.000
1673805070.742,-1.465,-18.555,-24.414,-5.859,0.000
1673805070.746,-1.953,-18.555,-24.902,-5.371,0.000
1673805070.750,-11.230,-20.508,-24.414,-16.602,0.000
1673805070.754,-19.043,-19.043,-13.672,-11.719,0.000
1673805070.758,-13.184,-15.625,-5.859,4.395,0.000
1673805070.762,-10.742,-25.879,-10.742,-2.441,0.000
1673805070.766,-20.508,-25.879,-12.695,-4.395,0.000
1673805070.770,-15.625,-15.137,-9.766,0.977,0.000
1673805070.774,-12.207,-17.578,-7.324,-5.859,0.000
1673805070.778,-30.273,-22.949,-12.695,-12.207,0.000
1673805070.781,-29.785,-23.438,-20.020,-23.926,0.000
1673805070.785,-15.137,-22.461,-20.996,-25.391,0.000
1673805070.789,-9.766,-28.320,-20.020,-5.859,0.000
1673805070.793,-30.273,-32.715,-21.973,1.953,0.000
1673805070.797,-37.109,-25.391,-20.996,-10.742,0.000
1673805070.801,-26.855,-22.461,-20.508,-16.602,0.000
1673805070.805,-26.367,-27.832,-24.902,-15.625,0.000
1673805070.809,-32.715,-32.715,-18.555,-20.020,0.000
1673805070.813,-29.297,-31.738,-17.090,-11.230,0.000
1673805070.817,-21.973,-20.996,-18.066,0.977,0.000
1673805070.820,-22.949,-17.578,-15.625,1.953,0.000
1673805070.824,-20.508,-20.996,-16.602,5.859,0.000
1673805070.828,-6.836,-16.602,-14.160,6.348,0.000
1673805070.832,8.301,-13.672,-12.207,0.977,0.000
1673805070.836,12.207,-15.625,-17.578,-3.418,0.000
1673805070.840,10.254,-19.043,-24.902,-16.113,0.000
1673805070.844,10.742,-23.926,-25.879,-17.090,0.000
1673805070.848,3.906,-25.879,-24.414,-5.371,0.000
1673805070.852,0.000,-19.531,-21.484,-1.953,0.000
1673805070.856,-0.488,-18.555,-23.438,-12.207,0.000
1673805070.860,1.953,-20.508,-25.391,-13.672,0.000
1673805070.863,1.953,-21.973,-21.973,-9.766,0.000
1673805070.867,-4.395,-23.926,-23.926,-16.602,0.000
1673805070.871,-11.719,-22.949,-20.020,-22.461,0.000
1673805070.875,-23.438,-20.996,-14.160,-14.160,0.000
1673805070.879,-26.367,-20.020,-10.742,0.488,0.000
1673805070.883,-20.508,-22.461,-11.230,-5.371,0.000
1673805070.887,-15.625,-22.461,-12.695,-18.066,0.000
1673805070.891,-12.207,-24.414,-17.578,-10.254,0.000
1673805070.895,-21.973,-30.762,-22.461,-2.930,0.000
1673805070.899,-35.645,-32.715,-22.949,-3.906,0.000
1673805070.903,-27.832,-29.785,-25.391,-5.859,0.000
1673805070.906,-24.414,-19.043,-30.273,-6.836,0.000
1673805070.910,-19.531,-10.742,-26.367,-0.488,0.000
1673805070.914,-22.949,-12.695,-21.973,3.418,0.000
1673805070.918,-18.066,-12.695,-22.461,-3.906,0.000
1673805070.922,2.441,-8.789,-20.508,-0.977,0.000
1673805070.926,10.742,-9.766,-14.160,20.996,0.000
1673805070.930,-1.465,-11.230,-19.043,15.137,0.000
1673805070.934,-20.508,-10.742,-20.020,1.953,0.000
1673805070.938,-21.484,-15.137,-19.531,7.812,0.000
1673805070.942,-18.066,-23.926,-26.367,7.324,0.000
1673805070.945,-19.531,-21.484,-26.367,1.465,0.000
1673805070.949,-20.020,-13.184,-18.555,-9.277,0.000
1673805070.953,-15.137,-14.160,-16.602,-13.184,0.000
1673805070.957,-17.578,-23.438,-22.461,-12.695,0.000
1673805070.961,-16.113,-31.250,-23.926,-18.555,0.000
1673805070.965,-2.441,-23.438,-22.461,-26.367,0.000
1673805070.969,-16.113,-20.508,-17.090,-30.762,0.000
1673805070.973,-26.367,-23.438,-16.113,-25.391,0.000
1673805070.977,-13.184,-20.020,-22.949,-19.043,0.000
1673805070.981,2.930,-14.160,-21.973,-11.719,0.000
1673805070.985,-16.602,-14.648,-28.320,-16.113,0.000
1673805070.988,-18.555,-13.672,-36.133,-13.672,0.000
1673805070.992,-15.625,-15.625,-28.320,-4.395,0.000
1673805070.996,-33.203,-20.020,-20.996,-9.766,0.000
1673805071.000,-28.809,-22.949,-20.996,-9.766,0.000
1673805071.004,-23.438,-33.691,-21.484,-2.930,0.000
1673805071.008,-29.785,-35.156,-28.320,-6.836,0.000
1673805071.012,-23.438,-25.879,-34.180,-6.836,0.000
1673805071.016,-10.742,-20.508,-28.809,-3.418,0.000
1673805071.020,-13.672,-26.367,-29.297,-15.625,0.000
1673805071.024,-9.766,-30.762,-34.668,-18.555,0.000
1673805071.028,-15.625,-23.438,-31.738,-8.789,0.000
1673805071.031,-24.902,-25.391,-29.785,-2.930,0.000
1673805071.035,-16.113,-20.508,-31.738,-7.812,0.000
1673805071.039,-11.230,-9.277,-28.320,-6.836,0.000
1673805071.043,-4.395,-12.695,-18.555,-6.836,0.000
1673805071.047,-0.977,-16.113,-17.578,-18.066,0.000
1673805071.051,-8.301,-13.672,-21.973,-27.344,0.000
1673805071.055,-6.348,-9.766,-21.484,-17.090,0.000
1673805071.059,4.883,-8.789,-24.902,-11.719,0.000
1673805071.063,5.371,-13.672,-27.832,-13.184,0.000
1673805071.067,-16.113,-21.484,-29.297,-12.695,0.000
1673805071.070,-30.273,-27.832,-26.367,-14.160,0.000
1673805071.074,-19.043,-25.391,-22.461,-1.465,0.000
1673805071.078,-15.137,-24.414,-23.926,-9.277,0.000
1673805071.082,-12.695,-28.320,-28.809,-21.484,0.000
1673805071.086,-8.789,-22.949,-31.250,-10.254,0.000
1673805071.090,-2.930,-18.555,-29.785,-2.930,0.000
1673805071.094,-4.883,-22.949,-31.738,-0.977,0.000
1673805071.098,-21.973,-29.297,-27.344,-3.906,0.000
1673805071.102,-28.320,-25.391,-24.414,-5.371,0.000
1673805071.106,-22.949,-20.996,-27.344,-9.277,0.000
1673805071.110,-23.926,-28.320,-24.414,-19.043,0.000
1673805071.113,-41.504,-27.344,-22.461,-18.066,0.000
1673805071.117,-31.738,-16.113,-25.879,-19.531,0.000
1673805071.121,-17.090,-17.578,-24.414,-12.207,0.000
1673805071.125,-29.297,-27.832,-24.414,-17.090,0.000
1673805071.129,-38.574,-27.832,-27.344,-27.344,0.000
1673805071.133,-25.391,-30.273,-23.926,-22.949,0.000
1673805071.137,-10.742,-30.762,-20.508,-25.391,0.000
1673805071.141,-23.438,-29.785,-23.926,-25.879,0.000
1673805071.145,-31.738,-27.344,-29.297,-25.391,0.000
1673805071.149,-19.531,-22.949,-29.785,-31.738,0.000
1673805071.153,-23.926,-22.461,-25.879,-22.461,0.000
1673805071.156,-25.391,-23.926,-20.996,-18.555,0.000
1673805071.160,-14.160,-24.414,-24.414,-17.090,0.000
1673805071.164,2.930,-14.648,-20.996,-8.301,0.000
1673805071.168,0.000,-18.555,-20.508,-21.484,0.000
1673805071.172,-20.996,-28.320,-24.902,-23.438,0.000
1673805071.176,-9.277,-19.043,-20.996,-8.301,0.000
1673805071.180,5.371,-11.719,-17.578,-13.184,0.000
1673805071.184,2.930,-18.555,-20.508,-19.531,0.000
1673805071.188,-5.859,-21.484,-19.531,-3.418,0.000
1673805071.192,-10.254,-15.625,-15.625,-0.488,0.000
1673805071.195,-20.020,-28.320,-22.461,-8.301,0.000
1673805071.199,-34.668,-37.598,-24.902,-14.648,0.000
1673805071.203,-27.832,-28.809,-21.973,-15.137,0.000
1673805071.207,-16.602,-23.926,-22.949,-15.625,0.000
1673805071.211,-29.785,-26.855,-17.578,-13.672,0.000
1673805071.215,-43.945,-25.879,-18.066,-10.742,0.000
1673805071.219,-33.203,-20.020,-22.461,-20.996,0.000
1673805071.223,-13.184,-18.066,-25.391,-20.020,0.000
1673805071.227,-4.395,-23.926,-24.902,-7.324,0.000
1673805071.231,-19.531,-28.809,-25.879,-5.371,0.000
1673805071.235,-25.879,-23.438,-25.391,-5.371,0.000
1673805071.238,-18.066,-21.484,-20.996,1.953,0.000
1673805071.242,-1.953,-28.320,-18.066,-4.395,0.000
1673805071.246,-6.836,-23.438,-21.484,-4.883,0.000
1673805071.250,-19.043,-13.672,-26.855,-11.230,0.000
1673805071.254,-13.672,-19.531,-24.902,-8.789,0.000
1673805071.258,-12.207,-30.762,-18.066,0.000,0.000
1673805071.262,-24.414,-29.297,-18.555,-11.719,0.000
1673805071.266,-25.879,-29.297,-27.344,-14.160,0.000
1673805071.270,-7.812,-29.297,-22.949,1.953,0.000
1673805071.274,-2.441,-23.926,-12.207,15.137,0.000
1673805071.278,-9.766,-19.043,-11.230,14.648,0.000
1673805071.281,-4.395,-26.855,-16.113,7.812,0.000
1673805071.285,-1.465,-26.367,-20.020,-3.418,0.000
1673805071.289,2.441,-20.996,-20.996,-2.930,0.000
1673805071.293,4.395,-25.391,-16.113,9.277,0.000
1673805071.297,-11.719,-21.973,-18.555,2.930,0.000
1673805071.301,-21.973,-9.277,-24.414,2.930,0.000
1673805071.305,-23.438,-11.230,-20.020,-5.859,0.000
1673805071.309,-26.855,-18.555,-18.066,-23.438,0.000
1673805071.313,-23.926,-15.137,-19.043,-13.184,0.000
1673805071.317,-10.254,-12.695,-19.043,-9.766,0.000
1673805071.320,3.906,-19.043,-15.137,-13.184,0.000
1673805071.324,9.766,-12.695,-9.277,-3.906,0.000
1673805071.328,0.000,-6.836,-10.742,0.488,0.000
1673805071.332,-11.230,-14.160,-13.672,-1.953,0.000
1673805071.336,-9.766,-18.066,-18.066,-4.883,0.000
1673805071.340,-3.906,-18.066,-17.090,-3.906,0.000
1673805071.344,-0.488,-14.160,-13.184,1.953,0.000
1673805071.348,-14.160,-17.090,-14.160,-8.789,0.000
1673805071.352,-15.625,-21.484,-21.973,-21.484,0.000
1673805071.356,-1.953,-8.301,-20.020,-13.184,0.000
1673805071.360,-14.648,-2.441,-12.695,-9.766,0.000
1673805071.363,-7.812,-20.020,-18.066,-9.766,0.000
1673805071.367,14.160,-21.484,-19.531,-8.301,0.000
1673805071.371,-2.441,-8.789,-14.648,2.441,0.000
1673805071.375,-18.066,-7.324,-15.625,8.789,0.000
1673805071.379,-12.207,-12.207,-16.602,-0.977,0.000
1673805071.383,-6.348,-11.719,-11.230,0.977,0.000
1673805071.387,-13.672,-9.277,-10.742,5.859,0.000
1673805071.391,-28.320,-16.602,-10.254,8.301,0.000
1673805071.395,-18.555,-18.555,-15.137,4.395,0.000
1673805071.399,0.488,-15.137,-14.648,6.348,0.000
1673805071.403,0.000,-18.555,-7.324,6.836,0.000
1673805071.406,-3.418,-4.395,-4.883,4.883,0.000
1673805071.410,-1.953,0.977,-6.836,8.789,0.000
1673805071.414,4.395,-1.953,-7.812,8.301,0.000
1673805071.418,3.906,-2.930,-6.836,-0.488,0.000
1673805071.422,-15.137,-7.812,-12.207,2.441,0.000
1673805071.426,-25.391,-10.742,-16.602,5.859,0.000
1673805071.430,-27.344,-12.207,-20.020,1.953,0.000
1673805071.434,-18.066,-17.578,-19.531,3.418,0.000
1673805071.438,-3.418,-20.508,-19.043,-3.906,0.000
1673805071.442,-9.277,-14.648,-20.508,-12.207,0.000
1673805071.445,-10.254,-10.742,-20.020,-13.672,0.000
1673805071.449,10.254,-6.836,-17.090,-12.695,0.000
1673805071.453,-4.395,-10.254,-19.043,-14.160,0.000
1673805071.457,-31.250,-16.602,-22.949,-18.555,0.000
1673805071.461,-21.484,-12.207,-19.531,-13.184,0.000
1673805071.465,-21.973,-6.836,-11.230,-6.348,0.000
1673805071.469,-28.320,-8.301,-11.230,-9.766,0.000
1673805071.473,-19.043,-12.695,-16.113,-5.371,0.000
1673805071.477,-7.812,-14.648,-16.602,12.695,0.000
1673805071.481,-0.977,-14.160,-15.625,17.090,0.000
1673805071.485,3.418,-19.043,-17.578,4.883,0.000
1673805071.488,4.883,-22.461,-17.578,5.371,0.000
1673805071.492,-6.348,-24.902,-22.461,1.465,0.000
1673805071.496,-11.230,-19.043,-26.367,-10.254,0.000
1673805071.500,-14.160,-13.672,-27.344,-16.602,0.000
1673805071.504,-4.883,-8.301,-26.367,-4.883,0.000
1673805071.508,-13.184,-2.441,-16.113,13.672,0.000
1673805071.512,-15.625,-4.395,-10.742,14.160,0.000
1673805071.516,-4.395,-9.766,-18.066,3.906,0.000
1673805071.520,-6.348,-10.742,-12.207,11.230,0.000
1673805071.524,-18.066,-13.672,-8.789,12.207,0.000
1673805071.528,-14.648,-23.438,-12.207,5.371,0.000
1673805071.531,0.488,-23.438,-14.648,4.395,0.000
1673805071.535,-19.531,-26.367,-15.137,3.418,0.000
1673805071.539,-25.391,-28.320,-11.230,3.906,0.000
1673805071.543,-25.879,-26.367,-19.531,1.953,0.000
1673805071.547,-35.645,-28.809,-17.578,-4.883,0.000
1673805071.551,-42.480,-23.926,-13.672,-12.207,0.000
1673805071.555,-36.621,-22.461,-15.625,-10.254,0.000
1673805071.559,-34.668,-30.273,-23.438,-11.719,0.000
1673805071.563,-33.691,-34.180,-23.438,-13.184,0.000
1673805071.567,-27.344,-37.598,-21.973,-15.137,0.000
1673805071.570,-15.625,-25.879,-19.531,-16.602,0.000
1673805071.574,-9.766,-11.230,-12.695,-4.395,0.000
1673805071.578,-13.184,-18.066,-18.066,-6.836,0.000
1673805071.582,-6.348,-23.438,-21.973,-27.832,0.000
1673805071.586,9.277,-17.090,-20.508,-34.668,0.000
1673805071.590,10.254,-11.719,-21.484,-24.902,0.000
1673805071.594,-8.301,-17.090,-22.461,-10.742,0.000
1673805071.598,9.766,-15.137,-20.020,-8.789,0.000
1673805071.602,15.137,-13.184,-21.484,-7.324,0.000
1673805071.606,3.906,-20.996,-28.320,-10.742,0.000
1673805071.610,1.953,-25.391,-26.367,-9.277,0.000
1673805071.613,-2.441,-13.672,-20.020,3.906,0.000
1673805071.617,3.906,-6.836,-23.438,-1.465,0.000
1673805071.621,0.977,-11.230,-20.996,-10.254,0.000
1673805071.625,-14.648,-12.207,-18.066,-7.812,0.000
1673805071.629,-19.043,-4.395,-21.484,-4.395,0.000
1673805071.633,-20.020,0.488,-24.902,-12.695,0.000
1673805071.637,-24.414,-4.883,-24.902,-8.789,0.000
1673805071.641,-30.273,-10.742,-21.973,-2.441,0.000
1673805071.645,-27.832,-15.137,-25.391,-5.371,0.000
1673805071.649,-20.020,-18.555,-30.273,-6.348,0.000
1673805071.653,-23.926,-21.973,-29.297,-12.695,0.000
1673805071.656,-24.414,-22.949,-30.762,-15.625,0.000
1673805071.660,-18.555,-17.090,-31.250,-13.672,0.000
1673805071.664,-21.973,-17.090,-32.715,-21.973,0.000
1673805071.668,-16.113,-18.555,-32.715,-27.832,0.000
1673805071.672,-1.953,-13.184,-31.250,-20.996,0.000
1673805071.676,-8.789,-12.695,-31.738,-11.230,0.000
1673805071.680,-15.137,-17.090,-28.320,-16.113,0.000
1673805071.684,2.441,-16.113,-32.227,-21.973,0.000
1673805071.688,6.836,-17.090,-30.762,-18.066,0.000
1673805071.692,-4.883,-16.113,-26.367,-10.742,0.000
1673805071.695,-14.648,-18.555,-24.414,-6.348,0.000
1673805071.699,-10.742,-24.414,-21.973,-7.812,0.000
1673805071.703,0.488,-19.531,-20.020,-7.324,0.000
1673805071.707,-0.488,-17.578,-15.625,-2.441,0.000
1673805071.711,-8.789,-21.973,-17.090,-4.395,0.000
1673805071.715,-16.113,-26.855,-18.066,-10.254,0.000
1673805071.719,-29.785,-25.391,-17.090,-13.184,0.000
1673805071.723,-32.227,-23.438,-24.902,-22.949,0.000
1673805071.727,-20.996,-25.391,-30.762,-28.809,0.000
1673805071.731,-21.484,-22.949,-24.414,-25.879,0.000
1673805071.735,-19.531,-18.555,-19.043,-28.320,0.000
1673805071.738,-19.531,-19.043,-18.066,-30.273,0.000
1673805071.742,-39.062,-25.391,-22.461,-26.367,0.000
1673805071.746,-46.875,-28.809,-26.367,-24.902,0.000
1673805071.750,-39.062,-30.273,-22.949,-29.297,0.000
1673805071.754,-30.273,-27.344,-19.043,-22.949,0.000
1673805071.758,-21.484,-21.973,-18.555,-10.254,0.000
1673805071.762,-22.949,-16.602,-18.555,-8.789,0.000
1673805071.766,-24.902,-15.625,-21.973,-13.672,0.000
1673805071.770,-17.578,-21.484,-28.320,-16.113,0.000
1673805071.774,-7.812,-28.320,-24.902,-11.230,0.000
1673805071.778,-8.301,-30.273,-16.602,-11.230,0.000
1673805071.781,-12.207,-17.578,-19.531,-10.742,0.000
1673805071.785,-12.695,-17.578,-23.926,-15.625,0.000
1673805071.789,-9.277,-21.484,-18.066,-13.672,0.000
1673805071.793,-4.395,-17.578,-11.719,-8.789,0.000
1673805071.797,-4.883,-19.531,-15.625,-9.277,0.000
1673805071.801,-5.371,-16.113,-16.602,-5.859,0.000
1673805071.805,-2.930,-13.184,-20.508,-6.836,0.000
1673805071.809,-12.207,-18.555,-24.902,-14.648,0.000
1673805071.813,-24.414,-23.438,-24.902,-21.973,0.000
1673805071.817,-12.695,-19.531,-20.020,-29.297,0.000
1673805071.820,0.000,-14.648,-19.531,-32.227,0.000
1673805071.824,2.441,-18.066,-24.414,-19.043,0.000
1673805071.828,2.930,-24.902,-21.484,-6.836,0.000
1673805071.832,6.836,-23.438,-22.949,-12.695,0.000
1673805071.836,-24.902,-23.926,-25.879,-16.113,0.000
1673805071.840,-51.758,-23.438,-23.438,-11.230,0.000
1673805071.844,-40.039,-22.949,-23.438,-9.766,0.000
1673805071.848,-35.156,-22.461,-24.414,-21.484,0.000
1673805071.852,-29.785,-21.973,-22.949,-28.320,0.000
1673805071.856,-17.578,-21.973,-22.949,-22.949,0.000
1673805071.860,-7.324,-21.484,-26.855,-13.184,0.000
1673805071.863,-15.625,-21.484,-28.320,-7.812,0.000
1673805071.867,-30.273,-22.949,-20.996,-15.625,0.000
1673805071.871,-24.414,-25.391,-18.066,-9.277,0.000
1673805071.875,-18.555,-23.438,-18.555,-3.418,0.000
1673805071.879,-18.066,-19.043,-18.066,-12.207,0.000
1673805071.883,-16.113,-11.719,-20.020,-21.484,0.000
1673805071.887,-10.742,-10.254,-22.461,-18.066,0.000
1673805071.891,-21.484,-15.137,-21.973,-6.836,0.000
1673805071.895,-25.391,-25.879,-26.367,-7.812,0.000
1673805071.899,-18.555,-35.156,-29.297,-19.043,0.000
1673805071.903,-26.367,-20.020,-24.414,-29.785,0.000
1673805071.906,-27.344,-10.742,-27.832,-36.621,0.000
1673805071.910,-19.531,-22.949,-34.668,-29.297,0.000
1673805071.914,-14.160,-17.090,-27.832,-17.578,0.000
1673805071.918,-15.625,-4.883,-22.949,-21.484,0.000
1673805071.922,-23.926,-16.602,-26.855,-26.367,0.000
1673805071.926,-22.461,-21.484,-23.926,-17.578,0.000
1673805071.930,-14.648,-18.555,-23.926,-17.578,0.000
1673805071.934,-20.020,-16.602,-23.438,-22.461,0.000
1673805071.938,-22.949,-17.090,-21.484,-24.414,0.000
1673805071.942,-22.461,-16.602,-19.043,-17.578,0.000
1673805071.945,-23.926,-13.672,-19.043,-8.301,0.000
1673805071.949,-21.973,-24.902,-25.391,-17.090,0.000
1673805071.953,-20.508,-24.414,-27.344,-19.531,0.000
1673805071.957,-20.508,-20.996,-26.855,-13.184,0.000
1673805071.961,-29.297,-22.949,-22.949,4.395,0.000
1673805071.965,-37.598,-23.438,-22.949,-1.953,0.000
1673805071.969,-40.039,-28.809,-21.973,-14.160,0.000
1673805071.973,-30.762,-22.461,-19.531,-11.719,0.000
1673805071.977,-22.461,-23.438,-20.996,-10.254,0.000
1673805071.981,-34.668,-30.273,-22.949,-14.648,0.000
1673805071.985,-32.227,-16.113,-20.020,-16.602,0.000
1673805071.988,-20.996,-13.184,-20.996,-10.742,0.000
1673805071.992,-18.555,-16.113,-26.367,-14.648,0.000
1673805071.996,-7.812,-17.578,-28.809,-11.719,0.000
1673805072.000,-10.254,-18.066,-31.738,-10.742,0.000
1673805072.004,-14.160,-20.020,-27.832,-9.277,0.000
1673805072.008,-15.137,-23.438,-31.250,-5.859,0.000
1673805072.012,-17.578,-23.926,-35.645,-9.766,0.000
1673805072.016,-8.789,-26.855,-29.297,-17.578,0.000
1673805072.020,-12.695,-21.484,-26.855,-24.414,0.000
1673805072.024,-11.230,-16.113,-25.391,-10.742,0.000
1673805072.028,-6.348,-18.066,-22.461,0.977,0.000
1673805072.031,-15.137,-17.578,-20.508,-2.441,0.000
1673805072.035,-10.254,-24.414,-22.949,-2.441,0.000
1673805072.039,-13.184,-28.809,-25.879,1.465,0.000
1673805072.043,-25.391,-20.508,-28.809,1.465,0.000
1673805072.047,-27.832,-26.855,-22.949,-9.277,0.000
1673805072.051,-29.297,-31.738,-17.578,-12.695,0.000
1673805072.055,-32.715,-22.949,-21.484,-11.719,0.000
1673805072.059,-23.926,-21.973,-23.438,-12.207,0.000
1673805072.063,-12.207,-17.578,-32.715,-15.625,0.000
1673805072.067,-17.578,-13.672,-37.598,-21.484,0.000
1673805072.070,-26.367,-20.996,-29.297,-24.414,0.000
1673805072.074,-28.320,-30.762,-29.297,-21.973,0.000
1673805072.078,-28.320,-30.762,-26.367,-21.973,0.000
1673805072.082,-26.367,-21.973,-26.855,-26.855,0.000
1673805072.086,-18.555,-20.996,-27.832,-32.715,0.000
1673805072.090,-24.414,-23.926,-25.391,-26.367,0.000
1673805072.094,-21.484,-22.949,-18.555,-9.766,0.000
1673805072.098,-14.648,-25.879,-15.137,-2.930,0.000
1673805072.102,-20.020,-22.461,-20.508,-9.277,0.000
1673805072.106,-11.719,-20.508,-19.043,-3.906,0.000
1673805072.110,-3.906,-21.484,-16.113,4.395,0.000
1673805072.113,-5.371,-18.555,-23.438,-4.395,0.000
1673805072.117,-10.742,-14.648,-22.461,-18.066,0.000
1673805072.121,-23.438,-16.602,-13.672,-21.973,0.000
1673805072.125,-30.273,-20.996,-14.648,-17.578,0.000
1673805072.129,-24.414,-20.508,-17.578,-8.301,0.000
1673805072.133,-18.066,-19.531,-19.043,-9.277,0.000
1673805072.137,-16.113,-20.996,-17.578,-17.090,0.000
1673805072.141,-21.484,-20.996,-17.090,-3.418,0.000
1673805072.145,-26.367,-16.602,-19.043,-16.113,0.000
1673805072.149,-22.461,-21.973,-23.926,-32.715,0.000
1673805072.153,-20.996,-20.508,-20.996,-22.461,0.000
1673805072.156,-17.578,-15.137,-18.555,-12.207,0.000
1673805072.160,-19.531,-21.973,-17.578,-6.836,0.000
1673805072.164,-13.672,-27.344,-19.043,-19.531,0.000
1673805072.168,-11.230,-21.484,-21.484,-30.273,0.000
1673805072.172,-27.832,-17.090,-16.602,-17.578,0.000
1673805072.176,-39.062,-20.996,-17.578,-10.742,0.000
1673805072.180,-26.367,-18.066,-23.438,-12.207,0.000
1673805072.184,-6.348,-17.090,-19.043,-6.836,0.000
1673805072.188,-7.812,-19.531,-16.602,-2.441,0.000
1673805072.192,-6.836,-25.391,-21.484,-1.953,0.000
1673805072.195,1.465,-27.344,-26.855,-4.883,0.000
1673805072.199,8.789,-25.391,-21.973,-10.742,0.000
1673805072.203,18.555,-20.996,-18.066,-6.348,0.000
1673805072.207,29.785,-8.301,-17.090,8.789,0.000
1673805072.211,16.113,0.488,-12.207,19.531,0.000
1673805072.215,-20.996,-7.812,-11.719,24.414,0.000
1673805072.219,-25.391,-9.277,-20.508,18.066,0.000
1673805072.223,-3.418,0.488,-20.508,14.160,0.000
1673805072.227,-4.883,2.441,-11.719,26.367,0.000
1673805072.231,-12.695,-1.953,-10.742,24.414,0.000
1673805072.235,-3.418,-4.883,-16.602,10.742,0.000
1673805072.238,2.930,-3.418,-18.066,4.395,0.000
1673805072.242,-11.230,1.953,-12.207,6.836,0.000
1673805072.246,-20.020,0.977,-14.648,4.395,0.000
1673805072.250,-21.484,-6.836,-18.066,-8.301,0.000
1673805072.254,-15.625,-11.230,-17.090,-16.113,0.000
1673805072.258,-8.789,-11.230,-16.113,-10.742,0.000
1673805072.262,-19.043,-13.184,-9.766,-6.836,0.000
1673805072.266,-17.090,-16.113,-13.184,-15.137,0.000
1673805072.270,-1.465,-9.277,-15.137,-20.996,0.000
1673805072.274,-3.418,-4.395,-11.230,-13.184,0.000
1673805072.278,-2.441,-5.371,-9.766,-9.277,0.000
1673805072.281,-10.254,-11.719,-8.301,-12.207,0.000
1673805072.285,-21.973,-15.625,-6.836,-8.789,0.000
1673805072.289,-12.695,-8.789,-4.395,0.000,0.000
1673805072.293,-9.766,-6.836,-8.301,1.953,0.000
1673805072.297,-12.207,-16.113,-8.789,0.977,0.000
1673805072.301,-4.395,-21.484,-10.254,-2.441,0.000
1673805072.305,-7.812,-15.625,-19.531,-4.395,0.000
1673805072.309,2.930,-16.602,-21.973,0.488,0.000
1673805072.313,5.859,-16.602,-20.020,-3.906,0.000
1673805072.317,-20.020,-8.301,-26.855,-3.906,0.000
1673805072.320,-10.742,-12.695,-27.344,-9.277,0.000
1673805072.324,-12.207,-13.672,-21.484,-13.184,0.000
1673805072.328,-29.785,-12.207,-20.020,-11.719,0.000
1673805072.332,-31.250,-17.578,-20.996,-13.184,0.000
1673805072.336,-32.227,-24.414,-20.020,0.977,0.000
1673805072.340,-32.715,-19.531,-25.879,-3.906,0.000
1673805072.344,-22.949,-11.230,-34.180,-11.230,0.000
1673805072.348,-18.555,-15.137,-30.273,-10.742,0.000
1673805072.352,-8.301,-13.184,-20.996,-19.043,0.000
1673805072.356,-10.742,-10.742,-24.902,-13.184,0.000
1673805072.360,-20.996,-14.160,-28.320,-1.953,0.000
1673805072.363,-16.602,-15.137,-20.996,0.488,0.000
1673805072.367,-13.184,-12.207,-18.555,-1.953,0.000
1673805072.371,-5.859,-16.113,-21.484,2.441,0.000
1673805072.375,3.906,-21.484,-23.926,-7.324,0.000
1673805072.379,7.324,-19.043,-20.508,-4.883,0.000
1673805072.383,-5.859,-16.113,-20.996,0.977,0.000
1673805072.387,-17.578,-15.625,-30.273,-9.277,0.000
1673805072.391,-10.742,-12.207,-27.832,-1.465,0.000
1673805072.395,-8.789,-15.137,-27.344,-0.488,0.000
1673805072.399,-4.883,-19.043,-31.738,-15.625,0.000
1673805072.403,-14.160,-15.137,-30.273,-22.949,0.000
1673805072.406,-27.344,-19.531,-27.344,-13.672,0.000
1673805072.410,-27.832,-28.809,-31.250,-7.812,0.000
1673805072.414,-25.391,-24.902,-29.297,-7.324,0.000
1673805072.418,-22.461,-16.113,-21.973,-9.766,0.000
1673805072.422,-20.020,-20.020,-24.414,-15.137,0.000
1673805072.426,-12.207,-20.020,-19.531,1.953,0.000
1673805072.430,-6.348,-15.625,-20.508,-4.883,0.000
1673805072.434,-13.672,-21.973,-24.902,-28.320,0.000
1673805072.438,-18.555,-16.602,-18.555,-17.090,0.000
1673805072.442,-10.254,-16.113,-19.043,-6.348,0.000
1673805072.445,-19.531,-22.949,-22.949,-12.695,0.000
1673805072.449,-28.320,-16.113,-22.461,-17.090,0.000
1673805072.453,-16.113,-20.508,-22.949,-12.695,0.000
1673805072.457,-17.090,-25.879,-25.391,-12.695,0.000
1673805072.461,-17.578,-21.973,-23.926,-12.207,0.000
1673805072.465,-12.695,-23.926,-20.020,-12.695,0.000
1673805072.469,-8.789,-14.648,-23.926,-9.766,0.000
1673805072.473,-13.672,-8.789,-26.367,-15.625,0.000
1673805072.477,-20.020,-17.090,-22.461,-33.691,0.000
1673805072.481,-14.648,-21.484,-20.996,-28.809,0.000
1673805072.485,-14.160,-21.484,-16.113,-22.461,0.000
1673805072.488,-14.648,-24.414,-19.043,-26.367,0.000
1673805072.492,-14.648,-23.926,-22.461,-16.113,0.000
1673805072.496,-34.180,-23.926,-15.625,-12.695,0.000
1673805072.500,-43.457,-22.461,-11.230,-13.184,0.000
1673805072.504,-41.992,-22.461,-15.625,-8.301,0.000
1673805072.508,-36.133,-23.926,-16.113,-10.742,0.000
1673805072.512,-19.531,-22.461,-13.672,-14.648,0.000
1673805072.516,-18.066,-18.555,-12.207,-3.418,0.000
1673805072.520,-41.504,-19.531,-23.438,-4.395,0.000
1673805072.524,-44.434,-23.438,-36.621,-8.301,0.000
1673805072.528,-27.344,-19.531,-21.973,-6.836,0.000
1673805072.531,-28.809,-20.020,-16.113,-19.531,0.000
1673805072.535,-23.926,-22.949,-26.367,-21.484,0.000
1673805072.539,-15.625,-15.625,-20.508,-13.672,0.000
1673805072.543,-20.020,-13.184,-11.719,-10.742,0.000
1673805072.547,-20.020,-12.695,-13.672,-6.348,0.000
1673805072.551,-2.930,-15.137,-12.695,-3.418,0.000
1673805072.555,-4.395,-12.207,-11.230,-3.906,0.000
1673805072.559,-11.230,-9.766,-12.207,-7.812,0.000
1673805072.563,-3.418,-15.137,-11.230,-7.812,0.000
1673805072.567,-12.207,-17.578,-16.113,-22.461,0.000
1673805072.570,-20.508,-19.043,-18.555,-26.855,0.000
1673805072.574,-17.578,-28.320,-15.137,-10.742,0.000
1673805072.578,-25.391,-29.297,-14.160,-3.906,0.000
1673805072.582,-36.621,-26.367,-19.043,-7.324,0.000
1673805072.586,-20.996,-27.832,-21.484,-7.812,0.000
1673805072.590,-3.906,-30.762,-17.578,-8.789,0.000
1673805072.594,-24.414,-25.879,-17.090,-2.930,0.000
1673805072.598,-51.758,-22.461,-16.602,-2.930,0.000
1673805072.602,-44.922,-22.461,-17.578,-7.324,0.000
1673805072.606,-27.832,-20.508,-16.113,-3.418,0.000
1673805072.610,-19.043,-20.996,-19.043,-5.371,0.000
1673805072.613,-10.742,-20.996,-27.344,-5.371,0.000
1673805072.617,6.348,-22.461,-27.344,-2.441,0.000
1673805072.621,3.906,-21.973,-20.508,-0.977,0.000
1673805072.625,-12.207,-16.113,-20.996,-6.836,0.000
1673805072.629,-8.301,-15.625,-20.996,-9.766,0.000
1673805072.633,1.465,-14.648,-20.020,-2.930,0.000
1673805072.637,9.766,-12.207,-25.879,-5.859,0.000
1673805072.641,9.766,-7.324,-26.367,-5.371,0.000
1673805072.645,-3.906,-8.301,-34.180,-0.977,0.000
1673805072.649,-8.789,-16.113,-40.039,-4.395,0.000
1673805072.653,-6.836,-15.625,-33.203,1.465,0.000
1673805072.656,-12.695,-19.531,-31.250,2.441,0.000
1673805072.660,-3.418,-22.949,-32.715,-9.766,0.000
1673805072.664,0.488,-15.625,-32.715,-13.672,0.000
1673805072.668,-12.207,-15.137,-37.598,-18.066,0.000
1673805072.672,-9.766,-17.090,-36.621,-13.672,0.000
1673805072.676,-3.418,-20.020,-33.203,-5.371,0.000
1673805072.680,0.000,-22.461,-26.855,-3.906,0.000
1673805072.684,-1.953,-22.461,-22.949,-9.277,0.000
1673805072.688,-5.371,-18.555,-18.066,-2.441,0.000
1673805072.692,-14.648,-23.926,-19.043,2.441,0.000
1673805072.695,-24.414,-20.996,-25.391,-4.395,0.000
1673805072.699,-21.973,-7.812,-28.809,-13.672,0.000
1673805072.703,-20.508,-16.602,-30.762,-20.996,0.000
1673805072.707,-26.855,-22.949,-27.344,-14.648,0.000
1673805072.711,-29.297,-18.066,-22.461,-12.695,0.000
1673805072.715,-30.273,-24.414,-27.832,-19.531,0.000
1673805072.719,-15.137,-26.367,-32.227,-23.926,0.000
1673805072.723,0.000,-19.531,-24.414,-13.672,0.000
1673805072.727,2.441,-20.020,-22.461,-6.836,0.000
1673805072.731,5.859,-25.879,-24.414,-16.113,0.000
1673805072.735,-2.930,-26.855,-22.949,-22.461,0.000
1673805072.738,-39.551,-24.414,-22.949,-18.066,0.000
1673805072.742,-42.480,-21.484,-23.926,-8.301,0.000
1673805072.746,-24.414,-20.996,-20.508,-1.465,0.000
1673805072.750,-22.949,-28.320,-19.531,-4.395,0.000
1673805072.754,-20.020,-27.344,-18.555,-5.371,0.000
1673805072.758,-25.879,-19.043,-20.996,-5.371,0.000
1673805072.762,-29.297,-14.160,-22.949,-7.324,0.000
1673805072.766,-10.254,-13.672,-22.461,-13.184,0.000
1673805072.770,-5.859,-31.738,-29.297,-12.695,0.000
1673805072.774,-27.832,-37.598,-35.156,-7.324,0.000
1673805072.778,-40.039,-30.273,-32.227,-3.906,0.000
1673805072.781,-38.574,-36.621,-27.344,0.000,0.000
1673805072.785,-30.762,-39.551,-21.484,6.348,0.000
1673805072.789,-32.715,-37.598,-17.578,3.418,0.000
1673805072.793,-29.785,-38.086,-21.973,-6.348,0.000
1673805072.797,-29.297,-38.086,-29.297,-12.207,0.000
1673805072.801,-33.691,-27.832,-30.273,-20.020,0.000
1673805072.805,-22.949,-27.832,-34.668,-24.902,0.000
1673805072.809,-18.555,-37.109,-36.133,-24.902,0.000
1673805072.813,-16.113,-36.621,-31.738,-19.531,0.000
1673805072.817,-13.672,-37.109,-28.320,-12.695,0.000
1673805072.820,-18.555,-39.062,-30.273,-20.020,0.000
1673805072.824,-13.672,-26.367,-32.715,-10.742,0.000
1673805072.828,-12.207,-17.090,-33.691,-8.301,0.000
1673805072.832,-21.973,-19.043,-37.109,-25.391,0.000
1673805072.836,-30.273,-16.602,-36.133,-24.902,0.000
1673805072.840,-31.250,-9.277,-24.414,-13.672,0.000
1673805072.844,-23.926,-13.672,-24.902,-10.254,0.000
1673805072.848,-9.766,-17.090,-36.621,-14.648,0.000
1673805072.852,-3.418,-20.508,-40.039,-19.531,0.000
1673805072.856,-5.859,-27.344,-39.551,-20.996,0.000
1673805072.860,-22.461,-29.785,-41.992,-14.160,0.000
1673805072.863,-35.156,-23.926,-38.086,-17.578,0.000
1673805072.867,-26.855,-21.484,-40.039,-29.785,0.000
1673805072.871,-22.949,-24.414,-42.969,-18.555,0.000
1673805072.875,-20.508,-15.137,-37.109,0.488,0.000
1673805072.879,-14.160,-16.602,-32.227,-8.301,0.000
1673805072.883,-25.879,-29.785,-31.738,-17.090,0.000
1673805072.887,-21.973,-24.414,-24.902,-0.488,0.000
1673805072.891,-23.926,-21.973,-16.602,9.766,0.000
1673805072.895,-25.879,-25.879,-19.043,8.301,0.000
1673805072.899,-15.137,-20.020,-23.926,0.488,0.000
1673805072.903,-15.137,-17.090,-23.926,-10.254,0.000
1673805072.906,-10.742,-20.508,-21.973,-4.395,0.000
1673805072.910,-7.812,-28.320,-19.043,-0.977,0.000
1673805072.914,-7.324,-29.297,-11.230,-2.441,0.000
1673805072.918,-6.348,-21.973,-10.254,-3.906,0.000
1673805072.922,-3.418,-22.949,-17.090,-6.348,0.000
1673805072.926,-11.719,-24.414,-20.508,-5.859,0.000
1673805072.930,-9.766,-22.461,-26.367,-13.184,0.000
1673805072.934,-0.977,-22.949,-24.902,-20.020,0.000
1673805072.938,-4.883,-26.367,-19.043,-21.973,0.000
1673805072.942,-7.324,-31.250,-22.949,-21.484,0.000
1673805072.945,-31.738,-32.715,-25.391,-17.090,0.000
1673805072.949,-54.688,-22.949,-27.344,-17.578,0.000
1673805072.953,-44.922,-16.113,-27.832,-15.137,0.000
1673805072.957,-25.879,-20.996,-24.902,-19.531,0.000
1673805072.961,-13.672,-26.367,-31.738,-27.344,0.000
1673805072.965,-7.812,-21.484,-35.645,-24.414,0.000
1673805072.969,-7.324,-20.020,-32.715,-20.508,0.000
1673805072.973,-25.391,-18.555,-29.785,-11.719,0.000
1673805072.977,-34.668,-17.090,-27.832,-4.883,0.000
1673805072.981,-28.320,-25.391,-29.785,-9.766,0.000
1673805072.985,-19.043,-27.344,-32.227,-23.438,0.000
1673805072.988,-20.020,-23.926,-30.273,-21.973,0.000
1673805072.992,-9.766,-16.602,-27.832,-13.184,0.000
1673805072.996,1.465,-13.672,-24.902,-3.906,0.000
1673805073.000,-0.977,-16.113,-20.508,0.000,0.000
1673805073.004,-4.883,-22.461,-22.461,-5.371,0.000
1673805073.008,-17.090,-16.602,-22.461,3.906,0.000
1673805073.012,-17.090,-11.230,-26.367,8.789,0.000
1673805073.016,-5.859,-9.277,-26.855,0.488,0.000
1673805073.020,-3.906,-3.906,-24.414,-3.906,0.000
1673805073.024,-5.371,-6.836,-19.531,-3.418,0.000
1673805073.028,-14.648,-14.648,-21.484,-11.230,0.000
1673805073.031,-11.719,-23.926,-27.832,-24.414,0.000
1673805073.035,-8.789,-30.273,-27.832,-28.320,0.000
1673805073.039,-18.066,-23.926,-23.926,-18.555,0.000
1673805073.043,-17.090,-21.973,-29.297,-17.090,0.000
1673805073.047,-19.043,-23.926,-30.762,-16.602,0.000
1673805073.051,-20.020,-15.625,-20.020,-12.207,0.000
1673805073.055,-3.418,-9.766,-14.648,-2.441,0.000
1673805073.059,-18.066,-13.184,-11.719,4.395,0.000
1673805073.063,-23.926,-16.113,-16.602,2.441,0.000
1673805073.067,0.977,-15.137,-21.484,0.000,0.000
1673805073.070,14.648,-16.113,-17.578,7.812,0.000
1673805073.074,4.395,-26.855,-17.090,8.789,0.000
1673805073.078,-20.996,-30.762,-20.996,13.672,0.000
1673805073.082,-23.926,-21.973,-18.066,14.648,0.000
1673805073.086,-16.602,-21.973,-11.230,10.742,0.000
1673805073.090,-18.066,-28.320,-17.578,10.742,0.000
1673805073.094,-17.090,-20.508,-20.996,5.859,0.000
1673805073.098,-20.020,-18.555,-18.555,-9.766,0.000
1673805073.102,-18.555,-14.648,-21.973,-11.719,0.000
1673805073.106,-0.977,-11.230,-20.020,1.953,0.000
1673805073.110,-9.766,-20.996,-17.578,-7.324,0.000
1673805073.113,-29.785,-14.648,-13.184,-21.484,0.000
1673805073.117,-25.879,-14.648,-13.184,-30.273,0.000
1673805073.121,-21.484,-31.250,-20.020,-40.527,0.000
1673805073.125,-24.414,-29.297,-17.578,-41.992,0.000
1673805073.129,-28.320,-15.137,-13.672,-25.879,0.000
1673805073.133,-34.180,-18.555,-21.973,-22.949,0.000
1673805073.137,-34.180,-25.391,-23.926,-42.969,0.000
1673805073.141,-8.789,-13.672,-17.578,-31.250,0.000
1673805073.145,5.371,-9.277,-8.301,-7.812,0.000
1673805073.149,-8.789,-12.207,-6.836,-8.301,0.000
1673805073.153,-11.719,-12.207,-15.137,-8.789,0.000
1673805073.156,1.953,-16.602,-19.043,-4.883,0.000
1673805073.160,-13.184,-15.137,-22.461,-7.812,0.000
1673805073.164,-33.691,-10.742,-22.461,-6.836,0.000
1673805073.168,-14.648,-12.207,-17.090,-1.465,0.000
1673805073.172,2.930,-13.184,-18.555,3.906,0.000
1673805073.176,-6.348,-11.230,-18.555,17.578,0.000
1673805073.180,-9.277,-6.348,-11.719,17.578,0.000
1673805073.184,-4.395,0.000,-11.230,0.977,0.000
1673805073.188,-4.395,0.977,-17.090,-2.441,0.000
1673805073.192,-6.348,-8.789,-15.137,0.977,0.000
1673805073.195,-9.277,-16.113,-14.160,-8.789,0.000
1673805073.199,-13.184,-18.555,-15.137,-14.160,0.000
1673805073.203,-11.230,-20.508,-12.695,-10.254,0.000
1673805073.207,-17.090,-9.766,-13.184,4.395,0.000
1673805073.211,-16.602,-5.371,-13.672,7.324,0.000
1673805073.215,-18.555,-11.719,-11.230,-6.836,0.000
1673805073.219,-21.484,-14.648,-9.766,-7.324,0.000
1673805073.223,-17.090,-15.625,-13.184,-4.395,0.000
1673805073.227,-17.578,-20.996,-16.113,-12.207,0.000
1673805073.231,-9.277,-21.484,-19.043,-16.113,0.000
1673805073.235,-3.906,-22.461,-16.113,-17.090,0.000
1673805073.238,-7.324,-21.973,-15.137,-10.742,0.000
1673805073.242,-10.254,-11.719,-17.090,-3.906,0.000
1673805073.246,-14.648,-14.160,-17.578,-3.906,0.000
1673805073.250,-16.602,-23.438,-18.066,3.906,0.000
1673805073.254,-13.672,-25.879,-19.531,-1.465,0.000
1673805073.258,-17.578,-27.344,-23.926,-9.277,0.000
1673805073.262,-20.020,-20.020,-20.020,-2.441,0.000
1673805073.266,-12.695,-17.090,-17.090,1.465,0.000
1673805073.270,-20.020,-20.996,-15.625,-3.418,0.000
1673805073.274,-25.391,-20.020,-8.301,0.488,0.000
1673805073.278,-18.066,-17.090,-2.930,4.883,0.000
1673805073.281,-26.367,-12.695,-3.418,1.465,0.000
1673805073.285,-29.785,-16.602,-4.883,7.812,0.000
1673805073.289,-29.297,-24.414,-3.906,5.371,0.000
1673805073.293,-15.625,-24.902,-2.441,-0.977,0.000
1673805073.297,-10.742,-21.973,-7.324,-4.883,0.000
1673805073.301,-13.672,-15.625,-9.277,-11.230,0.000
1673805073.305,-12.207,-16.113,-8.789,-14.160,0.000
1673805073.309,-12.695,-17.090,-7.324,-1.465,0.000
1673805073.313,-17.090,-18.555,-6.836,2.441,0.000
1673805073.317,-19.531,-23.438,-12.207,-12.695,0.000
1673805073.320,1.953,-21.484,-13.184,-0.977,0.000
1673805073.324,10.742,-11.719,-14.648,14.160,0.000
1673805073.328,-5.371,-6.836,-13.672,7.324,0.000
1673805073.332,-8.301,-21.484,-13.672,1.953,0.000
1673805073.336,10.742,-29.297,-23.438,4.883,0.000
1673805073.340,21.484,-17.090,-23.438,10.742,0.000
1673805073.344,8.789,-14.160,-20.508,11.719,0.000
1673805073.348,-1.465,-21.484,-27.344,8.789,0.000
1673805073.352,4.395,-24.414,-30.762,7.812,0.000
1673805073.356,-3.418,-25.879,-23.926,5.371,0.000
1673805073.360,-17.090,-24.902,-24.902,0.977,0.000
1673805073.363,-23.926,-19.531,-23.438,0.488,0.000
1673805073.367,-20.508,-14.648,-23.438,-1.953,0.000
1673805073.371,-9.277,-19.531,-25.391,0.000,0.000
1673805073.375,-20.020,-21.973,-30.762,-10.742,0.000
1673805073.379,-29.297,-16.602,-22.949,-16.113,0.000
1673805073.383,-26.855,-17.090,-17.090,-11.719,0.000
1673805073.387,-27.832,-26.367,-23.926,-16.113,0.000
1673805073.391,-33.203,-28.809,-19.531,-7.324,0.000
1673805073.395,-24.902,-17.090,-19.531,2.930,0.000
1673805073.399,-14.160,-14.160,-29.785,-14.648,0.000
1673805073.403,-4.395,-20.996,-28.320,-26.855,0.000
1673805073.406,6.348,-18.066,-21.973,-5.859,0.000
1673805073.410,-0.977,-13.184,-23.926,-3.418,0.000
1673805073.414,-6.348,-12.695,-20.020,-3.418,0.000
1673805073.418,1.953,-16.113,-20.996,1.953,0.000
1673805073.422,4.883,-12.695,-23.926,-7.324,0.000
1673805073.426,-16.113,-24.414,-20.996,-5.371,0.000
1673805073.430,-23.926,-32.715,-22.461,-6.836,0.000
1673805073.434,-16.602,-22.461,-24.902,-12.207,0.000
1673805073.438,-18.555,-25.391,-21.484,-14.648,0.000
1673805073.442,-20.020,-25.879,-21.973,-3.906,0.000
1673805073.445,-13.672,-22.949,-25.391,-0.488,0.000
1673805073.449,-16.113,-26.855,-20.508,-11.719,0.000
1673805073.453,-27.344,-27.344,-15.625,-9.277,0.000
1673805073.457,-32.227,-24.414,-20.996,-8.301,0.000
1673805073.461,-26.367,-19.043,-14.648,-8.301,0.000
1673805073.465,-23.438,-27.344,-13.672,-10.254,0.000
1673805073.469,-22.461,-38.574,-21.484,-23.438,0.000
1673805073.473,-25.391,-38.086,-26.367,-27.832,0.000
1673805073.477,-37.598,-29.297,-27.344,-23.926,0.000
1673805073.481,-36.133,-18.066,-22.461,-21.973,0.000
1673805073.485,-25.391,-16.113,-22.461,-31.250,0.000
1673805073.488,-31.250,-28.809,-26.855,-35.156,0.000
1673805073.492,-39.551,-26.367,-27.344,-18.066,0.000
1673805073.496,-33.203,-18.066,-24.414,-11.230,0.000
1673805073.500,-17.578,-21.484,-25.391,-19.531,0.000
1673805073.504,-0.488,-23.438,-22.461,-8.301,0.000
1673805073.508,-15.137,-27.832,-20.020,1.465,0.000
1673805073.512,-30.762,-25.879,-25.391,-11.719,0.000
1673805073.516,-18.555,-20.996,-29.297,-10.742,0.000
1673805073.520,-15.625,-26.367,-21.973,-8.789,0.000
1673805073.524,-19.531,-30.762,-20.508,-6.348,0.000
1673805073.528,-10.254,-25.879,-21.973,-8.301,0.000
1673805073.531,-8.301,-22.461,-20.020,-17.578,0.000
1673805073.535,-20.508,-28.320,-24.414,-20.020,0.000
1673805073.539,-7.812,-30.762,-25.879,-17.578,0.000
1673805073.543,-6.348,-21.973,-25.879,-14.648,0.000
1673805073.547,-31.738,-23.926,-23.438,-18.555,0.000
1673805073.551,-25.391,-27.832,-21.973,-11.719,0.000
1673805073.555,-17.578,-24.414,-23.926,-13.184,0.000
1673805073.559,-25.391,-27.344,-25.391,-23.438,0.000
1673805073.563,-27.832,-39.551,-24.414,-24.414,0.000
1673805073.567,-24.414,-39.062,-23.926,-20.508,0.000
1673805073.570,-30.762,-22.461,-24.902,-19.043,0.000
1673805073.574,-31.250,-18.066,-25.879,-14.648,0.000
1673805073.578,-21.484,-20.508,-25.879,-11.230,0.000
1673805073.582,-3.906,-23.926,-28.320,-13.672,0.000
1673805073.586,-4.395,-27.832,-30.762,-20.508,0.000
1673805073.590,-18.555,-28.809,-25.879,-16.113,0.000
1673805073.594,-9.766,-24.902,-26.855,-3.906,0.000
1673805073.598,-8.789,-28.320,-28.320,11.719,0.000
1673805073.602,-15.137,-29.297,-21.973,7.812,0.000
1673805073.606,-17.578,-16.113,-16.113,2.930,0.000
1673805073.610,-19.043,-15.625,-18.066,10.742,0.000
1673805073.613,-20.996,-20.020,-17.578,9.277,0.000
1673805073.617,-22.949,-21.973,-19.531,2.930,0.000
1673805073.621,-11.230,-23.438,-24.414,-1.465,0.000
1673805073.625,0.488,-26.367,-21.484,-0.488,0.000
1673805073.629,-10.254,-25.879,-21.484,-2.441,0.000
1673805073.633,-14.648,-20.020,-24.414,-6.348,0.000
1673805073.637,-2.930,-22.949,-24.414,-13.672,0.000
1673805073.641,7.812,-21.484,-23.438,-4.395,0.000
1673805073.645,-21.973,-26.855,-21.973,-4.883,0.000
1673805073.649,-37.109,-30.762,-22.461,-13.672,0.000
1673805073.653,-26.855,-29.297,-23.438,-7.812,0.000
1673805073.656,-33.203,-35.156,-20.996,-2.441,0.000
1673805073.660,-30.762,-31.250,-23.438,-4.883,0.000
1673805073.664,-27.832,-16.113,-26.855,-17.090,0.000
1673805073.668,-25.391,-13.672,-24.902,-28.320,0.000
1673805073.672,-17.578,-16.113,-21.973,-22.949,0.000
1673805073.676,-12.207,-16.113,-29.785,-13.184,0.000
1673805073.680,-17.090,-21.973,-30.273,-16.113,0.000
1673805073.684,-20.996,-20.508,-21.973,-16.602,0.000
1673805073.688,-20.508,-16.113,-23.438,-12.207,0.000
1673805073.692,-14.648,-20.020,-30.762,-16.602,0.000
1673805073.695,-3.906,-26.367,-36.133,-25.879,0.000
1673805073.699,8.301,-30.762,-32.715,-22.461,0.000
1673805073.703,0.977,-20.996,-28.809,-20.508,0.000
1673805073.707,-17.090,-20.508,-29.297,-12.695,0.000
1673805073.711,-20.508,-25.391,-27.344,-5.859,0.000
1673805073.715,-35.156,-21.973,-30.273,-10.742,0.000
1673805073.719,-32.715,-18.066,-31.250,-14.160,0.000
1673805073.723,-15.137,-17.090,-30.762,-13.672,0.000
1673805073.727,-19.531,-12.207,-32.715,-3.906,0.000
1673805073.731,-23.438,-14.648,-26.367,-2.930,0.000
1673805073.735,-15.625,-22.461,-30.762,-13.184,0.000
1673805073.738,-12.695,-21.973,-36.621,-24.414,0.000
1673805073.742,-2.930,-23.438,-37.598,-31.250,0.000
1673805073.746,-3.906,-16.113,-38.574,-29.297,0.000
1673805073.750,-5.859,-10.254,-31.250,-25.391,0.000
1673805073.754,1.953,-15.625,-29.297,-16.602,0.000
1673805073.758,-15.137,-28.809,-27.344,-6.836,0.000
1673805073.762,-39.062,-27.344,-23.438,-5.859,0.000
1673805073.766,-39.551,-20.020,-27.344,-8.301,0.000
1673805073.770,-26.855,-25.879,-21.484,-8.789,0.000
1673805073.774,-17.578,-22.949,-18.555,-10.742,0.000
1673805073.778,-10.742,-15.625,-18.555,-11.230,0.000
1673805073.781,-9.766,-18.555,-19.531,-17.578,0.000
1673805073.785,-11.719,-18.066,-23.926,-15.137,0.000
1673805073.789,0.488,-13.672,-20.020,-8.301,0.000
1673805073.793,0.488,-15.137,-26.855,-15.137,0.000
1673805073.797,-18.066,-28.320,-32.715,-18.066,0.000
1673805073.801,-25.879,-31.250,-21.484,-16.113,0.000
1673805073.805,-16.602,-20.996,-14.160,-15.137,0.000
1673805073.809,-22.461,-21.484,-16.113,-13.672,0.000
1673805073.813,-36.133,-27.344,-12.207,-8.789,0.000
1673805073.817,-24.902,-25.391,-12.207,-17.578,0.000
1673805073.820,-16.113,-23.926,-18.555,-34.180,0.000
1673805073.824,-25.391,-24.902,-21.484,-37.109,0.000
1673805073.828,-41.992,-21.484,-18.555,-40.039,0.000
1673805073.832,-37.109,-24.902,-11.719,-24.414,0.000
1673805073.836,-29.297,-33.203,-19.531,-9.766,0.000
1673805073.840,-31.250,-28.809,-27.344,-17.090,0.000
1673805073.844,-28.320,-27.344,-20.020,-12.207,0.000
1673805073.848,-26.367,-30.762,-13.672,-6.836,0.000
1673805073.852,-29.297,-31.250,-17.578,-5.859,0.000
1673805073.856,-29.785,-31.250,-24.902,-5.859,0.000
1673805073.860,-28.320,-29.785,-23.438,-2.930,0.000
1673805073.863,-17.578,-32.715,-20.508,-3.906,0.000
1673805073.867,-0.488,-37.109,-20.996,-12.695,0.000
1673805073.871,0.977,-36.621,-20.996,-3.906,0.000
1673805073.875,-2.930,-25.391,-23.926,-1.953,0.000
1673805073.879,-7.812,-14.648,-21.484,1.953,0.000
1673805073.883,0.000,-14.160,-23.926,5.371,0.000
1673805073.887,6.836,-10.254,-29.297,6.836,0.000
1673805073.891,-2.930,-20.508,-28.320,7.812,0.000
1673805073.895,-14.648,-28.809,-28.809,10.742,0.000
1673805073.899,-20.020,-19.531,-30.762,2.930,0.000
1673805073.903,-21.484,-19.531,-28.320,-8.301,0.000
1673805073.906,-20.996,-26.367,-30.762,-8.789,0.000
1673805073.910,-14.648,-25.391,-33.203,-6.836,0.000
1673805073.914,-11.719,-25.391,-31.250,-13.672,0.000
1673805073.918,-21.484,-25.879,-28.320,-25.391,0.000
1673805073.922,-24.902,-25.391,-30.762,-19.043,0.000
1673805073.926,-30.273,-19.531,-33.203,-11.230,0.000
1673805073.930,-27.344,-16.113,-34.180,-15.137,0.000
1673805073.934,-8.301,-18.555,-28.320,-11.230,0.000
1673805073.938,-0.488,-18.555,-19.531,-10.742,0.000
1673805073.942,-13.672,-17.578,-21.973,-5.371,0.000
1673805073.945,-14.648,-21.973,-30.273,-9.277,0.000
1673805073.949,-16.602,-20.508,-29.785,-11.230,0.000
1673805073.953,-33.203,-25.879,-26.855,-9.766,0.000
1673805073.957,-21.484,-30.273,-26.855,-14.160,0.000
1673805073.961,3.906,-23.438,-29.297,-15.137,0.000
1673805073.965,-8.789,-31.250,-29.297,-9.766,0.000
1673805073.969,-31.738,-31.250,-31.250,-14.648,0.000
1673805073.973,-21.973,-20.996,-29.297,-17.090,0.000
1673805073.977,-18.555,-30.273,-29.785,-9.277,0.000
1673805073.981,-42.480,-37.598,-29.297,-6.836,0.000
1673805073.985,-33.691,-17.090,-25.391,-3.418,0.000
1673805073.988,-20.508,-8.789,-28.809,-7.812,0.000
1673805073.992,-25.391,-20.020,-26.367,-19.043,0.000
1673805073.996,-21.973,-20.020,-23.438,-28.809,0.000
1673805074.000,-20.996,-20.508,-22.949,-29.785,0.000
1673805074.004,-11.230,-32.227,-26.367,-24.902,0.000
1673805074.008,-7.812,-31.738,-33.203,-28.320,0.000
1673805074.012,-23.438,-20.508,-32.715,-27.344,0.000
1673805074.016,-35.645,-17.090,-31.250,-19.531,0.000
1673805074.020,-32.715,-22.949,-29.297,-10.742,0.000
1673805074.024,-26.855,-24.414,-30.762,-7.812,0.000
1673805074.028,-28.320,-17.578,-28.320,-8.789,0.000
1673805074.031,-24.902,-15.625,-18.555,-5.371,0.000
1673805074.035,-14.160,-23.926,-18.555,-20.020,0.000
1673805074.039,3.418,-18.555,-20.508,-19.043,0.000
1673805074.043,5.859,-14.648,-19.043,0.000,0.000
1673805074.047,3.906,-16.602,-17.578,-4.883,0.000
1673805074.051,-5.859,-17.090,-17.578,-9.766,0.000
1673805074.055,-8.789,-19.043,-19.531,2.930,0.000
1673805074.059,6.836,-16.602,-18.066,8.301,0.000
1673805074.063,12.207,-17.578,-20.996,-8.789,0.000
1673805074.067,-1.953,-21.484,-21.973,-9.277,0.000
1673805074.070,-1.465,-15.625,-18.066,0.977,0.000
1673805074.074,3.418,-14.160,-14.648,3.906,0.000
1673805074.078,-16.113,-27.832,-12.207,4.883,0.000
1673805074.082,-25.391,-28.809,-15.137,-6.836,0.000
1673805074.086,-12.695,-12.207,-16.113,-9.277,0.000
1673805074.090,5.371,-14.160,-14.160,0.977,0.000
1673805074.094,-10.254,-22.461,-15.137,2.441,0.000
1673805074.098,-36.621,-18.555,-18.066,0.000,0.000
1673805074.102,-19.531,-13.184,-18.066,-2.441,0.000
1673805074.106,-9.277,-12.207,-13.672,3.906,0.000
1673805074.110,-15.137,-12.695,-13.184,12.695,0.000
1673805074.113,-4.883,-15.625,-12.695,9.766,0.000
1673805074.117,-5.371,-19.043,-12.207,8.301,0.000
1673805074.121,-15.137,-19.043,-10.254,9.766,0.000
1673805074.125,-14.160,-15.625,-11.230,2.930,0.000
1673805074.129,-7.324,-18.066,-13.184,-5.859,0.000
1673805074.133,-8.789,-16.602,-13.672,-15.137,0.000
1673805074.137,-6.348,-14.160,-13.672,-10.742,0.000
1673805074.141,-2.441,-16.602,-14.648,-1.465,0.000
1673805074.145,9.766,-14.648,-13.672,-7.324,0.000
1673805074.149,11.230,-4.883,-9.766,-10.254,0.000
1673805074.153,5.371,-4.395,-12.207,-3.906,0.000
1673805074.156,2.441,-15.137,-13.184,3.418,0.000
1673805074.160,-9.766,-19.531,-10.254,0.000,0.000
1673805074.164,-4.395,-14.160,-7.324,-3.906,0.000
1673805074.168,-3.906,-11.719,-12.207,0.977,0.000
1673805074.172,-22.949,-19.043,-23.926,-8.301,0.000
1673805074.176,-27.344,-18.555,-19.043,-7.812,0.000
1673805074.180,-10.742,-12.695,-10.742,0.000,0.000
1673805074.184,11.230,-8.301,-11.719,-11.230,0.000
1673805074.188,4.395,-12.695,-18.555,-19.531,0.000
1673805074.192,-9.277,-15.137,-18.066,-8.789,0.000
1673805074.195,-0.977,-13.184,-16.602,-6.348,0.000
1673805074.199,-8.301,-9.766,-19.531,-6.348,0.000
1673805074.203,-27.344,-2.930,-15.137,-3.906,0.000
1673805074.207,-34.180,-9.277,-12.207,6.836,0.000
1673805074.211,-27.344,-15.625,-11.719,18.555,0.000
1673805074.215,-18.066,-11.230,-14.648,5.371,0.000
1673805074.219,-14.648,-15.137,-19.531,-7.324,0.000
1673805074.223,-20.508,-19.531,-18.066,1.465,0.000
1673805074.227,-18.066,-18.555,-19.531,3.418,0.000
1673805074.231,-6.836,-10.254,-20.508,-2.441,0.000
1673805074.235,0.000,-9.766,-16.113,-8.789,0.000
1673805074.238,-0.977,-17.090,-16.602,-6.348,0.000
1673805074.242,-10.742,-24.902,-24.414,5.371,0.000
1673805074.246,-9.766,-17.578,-22.949,18.555,0.000
1673805074.250,1.953,-5.859,-23.438,0.488,0.000
1673805074.254,5.371,-13.672,-33.203,-16.602,0.000
1673805074.258,12.207,-19.043,-25.391,-2.930,0.000
1673805074.262,15.625,-17.578,-24.902,-4.395,0.000
1673805074.266,0.000,-13.184,-28.809,-17.090,0.000
1673805074.270,-14.160,-6.836,-12.695,-13.184,0.000
1673805074.274,-13.184,-8.789,-11.719,-16.113,0.000
1673805074.278,-20.508,-10.742,-19.043,-21.973,0.000
1673805074.281,-26.367,-8.301,-17.578,-11.230,0.000
1673805074.285,-26.367,-11.230,-14.648,-6.348,0.000
1673805074.289,-33.203,-11.230,-17.578,-7.812,0.000
1673805074.293,-26.855,-15.625,-20.020,-3.906,0.000
1673805074.297,-10.254,-17.090,-15.625,8.301,0.000
1673805074.301,-4.395,-14.160,-17.578,3.418,0.000
1673805074.305,-7.812,-21.484,-19.043,-3.906,0.000
1673805074.309,-7.324,-28.320,-18.066,7.812,0.000
1673805074.313,-17.090,-23.926,-20.020,7.324,0.000
1673805074.317,-24.414,-22.461,-20.996,-10.742,0.000
1673805074.320,-18.555,-20.996,-20.020,-12.207,0.000
1673805074.324,-24.902,-19.043,-20.996,-12.207,0.000
1673805074.328,-23.438,-21.484,-23.926,-13.672,0.000
1673805074.332,-20.508,-23.926,-22.461,-27.344,0.000
1673805074.336,-17.090,-22.949,-22.461,-30.273,0.000
1673805074.340,-14.160,-20.020,-28.320,-15.137,0.000
1673805074.344,-28.809,-18.555,-25.879,-12.695,0.000
1673805074.348,-31.738,-23.438,-24.902,-16.113,0.000
1673805074.352,-23.438,-27.832,-29.297,-21.484,0.000
1673805074.356,-26.855,-25.879,-28.320,-17.578,0.000
1673805074.360,-40.039,-23.438,-25.879,-14.160,0.000
1673805074.363,-43.457,-23.438,-26.855,-25.879,0.000
1673805074.367,-30.273,-24.902,-24.902,-32.227,0.000
1673805074.371,-34.668,-24.902,-23.438,-23.926,0.000
1673805074.375,-32.227,-18.555,-20.508,-18.066,0.000
1673805074.379,-9.277,-10.742,-17.090,-16.113,0.000
1673805074.383,-6.348,-14.648,-21.973,-23.926,0.000
1673805074.387,-20.996,-17.578,-25.391,-12.695,0.000
1673805074.391,-2.930,-13.672,-25.391,-2.930,0.000
1673805074.395,4.395,-7.812,-27.832,-16.113,0.000
1673805074.399,-3.906,-9.277,-27.344,-17.578,0.000
1673805074.403,0.977,-14.648,-24.414,-13.184,0.000
1673805074.406,-8.301,-16.602,-27.344,-16.602,0.000
1673805074.410,-3.906,-18.066,-27.832,-13.672,0.000
1673805074.414,3.906,-10.254,-21.973,-8.301,0.000
1673805074.418,5.371,-4.395,-19.043,-1.465,0.000
1673805074.422,-3.906,-19.531,-24.414,-0.977,0.000
1673805074.426,-16.113,-28.809,-29.297,-4.883,0.000
1673805074.430,-21.484,-22.949,-23.926,-1.465,0.000
1673805074.434,-18.555,-19.043,-20.996,-5.371,0.000
1673805074.438,-10.254,-14.648,-17.090,0.977,0.000
1673805074.442,-5.859,-20.020,-16.602,1.953,0.000
1673805074.445,-2.930,-24.414,-24.414,-9.766,0.000
1673805074.449,-4.395,-12.207,-20.020,-8.789,0.000
1673805074.453,-16.602,-12.695,-16.113,-1.953,0.000
1673805074.457,-27.832,-21.484,-18.555,-0.977,0.000
