timestamp,TP9,AF7,AF8,TP10,Right AUX
0.000,-43.457,-25.879,-1.953,-63.477,0.000
4.000,-49.316,-11.230,-2.441,-72.754,0.000
8.000,-36.621,-2.441,-1.953,-67.383,0.000
12.000,-26.855,-10.254,-4.395,-52.734,0.000
16.000,-43.945,-33.203,-21.973,-64.941,0.000
20.000,-55.176,-10.742,-21.973,-77.637,0.000
23.000,-53.711,3.418,-4.395,-71.777,0.000
27.000,-40.527,0.977,3.418,-49.316,0.000
31.000,-40.527,-11.230,-9.766,-51.270,0.000
35.000,-55.176,-27.832,-26.367,-70.312,0.000
39.000,-44.434,-30.762,-24.414,-56.152,0.000
43.000,-37.598,-13.672,-21.973,-47.363,0.000
47.000,-46.387,3.906,-18.555,-43.945,0.000
51.000,-53.711,-1.465,-11.719,-44.922,0.000
55.000,-43.457,1.953,-10.742,-49.805,0.000
59.000,-30.762,-10.742,-12.695,-41.992,0.000
62.000,-40.527,-12.207,-12.207,-39.551,0.000
66.000,-41.016,2.930,-14.648,-33.691,0.000
70.000,-35.645,-4.883,-13.184,-30.762,0.000
74.000,-37.109,-16.113,-11.719,-35.645,0.000
78.000,-27.344,-31.250,-16.113,-33.203,0.000
82.000,-8.789,-20.508,-8.789,-22.461,0.000
86.000,-13.184,4.883,-12.695,-21.973,0.000
90.000,-33.691,-3.906,-17.578,-26.367,0.000
94.000,-27.832,5.859,-1.465,-24.902,0.000
98.000,-34.668,6.348,-7.324,-37.598,0.000
102.000,-45.410,-17.090,-15.137,-45.410,0.000
105.000,-33.203,-20.020,-16.602,-36.133,0.000
109.000,-17.578,-2.441,-21.484,-24.414,0.000
113.000,-17.090,-1.953,-24.902,-24.902,0.000
117.000,-21.484,-9.766,-22.461,-33.203,0.000
121.000,-30.273,-9.277,-20.020,-46.387,0.000
125.000,-36.133,-16.602,-20.996,-35.645,0.000
129.000,-36.621,-13.672,-18.066,-29.297,0.000
133.000,-29.297,-15.137,-18.066,-41.504,0.000
137.000,-28.320,-26.367,-23.438,-37.109,0.000
141.000,-29.785,-14.160,-23.438,-33.203,0.000
145.000,-31.738,-27.344,-29.785,-31.738,0.000
148.000,-31.250,-10.742,-29.785,-30.273,0.000
152.000,-34.180,11.719,-21.973,-40.039,0.000
156.000,-34.180,7.324,-25.391,-45.410,0.000
160.000,-24.902,-6.836,-29.297,-40.527,0.000
164.000,-13.184,-12.207,-20.996,-35.645,0.000
168.000,-13.672,-5.859,-22.461,-43.945,0.000
172.000,-23.926,-17.090,-27.832,-43.945,0.000
176.000,-33.203,-18.066,-29.297,-50.781,0.000
180.000,-29.297,-12.207,-33.691,-56.641,0.000
184.000,-29.297,-15.137,-28.320,-54.688,0.000
188.000,-36.621,-15.137,-20.996,-57.617,0.000
191.000,-25.391,-12.695,-26.367,-57.129,0.000
195.000,-28.809,-32.715,-27.832,-58.594,0.000
199.000,-46.387,-43.457,-16.113,-54.199,0.000
203.000,-54.688,-30.762,-15.625,-57.129,0.000
207.000,-58.594,-14.648,-26.367,-62.500,0.000
211.000,-57.617,-1.465,-11.719,-46.875,0.000
215.000,-68.359,-14.648,-9.277,-58.105,0.000
219.000,-83.984,-25.391,-22.949,-70.801,0.000
223.000,-85.449,-24.902,-27.832,-64.941,0.000
227.000,-90.332,-24.902,-28.320,-73.242,0.000
230.000,-91.797,-11.230,-17.578,-85.938,0.000
234.000,-125.000,-20.996,-22.461,-118.164,0.000
238.000,-132.324,-28.320,-31.250,-134.277,0.000
242.000,-89.355,-24.414,-20.020,-95.215,0.000
246.000,-94.727,-27.832,-21.484,-87.402,0.000
250.000,-118.652,-32.227,-39.062,-113.770,0.000
254.000,-104.004,-14.648,-38.574,-95.215,0.000
258.000,-92.285,0.488,-33.203,-81.055,0.000
262.000,-76.172,-14.160,-42.480,-71.777,0.000
266.000,-68.848,-22.461,-50.781,-68.359,0.000
270.000,-70.801,-24.414,-54.688,-68.848,0.000
273.000,-49.316,-24.902,-54.688,-52.734,0.000
277.000,-46.875,-30.273,-58.105,-47.363,0.000
281.000,-49.316,-32.715,-65.430,-38.086,0.000
285.000,-30.762,-29.785,-66.406,-36.621,0.000
289.000,-22.949,-34.668,-66.895,-45.898,0.000
293.000,-23.438,-36.621,-63.965,-34.180,0.000
297.000,-19.043,-33.691,-62.500,-13.672,0.000
301.000,-5.859,-30.762,-60.547,3.418,0.000
305.000,3.418,-32.227,-54.688,1.465,0.000
309.000,16.602,-31.738,-57.129,7.324,0.000
312.000,29.785,-31.250,-61.523,20.020,0.000
316.000,39.551,-30.273,-55.664,23.926,0.000
320.000,32.227,-30.273,-61.523,18.066,0.000
324.000,29.297,-33.691,-57.129,30.762,0.000
328.000,46.387,-30.273,-47.363,48.828,0.000
332.000,44.434,-30.273,-46.387,41.992,0.000
336.000,48.828,-30.273,-35.645,35.156,0.000
340.000,64.453,-27.832,-32.715,37.109,0.000
344.000,50.293,-26.367,-36.621,46.387,0.000
348.000,30.273,-25.391,-35.645,51.758,0.000
352.000,33.691,-21.973,-30.762,52.246,0.000
355.000,42.969,-20.508,-25.391,51.758,0.000
359.000,42.969,-19.531,-21.973,53.711,0.000
363.000,33.203,-23.926,-22.949,42.480,0.000
367.000,31.250,-22.461,-25.391,33.691,0.000
371.000,36.133,-19.043,-21.973,41.992,0.000
375.000,37.598,-14.648,-17.578,49.805,0.000
379.000,39.062,-12.695,-21.484,36.621,0.000
383.000,31.738,-14.648,-23.926,25.879,0.000
387.000,36.133,-12.207,-17.578,28.809,0.000
391.000,43.457,-13.672,-16.113,24.414,0.000
395.000,46.387,-12.695,-14.648,26.855,0.000
398.000,45.898,-5.371,-9.766,24.414,0.000
402.000,48.340,-6.348,-11.230,10.742,0.000
406.000,55.664,-4.395,-12.695,17.090,0.000
410.000,50.293,-8.301,-18.555,19.531,0.000
414.000,41.992,-13.672,-18.066,17.578,0.000
418.000,34.668,-12.695,-14.648,11.230,0.000
422.000,26.855,-16.113,-20.508,-4.395,0.000
426.000,20.508,-18.066,-22.949,0.977,0.000
430.000,13.672,-12.207,-21.484,7.812,0.000
434.000,18.555,-9.766,-20.508,1.953,0.000
438.000,32.715,-11.719,-17.090,-0.488,0.000
441.000,15.625,-13.184,-20.020,8.789,0.000
445.000,-7.324,-19.043,-26.855,6.836,0.000
449.000,-11.719,-15.137,-28.809,-6.348,0.000
453.000,-9.766,-18.066,-25.391,-11.719,0.000
457.000,-1.465,-21.484,-23.438,-9.277,0.000
461.000,-0.488,-25.391,-28.320,-7.812,0.000
465.000,-5.859,-29.297,-24.414,-10.742,0.000
469.000,-15.625,-24.414,-16.113,-17.090,0.000
473.000,-18.066,-22.949,-20.020,-15.137,0.000
477.000,-20.020,-29.785,-23.438,-3.906,0.000
480.000,-30.273,-31.738,-19.531,-0.488,0.000
484.000,-29.297,-21.484,-11.719,-12.207,0.000
488.000,-21.484,-20.020,-8.789,-19.531,0.000
492.000,-22.949,-28.809,-11.230,-16.602,0.000
496.000,-30.762,-27.344,-13.672,-20.996,0.000
500.000,-28.320,-20.020,-11.719,-30.762,0.000
504.000,-31.250,-24.902,-11.230,-29.785,0.000
508.000,-21.973,-23.438,-12.207,-20.508,0.000
512.000,-20.020,-19.531,-10.742,-19.043,0.000
516.000,-30.762,-26.367,-11.719,-25.879,0.000
520.000,-32.715,-21.973,-12.207,-25.879,0.000
523.000,-14.648,-16.113,-8.789,-20.020,0.000
527.000,-2.441,-16.602,-5.371,-9.766,0.000
531.000,-8.789,-17.090,-8.301,-16.602,0.000
535.000,-12.695,-16.602,-14.160,-36.621,0.000
539.000,-11.230,-16.602,-11.719,-38.086,0.000
543.000,-27.832,-10.742,-8.789,-20.508,0.000
547.000,-38.574,-8.789,-9.277,-12.695,0.000
551.000,-31.250,-12.207,-8.301,-16.602,0.000
555.000,-19.043,-10.254,-9.277,-19.531,0.000
559.000,-16.602,-15.625,-16.113,-20.020,0.000
563.000,-27.832,-26.367,-25.879,-25.879,0.000
566.000,-36.621,-31.250,-32.227,-35.645,0.000
570.000,-33.691,-26.855,-25.391,-39.551,0.000
574.000,-27.832,-25.879,-22.949,-35.156,0.000
578.000,-29.785,-32.227,-24.902,-31.738,0.000
582.000,-25.879,-24.902,-23.438,-29.297,0.000
586.000,-17.578,-20.020,-25.879,-34.180,0.000
590.000,-17.090,-22.461,-25.391,-36.133,0.000
594.000,-23.926,-23.926,-24.902,-22.461,0.000
598.000,-33.691,-19.531,-21.973,-20.996,0.000
602.000,-35.156,-20.020,-20.020,-32.715,0.000
605.000,-38.574,-24.902,-21.973,-37.598,0.000
609.000,-30.762,-22.949,-20.508,-30.762,0.000
613.000,-19.043,-24.902,-13.184,-11.719,0.000
617.000,-31.250,-28.809,-4.883,-19.043,0.000
621.000,-47.363,-30.762,-9.277,-40.039,0.000
625.000,-44.434,-39.062,-9.277,-34.668,0.000
629.000,-38.086,-51.758,-2.930,-24.902,0.000
633.000,-51.270,-49.805,-7.324,-39.062,0.000
637.000,-60.059,-41.016,2.441,-43.457,0.000
641.000,-63.965,-41.016,-1.465,-42.480,0.000
645.000,-72.754,-54.199,-14.160,-50.293,0.000
648.000,-83.496,-56.641,-8.301,-62.012,0.000
652.000,-102.051,-58.594,-21.484,-86.426,0.000
656.000,-87.402,-52.246,-21.973,-85.449,0.000
660.000,-62.500,-57.129,-12.207,-62.988,0.000
664.000,-57.617,-48.828,-50.781,-64.453,0.000
668.000,-81.543,-34.668,-42.969,-97.656,0.000
672.000,-97.168,-65.430,11.230,-96.680,0.000
676.000,-87.402,-79.102,9.277,-80.078,0.000
680.000,-90.332,-63.477,-29.785,-88.379,0.000
684.000,-64.453,-8.301,-4.883,-62.988,0.000
688.000,-38.086,20.020,42.480,-48.828,0.000
691.000,-47.363,-16.602,-16.113,-67.871,0.000
695.000,-83.008,-6.348,-85.938,-83.984,0.000
699.000,-95.703,-9.766,-59.082,-89.844,0.000
703.000,-71.289,-90.332,-2.930,-82.520,0.000
707.000,-67.871,-93.750,-11.719,-70.801,0.000
711.000,-79.102,-4.395,-28.320,-70.801,0.000
715.000,-84.961,11.230,-17.578,-85.938,0.000
719.000,-88.867,3.418,-2.930,-92.285,0.000
723.000,-74.219,0.977,10.742,-77.637,0.000
727.000,-53.223,-28.809,-2.930,-59.570,0.000
730.000,-80.566,-35.156,-33.203,-70.801,0.000
734.000,-116.699,-30.273,-45.898,-95.703,0.000
738.000,-107.910,-30.762,-41.504,-84.961,0.000
742.000,-98.145,-24.414,-53.223,-72.754,0.000
746.000,-93.262,-24.414,-60.059,-82.031,0.000
750.000,-102.539,-28.809,-63.477,-106.445,0.000
754.000,-103.516,-25.879,-67.871,-118.652,0.000
758.000,-93.262,-19.043,-61.523,-108.887,0.000
762.000,-92.773,-24.414,-62.500,-96.680,0.000
766.000,-89.844,-41.504,-62.012,-102.539,0.000
770.000,-83.496,-48.828,-53.711,-110.352,0.000
773.000,-80.566,-36.621,-57.617,-96.191,0.000
777.000,-91.309,-46.387,-65.430,-86.914,0.000
781.000,-104.980,-38.086,-70.312,-97.656,0.000
785.000,-109.375,-55.176,-77.148,-110.352,0.000
789.000,-105.957,-78.613,-86.914,-107.422,0.000
793.000,-93.262,-32.715,-71.289,-88.867,0.000
797.000,-76.660,-11.230,-54.199,-74.219,0.000
801.000,-73.730,-41.016,-65.918,-70.312,0.000
805.000,-83.984,-66.895,-73.242,-77.148,0.000
809.000,-78.125,-60.059,-60.059,-72.266,0.000
813.000,-77.148,-37.598,-56.641,-48.828,0.000
816.000,-66.895,-43.457,-55.176,-40.527,0.000
820.000,-74.219,-39.062,-54.199,-54.688,0.000
824.000,-86.914,-29.785,-54.688,-47.363,0.000
828.000,-67.871,-29.297,-44.434,-27.832,0.000
832.000,-46.875,-24.902,-35.645,-16.602,0.000
836.000,-44.434,-30.273,-40.039,-24.414,0.000
840.000,-57.617,-34.180,-46.387,-41.504,0.000
844.000,-56.152,-49.316,-47.852,-40.039,0.000
848.000,-39.062,-48.828,-43.945,-23.438,0.000
852.000,-29.785,-27.832,-50.293,-11.719,0.000
855.000,-40.039,-32.227,-52.734,-10.742,0.000
859.000,-40.039,-54.199,-26.855,-0.488,0.000
863.000,-25.879,-77.637,-5.859,4.395,0.000
867.000,-34.180,-53.711,-22.949,-12.695,0.000
871.000,-40.039,-18.066,-36.621,-18.066,0.000
875.000,-25.391,-6.836,-28.809,-3.418,0.000
879.000,-21.973,-30.273,-27.832,-5.371,0.000
883.000,-30.273,-43.945,-30.762,-28.809,0.000
887.000,-35.156,-12.695,-27.832,-44.434,0.000
891.000,-27.832,-8.789,-20.996,-25.391,0.000
895.000,-33.203,-27.832,-29.785,-19.531,0.000
898.000,-44.922,-33.203,-40.527,-42.969,0.000
902.000,-42.969,-39.062,-41.504,-51.758,0.000
906.000,-30.273,-43.945,-37.109,-38.574,0.000
910.000,-16.113,-25.391,-30.762,-18.555,0.000
914.000,-30.273,-23.926,-27.344,-18.555,0.000
918.000,-56.152,-62.988,-29.785,-31.250,0.000
922.000,-49.316,-78.125,-32.227,-23.926,0.000
926.000,-36.621,-25.879,-31.250,-15.137,0.000
930.000,-30.762,-12.695,-23.926,-4.395,0.000
934.000,-24.902,-24.414,-19.531,16.602,0.000
938.000,-40.527,-30.762,-27.832,2.441,0.000
941.000,-50.293,-38.086,-28.809,-22.949,0.000
945.000,-34.180,-50.293,-24.414,-19.531,0.000
949.000,-37.109,-47.363,-39.062,-21.484,0.000
953.000,-40.527,-20.996,-45.898,-27.344,0.000
957.000,-39.551,-20.996,-46.875,-33.203,0.000
961.000,-34.180,-26.367,-48.828,-26.367,0.000
965.000,-19.531,-25.879,-37.598,-11.719,0.000
969.000,-6.348,-32.227,-37.109,-5.859,0.000
973.000,-14.648,-46.387,-42.480,-11.230,0.000
977.000,-18.066,-38.574,-42.969,-7.324,0.000
980.000,2.441,-23.438,-40.039,5.371,0.000
984.000,14.160,-25.879,-35.645,10.742,0.000
988.000,9.766,-33.203,-35.645,0.000,0.000
992.000,9.766,-29.297,-37.598,-6.348,0.000
996.000,-8.789,-22.461,-31.250,-7.324,0.000
1000.000,-12.695,-18.555,-24.414,-7.812,0.000
1004.000,2.441,-18.066,-28.320,-12.695,0.000
1008.000,-17.578,-25.879,-36.621,-21.484,0.000
1012.000,-34.668,-30.762,-31.738,-18.555,0.000
1016.000,-46.875,-26.855,-22.461,-28.320,0.000
1020.000,-70.312,-17.578,-28.809,-56.641,0.000
1023.000,-59.082,-15.137,-34.668,-55.176,0.000
1027.000,-41.504,-12.207,-24.414,-33.203,0.000
1031.000,-44.922,-5.371,-19.043,-44.434,0.000
1035.000,-58.594,-0.977,-16.602,-57.617,0.000
1039.000,-67.871,0.000,-7.324,-56.152,0.000
1043.000,-75.684,-4.883,-10.254,-62.500,0.000
1047.000,-89.355,-16.113,-14.160,-75.195,0.000
1051.000,-91.797,-20.020,-10.254,-80.566,0.000
1055.000,-82.520,-7.324,-15.625,-78.125,0.000
1059.000,-73.730,-5.859,-20.508,-81.055,0.000
1063.000,-71.289,-14.648,-24.414,-73.242,0.000
1066.000,-60.547,-23.438,-28.320,-66.895,0.000
1070.000,-46.387,-25.391,-24.902,-71.289,0.000
1074.000,-27.832,-15.625,-19.531,-58.105,0.000
1078.000,-16.602,-17.090,-18.066,-38.574,0.000
1082.000,-25.879,-21.973,-19.531,-28.809,0.000
1086.000,-21.484,-20.020,-24.902,-17.090,0.000
1090.000,-15.625,-22.461,-24.414,-4.883,0.000
1094.000,-11.230,-22.461,-13.672,7.812,0.000
1098.000,5.859,-26.367,-10.254,16.113,0.000
1102.000,18.555,-36.621,-9.277,18.555,0.000
1105.000,26.855,-35.156,-2.441,21.973,0.000
1109.000,42.969,-27.832,-8.789,31.738,0.000
1113.000,34.180,-33.691,-11.719,34.180,0.000
1117.000,19.531,-42.969,-9.277,28.320,0.000
1121.000,17.578,-32.715,-10.254,19.531,0.000
1125.000,16.113,-27.832,-7.812,19.531,0.000
1129.000,13.672,-32.227,-8.301,33.691,0.000
1133.000,4.395,-31.250,-12.207,33.203,0.000
1137.000,9.277,-29.297,-5.371,31.250,0.000
1141.000,20.996,-28.320,2.930,32.715,0.000
1145.000,14.160,-36.621,-9.766,24.414,0.000
1148.000,9.277,-40.039,-17.578,17.090,0.000
1152.000,20.996,-32.715,-7.324,25.879,0.000
1156.000,23.438,-26.855,-2.930,31.250,0.000
1160.000,26.367,-20.020,-2.441,34.180,0.000
1164.000,33.203,-14.648,2.930,42.969,0.000
1168.000,35.156,-15.625,3.906,29.785,0.000
1172.000,43.457,-16.602,5.859,25.391,0.000
1176.000,47.852,-20.996,4.395,29.297,0.000
1180.000,41.504,-22.461,0.977,26.367,0.000
1184.000,37.598,-19.043,2.930,24.414,0.000
1188.000,42.480,-23.438,-0.488,26.367,0.000
1191.000,47.363,-20.996,-6.836,39.062,0.000
1195.000,46.387,-14.648,-12.695,44.434,0.000
1199.000,36.133,-24.414,-15.137,33.691,0.000
1203.000,19.531,-26.367,-6.348,29.297,0.000
1207.000,23.438,-20.508,0.488,37.109,0.000
1211.000,34.180,-21.484,-4.395,36.621,0.000
1215.000,37.598,-11.230,-5.859,35.156,0.000
1219.000,32.227,-4.883,-10.254,27.344,0.000
1223.000,20.020,-11.719,-15.137,21.973,0.000
1227.000,15.137,-14.160,-11.230,31.738,0.000
1230.000,4.883,-22.949,-10.254,32.715,0.000
1234.000,-5.859,-22.461,-12.695,16.113,0.000
1238.000,2.930,-9.766,-9.766,9.277,0.000
1242.000,2.930,-5.859,-10.742,13.672,0.000
1246.000,-0.977,-8.301,-14.160,6.348,0.000
1250.000,5.371,-9.277,-14.648,4.883,0.000
1254.000,7.324,-7.812,-13.672,10.254,0.000
1258.000,7.324,-17.578,-13.672,13.184,0.000
1262.000,9.766,-19.043,-17.090,16.602,0.000
1266.000,7.812,-11.230,-17.090,11.230,0.000
1270.000,6.348,-11.719,-16.113,-5.371,0.000
1273.000,11.230,-8.789,-18.555,-11.719,0.000
1277.000,5.371,-13.672,-21.484,-0.977,0.000
1281.000,2.441,-18.555,-18.555,1.465,0.000
1285.000,2.930,-14.648,-17.090,-8.789,0.000
1289.000,7.812,-9.766,-13.184,-0.977,0.000
1293.000,13.672,-9.277,-8.789,6.836,0.000
1297.000,7.812,-8.301,-5.371,18.555,0.000
1301.000,10.254,-7.812,-7.812,17.578,0.000
1305.000,15.137,-6.836,-10.254,14.160,0.000
1309.000,14.648,-7.812,-5.859,21.973,0.000
1313.000,23.926,-16.602,-4.395,29.297,0.000
1316.000,26.855,-16.113,-3.418,40.527,0.000
1320.000,32.715,-5.859,-2.930,29.297,0.000
1324.000,36.133,-15.625,-6.836,21.973,0.000
1328.000,21.484,-23.926,-7.324,32.715,0.000
1332.000,8.301,-9.766,-2.441,36.133,0.000
1336.000,-2.930,-9.277,-4.883,25.391,0.000
1340.000,0.488,-11.719,-8.301,26.367,0.000
1344.000,4.883,-10.254,-6.348,32.715,0.000
1348.000,-0.977,-16.113,-12.695,24.902,0.000
1352.000,-11.230,-15.137,-20.996,16.113,0.000
1355.000,-11.719,-9.766,-17.090,15.137,0.000
1359.000,-6.348,-17.090,-12.695,9.277,0.000
1363.000,-13.672,-22.461,-18.066,-6.348,0.000
1367.000,-11.719,-13.184,-15.625,-3.906,0.000
1371.000,4.395,-5.859,-9.766,1.465,0.000
1375.000,-12.695,-11.719,-11.719,-13.672,0.000
1379.000,-35.156,-15.137,-12.695,-22.461,0.000
1383.000,-33.691,-7.324,-9.766,-26.367,0.000
1387.000,-34.668,-12.207,-5.859,-39.062,0.000
1391.000,-33.203,-27.344,-11.230,-45.898,0.000
1395.000,-36.621,-31.738,-13.672,-42.480,0.000
1398.000,-44.434,-29.785,-10.254,-43.945,0.000
1402.000,-45.898,-17.090,-15.137,-52.734,0.000
1406.000,-50.293,-24.902,-17.578,-56.641,0.000
1410.000,-52.734,-50.781,-20.020,-58.594,0.000
1414.000,-55.664,-31.250,-23.926,-60.547,0.000
1418.000,-60.059,-16.113,-18.555,-68.848,0.000
1422.000,-65.430,-36.621,-20.996,-79.102,0.000
1426.000,-62.012,-35.645,-18.555,-74.707,0.000
1430.000,-62.012,-33.203,-14.648,-62.500,0.000
1434.000,-64.941,-38.574,-18.066,-56.152,0.000
1438.000,-59.570,-20.020,-16.602,-56.152,0.000
1441.000,-54.688,-19.531,-21.484,-63.965,0.000
1445.000,-52.246,-41.992,-31.738,-66.895,0.000
1449.000,-54.688,-27.832,-34.180,-66.406,0.000
1453.000,-53.711,-3.418,-24.902,-64.453,0.000
1457.000,-43.945,-25.879,-18.066,-48.828,0.000
1461.000,-37.598,-27.344,-16.113,-23.926,0.000
1465.000,-41.992,-12.207,-20.020,-22.461,0.000
1469.000,-55.176,-20.996,-19.531,-40.039,0.000
1473.000,-54.199,-16.113,-13.672,-40.527,0.000
1477.000,-36.621,-9.277,-10.742,-26.367,0.000
1480.000,-35.156,-24.414,-16.602,-25.879,0.000
1484.000,-31.738,-13.184,-18.066,-28.809,0.000
1488.000,-32.715,-12.695,-9.766,-38.574,0.000
1492.000,-36.621,-36.621,-7.324,-35.645,0.000
1496.000,-31.738,-20.020,-3.906,-26.367,0.000
1500.000,-26.855,3.906,-12.695,-26.367,0.000
1504.000,-24.902,-7.324,-19.531,-33.203,0.000
1508.000,-26.367,-3.906,-2.930,-26.855,0.000
1512.000,-45.898,-30.273,-10.742,-18.066,0.000
1516.000,-51.758,-52.246,-19.531,-27.832,0.000
1520.000,-55.664,-23.438,-20.996,-50.781,0.000
1523.000,-58.105,-4.395,-36.133,-42.480,0.000
1527.000,-62.500,7.812,-25.879,-41.992,0.000
1531.000,-73.242,22.461,-8.301,-64.453,0.000
1535.000,-72.754,11.719,-6.348,-62.988,0.000
1539.000,-61.523,-2.930,-17.090,-42.480,0.000
1543.000,-40.527,-5.859,-16.602,-36.133,0.000
1547.000,-31.738,-4.395,-3.906,-36.621,0.000
1551.000,-48.828,-5.371,-8.301,-49.805,0.000
1555.000,-59.570,-10.254,-14.648,-54.199,0.000
1559.000,-60.547,-7.324,-17.090,-40.527,0.000
1563.000,-69.336,-5.859,-14.160,-32.715,0.000
1566.000,-69.336,-17.578,-11.719,-43.457,0.000
1570.000,-59.082,-34.668,-26.367,-59.570,0.000
1574.000,-58.105,-32.715,-33.691,-62.500,0.000
1578.000,-56.152,-7.812,-28.320,-56.152,0.000
1582.000,-53.223,-12.695,-26.367,-50.293,0.000
1586.000,-54.688,-15.137,-23.926,-48.828,0.000
1590.000,-47.363,-17.090,-18.066,-41.016,0.000
1594.000,-44.922,-41.992,-18.555,-32.715,0.000
1598.000,-47.363,-16.113,-20.020,-30.273,0.000
1602.000,-38.574,19.531,-18.555,-31.250,0.000
1605.000,-35.156,13.672,-14.160,-22.461,0.000
1609.000,-47.852,-10.742,-12.207,-14.648,0.000
1613.000,-51.758,-9.766,-14.648,-27.344,0.000
1617.000,-56.641,-10.742,-14.160,-36.621,0.000
1621.000,-60.547,-40.527,-22.949,-35.156,0.000
1625.000,-58.105,-28.809,-30.273,-41.016,0.000
1629.000,-58.594,-8.789,-30.762,-39.062,0.000
1633.000,-61.035,-27.832,-31.250,-36.133,0.000
1637.000,-45.410,-33.203,-26.855,-33.691,0.000
1641.000,-37.598,-8.301,-24.414,-28.320,0.000
1645.000,-50.781,-7.324,-24.414,-27.832,0.000
1648.000,-50.781,-12.695,-21.973,-21.484,0.000
1652.000,-36.133,-6.836,-15.625,-12.695,0.000
1656.000,-33.691,-25.391,-13.672,-23.926,0.000
1660.000,-42.969,-41.504,-14.648,-31.250,0.000
1664.000,-41.992,-19.043,-15.137,-27.832,0.000
1668.000,-46.387,-15.625,-18.555,-32.715,0.000
1672.000,-58.594,-26.855,-25.391,-38.086,0.000
1676.000,-41.504,-12.695,-17.578,-32.715,0.000
1680.000,-20.996,-19.531,-9.277,-20.508,0.000
1684.000,-26.855,-30.273,-19.531,-27.344,0.000
1688.000,-32.227,-22.949,-25.879,-30.273,0.000
1691.000,-21.973,-9.277,-20.020,-20.020,0.000
1695.000,-26.855,4.395,-20.508,-12.695,0.000
1699.000,-26.367,0.000,-11.719,-8.301,0.000
1703.000,-34.668,-9.766,-4.883,-16.113,0.000
1707.000,-51.758,-21.484,-11.719,-23.926,0.000
1711.000,-41.992,-24.414,-13.184,-19.531,0.000
1715.000,-33.691,-15.137,-13.184,-11.719,0.000
1719.000,-28.320,-3.418,-6.836,-1.953,0.000
1723.000,-27.832,-10.742,-18.555,-19.531,0.000
1727.000,-39.062,-18.066,-34.180,-29.785,0.000
1730.000,-47.852,-19.531,-31.250,-24.902,0.000
1734.000,-40.527,-27.344,-20.996,-21.973,0.000
1738.000,-37.598,-24.902,-14.160,-27.832,0.000
1742.000,-42.969,-21.484,-20.020,-28.809,0.000
1746.000,-27.344,-34.180,-11.719,-5.371,0.000
1750.000,-21.484,-16.602,-9.277,-11.230,0.000
1754.000,-35.645,-5.859,-18.555,-31.250,0.000
1758.000,-28.809,-12.207,-19.043,-22.461,0.000
1762.000,2.441,-4.883,-18.555,1.465,0.000
1766.000,20.996,0.488,-8.789,14.648,0.000
1770.000,-10.742,-5.371,-17.578,-26.367,0.000
1773.000,-31.738,-7.812,-33.203,-50.781,0.000
1777.000,-31.250,-14.160,-28.320,-31.250,0.000
1781.000,-28.809,-18.066,-27.344,-20.508,0.000
1785.000,-22.461,-16.602,-29.297,-14.648,0.000
1789.000,-13.184,-13.184,-24.902,-0.488,0.000
1793.000,-9.766,-10.742,-19.043,4.395,0.000
1797.000,-0.488,-10.254,-16.602,8.301,0.000
1801.000,3.418,-13.184,-18.555,0.977,0.000
1805.000,12.207,-16.113,-15.137,4.883,0.000
1809.000,13.672,-13.184,-17.578,14.160,0.000
1813.000,-5.859,-18.555,-24.902,9.277,0.000
1816.000,5.371,-19.043,-17.578,23.438,0.000
1820.000,24.902,-18.066,-11.230,41.016,0.000
1824.000,7.812,-24.414,-22.949,28.809,0.000
1828.000,-0.977,-26.367,-31.250,23.438,0.000
1832.000,7.812,-24.414,-32.227,29.785,0.000
1836.000,3.418,-27.832,-35.156,15.625,0.000
1840.000,22.461,-27.832,-36.621,20.508,0.000
1844.000,38.574,-17.090,-31.738,42.969,0.000
1848.000,26.367,-18.066,-25.391,46.875,0.000
1852.000,27.832,-19.531,-21.484,44.922,0.000
1855.000,27.832,-21.484,-24.902,34.668,0.000
1859.000,18.555,-28.320,-23.438,22.949,0.000
1863.000,19.043,-34.180,-20.996,28.809,0.000
1867.000,22.949,-38.086,-23.438,30.273,0.000
1871.000,17.090,-30.273,-23.438,20.020,0.000
1875.000,10.254,-30.762,-18.555,24.902,0.000
1879.000,5.859,-31.250,-15.137,31.250,0.000
1883.000,2.441,-27.832,-16.113,23.438,0.000
1887.000,3.418,-33.691,-14.648,15.137,0.000
1891.000,7.812,-34.668,-15.137,17.090,0.000
1895.000,3.906,-30.762,-13.672,20.508,0.000
1898.000,2.441,-27.832,-11.230,15.137,0.000
1902.000,1.465,-30.273,-9.277,8.789,0.000
1906.000,0.000,-27.832,-9.766,10.742,0.000
1910.000,-1.953,-23.926,-7.324,16.602,0.000
1914.000,-2.930,-35.645,-9.277,13.184,0.000
1918.000,-4.883,-33.203,-16.602,0.977,0.000
1922.000,1.465,-16.113,-11.719,14.648,0.000
1926.000,20.508,-7.812,-1.953,33.691,0.000
1930.000,14.160,-12.695,-9.277,21.484,0.000
1934.000,-5.859,-27.832,-29.785,10.742,0.000
1938.000,-4.395,-29.785,-30.762,2.930,0.000
1941.000,0.977,-14.160,-16.113,3.906,0.000
1945.000,-6.348,-15.625,-14.160,6.836,0.000
1949.000,-8.789,-23.926,-15.137,-1.953,0.000
1953.000,-3.906,-19.531,-13.184,-4.883,0.000
1957.000,0.488,-12.695,-16.602,-2.441,0.000
1961.000,-5.859,-13.672,-18.066,-4.883,0.000
1965.000,-18.555,-13.184,-17.090,-2.441,0.000
1969.000,-24.902,-15.137,-20.020,-6.836,0.000
1973.000,-22.461,-23.438,-23.438,-6.836,0.000
1977.000,-21.484,-22.461,-22.949,-4.395,0.000
1981.000,-20.508,-22.461,-16.602,-10.254,0.000
1984.000,-17.578,-20.996,-13.672,-20.020,0.000
1988.000,-17.090,-13.672,-12.695,-24.902,0.000
1992.000,-8.301,-10.254,-4.395,-7.324,0.000
1996.000,-5.859,-20.508,-5.859,-0.488,0.000
2000.000,-10.742,-19.531,-7.324,-10.254,0.000
2004.000,-10.742,0.488,4.395,-7.324,0.000
2008.000,-19.531,-7.812,-4.883,-14.160,0.000
2012.000,-22.461,-15.137,-14.648,-20.508,0.000
2016.000,-21.973,-13.672,-15.625,-20.020,0.000
2020.000,-32.227,-10.254,-20.020,-27.832,0.000
2023.000,-31.738,-11.719,-19.531,-28.809,0.000
2027.000,-25.879,-13.184,-13.184,-16.602,0.000
2031.000,-24.902,-13.672,-12.207,-14.160,0.000
2035.000,-19.531,-13.672,-12.695,-20.508,0.000
2039.000,-18.066,-7.324,-13.672,-20.020,0.000
2043.000,-21.973,-13.184,-15.137,-24.902,0.000
2047.000,-34.180,-19.043,-19.531,-31.250,0.000
2051.000,-36.133,-19.043,-23.438,-39.062,0.000
2055.000,-34.668,-19.531,-22.461,-45.410,0.000
2059.000,-33.203,-19.043,-22.461,-38.086,0.000
2063.000,-35.645,-14.648,-22.949,-23.438,0.000
2066.000,-46.875,-25.879,-22.949,-32.227,0.000
2070.000,-47.852,-32.227,-25.391,-48.828,0.000
2074.000,-47.363,-23.438,-26.367,-47.363,0.000
2078.000,-44.922,-26.855,-26.855,-43.945,0.000
2082.000,-35.645,-25.391,-25.879,-44.434,0.000
2086.000,-39.062,-20.020,-17.578,-50.781,0.000
2090.000,-30.273,-22.949,-11.230,-55.664,0.000
2094.000,-19.531,-20.996,-7.812,-28.809,0.000
2098.000,-33.691,-23.438,-8.789,-12.207,0.000
2102.000,-40.527,-30.762,-16.113,-21.484,0.000
2105.000,-30.762,-31.738,-19.043,-24.902,0.000
2109.000,-13.184,-26.855,-19.043,-22.949,0.000
2113.000,-18.066,-29.297,-15.137,-14.160,0.000
2117.000,-23.926,-17.090,-13.184,-5.859,0.000
2121.000,-15.625,-8.301,-13.672,-10.742,0.000
2125.000,-9.277,-13.184,-14.160,-14.648,0.000
2129.000,0.488,-12.695,-13.672,-4.395,0.000
2133.000,0.977,-16.113,-15.137,-1.465,0.000
2137.000,-11.230,-22.949,-9.277,-8.301,0.000
2141.000,-9.766,-29.297,-6.348,-4.883,0.000
2145.000,-11.719,-35.645,-10.742,0.000,0.000
2148.000,-13.672,-27.832,-12.695,-3.906,0.000
2152.000,-6.348,-13.672,-12.695,-4.883,0.000
2156.000,-4.883,-13.672,-12.695,-10.254,0.000
2160.000,7.324,-19.531,-8.789,-0.488,0.000
2164.000,10.742,-22.949,-5.371,12.207,0.000
2168.000,-13.672,-18.555,-5.859,-11.230,0.000
2172.000,-20.508,-17.090,-9.277,-23.926,0.000
2176.000,-14.160,-23.438,-14.648,-18.066,0.000
2180.000,-18.555,-24.902,-22.461,-25.391,0.000
2184.000,-28.320,-30.273,-22.461,-31.250,0.000
2188.000,-37.598,-30.273,-24.414,-35.156,0.000
2191.000,-35.645,-25.879,-30.273,-31.738,0.000
2195.000,-26.367,-52.734,-27.344,-18.066,0.000
2199.000,-42.480,-45.410,-29.297,-36.621,0.000
2203.000,-49.805,-13.672,-34.668,-64.453,0.000
2207.000,-20.508,-17.090,-24.414,-43.457,0.000
2211.000,-25.879,-22.949,-23.926,-35.645,0.000
2215.000,-52.246,-19.043,-39.551,-63.477,0.000
2219.000,-57.617,-18.555,-41.504,-81.055,0.000
2223.000,-53.223,-23.926,-39.551,-69.824,0.000
2227.000,-59.082,-20.508,-43.945,-66.406,0.000
2231.000,-65.918,-48.340,-37.109,-73.242,0.000
2234.000,-65.430,-53.223,-33.691,-70.801,0.000
2238.000,-55.664,-13.184,-31.738,-70.312,0.000
2242.000,-42.969,-5.859,-22.949,-62.500,0.000
2246.000,-33.203,-8.789,-26.855,-48.340,0.000
2250.000,-38.086,-29.785,-39.551,-56.152,0.000
2254.000,-30.762,-46.387,-14.648,-53.711,0.000
2258.000,-26.855,-43.945,1.465,-47.852,0.000
2262.000,-52.246,-7.812,-10.742,-64.453,0.000
2266.000,-65.918,-0.488,-20.020,-65.430,0.000
2270.000,-57.617,-12.695,-20.020,-50.293,0.000
2273.000,-52.246,-12.207,-14.160,-48.828,0.000
2277.000,-54.688,-15.625,-12.695,-46.875,0.000
2281.000,-74.219,-26.367,-20.020,-54.688,0.000
2285.000,-80.566,-27.344,-22.949,-65.430,0.000
2289.000,-47.852,-32.227,-18.555,-43.945,0.000
2293.000,-30.273,-28.809,-17.578,-29.297,0.000
2297.000,-41.992,-25.391,-30.273,-44.434,0.000
2301.000,-51.270,-44.434,-33.203,-51.758,0.000
2305.000,-36.133,-40.039,-11.719,-41.504,0.000
2309.000,-21.484,-5.371,-0.488,-34.180,0.000
2313.000,-17.578,9.766,0.000,-25.391,0.000
2316.000,-14.160,8.789,2.930,-12.207,0.000
2320.000,-36.621,-12.207,-3.906,-22.949,0.000
2324.000,-52.246,-38.086,-16.113,-49.805,0.000
2328.000,-31.250,-35.156,-24.414,-46.875,0.000
2332.000,-16.602,-2.441,-13.672,-20.996,0.000
2336.000,-31.250,14.648,-5.859,-25.879,0.000
2340.000,-35.156,-8.301,-7.812,-31.250,0.000
2344.000,-29.785,-9.277,-8.789,-13.672,0.000
2348.000,-27.344,1.953,-3.906,-7.812,0.000
2352.000,-23.438,-5.859,-3.418,-19.531,0.000
2356.000,-28.809,-18.066,-8.301,-24.414,0.000
2359.000,-41.016,-27.832,-8.789,-29.297,0.000
2363.000,-33.691,-10.742,-9.277,-21.973,0.000
2367.000,-35.156,-21.484,-24.414,-25.391,0.000
2371.000,-51.270,-13.184,-20.020,-42.969,0.000
2375.000,-49.316,-14.648,-22.949,-50.293,0.000
2379.000,-46.875,-41.504,-34.180,-56.152,0.000
2383.000,-57.129,-39.551,-26.855,-62.012,0.000
2387.000,-57.617,-37.598,-35.645,-65.430,0.000
2391.000,-49.805,-39.062,-48.340,-68.359,0.000
2395.000,-36.621,-19.043,-29.785,-53.711,0.000
2398.000,-39.551,7.324,-11.719,-49.805,0.000
2402.000,-52.246,2.930,-23.926,-63.965,0.000
2406.000,-54.688,-20.020,-27.832,-53.223,0.000
2410.000,-47.852,-17.578,-25.391,-35.156,0.000
2414.000,-59.570,-27.344,-40.527,-36.133,0.000
2418.000,-85.938,-44.922,-52.246,-57.617,0.000
2422.000,-73.242,-23.438,-41.016,-63.965,0.000
2426.000,-53.711,-20.996,-33.691,-56.152,0.000
2430.000,-57.129,-36.133,-32.227,-59.082,0.000
2434.000,-51.758,-18.555,-26.367,-50.781,0.000
2438.000,-30.273,-2.930,-11.230,-28.809,0.000
2441.000,-28.320,-34.668,-20.508,-33.691,0.000
2445.000,-40.527,-38.574,-37.109,-35.156,0.000
2449.000,-39.062,-9.277,-29.785,-22.461,0.000
2453.000,-36.133,-4.883,-28.320,-29.297,0.000
2457.000,-34.668,-17.090,-33.691,-28.320,0.000
2461.000,-27.344,-31.738,-31.250,-15.625,0.000
2465.000,-28.809,-20.996,-26.855,-12.695,0.000
2469.000,-17.090,-10.742,-25.879,-16.602,0.000
2473.000,-10.254,-5.859,-23.438,-14.160,0.000
2477.000,-10.742,-13.672,-13.672,-11.230,0.000
2481.000,-8.789,-20.996,-19.531,-7.812,0.000
2484.000,-3.418,-31.738,-15.137,0.488,0.000
2488.000,-9.277,-24.414,-17.578,-2.441,0.000
2492.000,-12.695,-7.812,-20.996,-4.883,0.000
2496.000,-20.508,-29.297,-19.531,-3.906,0.000
2500.000,-30.762,-25.879,-30.273,-13.672,0.000
2504.000,-9.277,-15.625,-30.273,-3.906,0.000
2508.000,4.883,-10.742,-31.250,2.930,0.000
2512.000,0.000,-7.324,-34.668,-9.277,0.000
2516.000,-2.930,-15.625,-34.668,-14.648,0.000
2520.000,-14.160,-39.062,-43.945,-40.527,0.000
2523.000,-13.184,-49.805,-41.504,-34.668,0.000
2527.000,-9.766,-37.598,-33.691,-12.695,0.000
2531.000,-2.441,-24.414,-37.598,-14.648,0.000
2535.000,9.277,-21.484,-28.809,-12.207,0.000
2539.000,-1.953,-35.156,-31.250,-11.230,0.000
2543.000,-21.484,-67.383,-41.016,-6.348,0.000
2547.000,-23.926,-73.242,-39.062,-5.859,0.000
2551.000,-20.996,-37.109,-46.387,-19.531,0.000
2555.000,-26.855,-24.902,-50.293,-13.672,0.000
2559.000,-20.996,-34.180,-45.898,3.906,0.000
2563.000,-13.672,-34.180,-45.898,6.348,0.000
2566.000,-13.184,-38.086,-44.434,-0.977,0.000
2570.000,-13.184,-37.109,-41.504,-10.742,0.000
2574.000,2.930,-35.156,-37.109,12.207,0.000
2578.000,5.859,-34.668,-40.527,33.691,0.000
2582.000,-7.812,-36.621,-43.457,23.926,0.000
2586.000,-0.977,-37.598,-34.668,16.602,0.000
2590.000,9.277,-27.832,-25.391,16.602,0.000
2594.000,0.488,-29.785,-34.668,2.930,0.000
2598.000,-10.742,-36.621,-41.992,-5.371,0.000
2602.000,0.000,-28.320,-35.156,0.488,0.000
2606.000,1.953,-23.926,-37.109,-8.789,0.000
2609.000,8.789,-28.809,-37.109,-2.930,0.000
2613.000,25.391,-29.297,-21.973,8.789,0.000
2617.000,32.227,-22.949,-19.043,2.930,0.000
2621.000,24.414,-22.461,-29.785,2.441,0.000
2625.000,30.273,-26.367,-36.621,7.812,0.000
2629.000,40.039,-23.438,-36.133,7.324,0.000
2633.000,16.113,-21.484,-32.227,11.230,0.000
2637.000,-5.859,-23.438,-29.785,16.113,0.000
2641.000,1.953,-24.902,-27.832,20.508,0.000
2645.000,11.719,-19.043,-20.996,38.086,0.000
2648.000,-6.836,-12.695,-22.461,38.574,0.000
2652.000,-16.113,-17.090,-25.879,15.137,0.000
2656.000,-2.441,-27.832,-27.344,-0.977,0.000
2660.000,9.277,-28.809,-29.785,10.254,0.000
2664.000,2.930,-27.344,-30.762,12.695,0.000
2668.000,-3.906,-25.391,-32.715,-2.441,0.000
2672.000,2.930,-16.113,-23.926,-5.859,0.000
2676.000,0.488,-12.695,-15.137,-3.418,0.000
2680.000,3.418,-8.789,-16.602,-8.301,0.000
2684.000,-1.465,-2.441,-16.113,-14.648,0.000
2688.000,-6.348,-0.977,-11.719,-21.973,0.000
2691.000,-5.859,-3.906,-12.695,-29.785,0.000
2695.000,-12.207,-7.812,-16.602,-32.227,0.000
2699.000,-14.648,-12.207,-15.625,-41.992,0.000
2703.000,-15.137,-12.695,-10.742,-47.363,0.000
2707.000,-31.738,-14.648,-11.230,-43.945,0.000
2711.000,-46.875,-20.020,-13.672,-49.805,0.000
2715.000,-52.734,-25.391,-15.625,-67.871,0.000
2719.000,-62.500,-23.926,-15.625,-80.566,0.000
2723.000,-61.523,-22.461,-13.184,-79.102,0.000
2727.000,-65.918,-25.879,-16.113,-71.777,0.000
2731.000,-73.730,-20.996,-13.184,-55.664,0.000
2734.000,-63.965,-17.090,-8.301,-47.852,0.000
2738.000,-47.852,-25.879,-8.301,-52.246,0.000
2742.000,-38.574,-25.391,-6.348,-44.922,0.000
2746.000,-32.227,-10.254,-5.859,-35.156,0.000
2750.000,-25.879,0.977,-2.930,-34.180,0.000
2754.000,-25.391,0.488,-0.977,-30.273,0.000
2758.000,-29.297,-7.812,-5.859,-32.715,0.000
2762.000,-18.555,-7.812,-2.930,-27.344,0.000
2766.000,-13.184,-11.230,0.000,-15.625,0.000
2770.000,-18.066,-19.043,-4.395,-11.230,0.000
2773.000,-14.648,-19.531,-4.395,-10.742,0.000
2777.000,-3.906,-15.137,-3.906,-4.883,0.000
2781.000,8.301,-4.395,4.883,17.090,0.000
2785.000,22.461,2.441,11.719,23.438,0.000
2789.000,25.879,-8.301,2.441,-1.953,0.000
2793.000,20.508,-20.020,-11.719,-13.184,0.000
2797.000,11.230,-16.602,-9.277,-4.883,0.000
2801.000,8.301,-11.719,-3.906,-5.371,0.000
2805.000,4.395,-11.719,-5.859,-6.836,0.000
2809.000,8.789,-14.160,-6.836,-1.953,0.000
2813.000,18.066,-1.953,-4.883,2.930,0.000
2816.000,18.066,2.930,2.441,3.418,0.000
2820.000,17.090,-9.277,-0.977,2.441,0.000
2824.000,16.602,2.441,-7.812,3.906,0.000
2828.000,19.531,5.859,-3.906,11.230,0.000
2832.000,17.090,-3.906,1.953,19.043,0.000
2836.000,12.695,-0.977,-2.930,4.883,0.000
2840.000,9.277,-1.953,-8.789,-1.953,0.000
2844.000,11.230,-7.812,-12.207,12.695,0.000
2848.000,7.812,-11.719,-13.184,16.602,0.000
2852.000,-4.883,-14.160,-11.719,6.348,0.000
2856.000,10.742,-13.184,-13.184,0.977,0.000
2859.000,16.602,-10.254,-15.137,0.977,0.000
2863.000,-4.395,-15.137,-16.113,-6.836,0.000
2867.000,-4.395,-26.855,-14.648,-20.508,0.000
2871.000,12.207,-27.832,-6.836,-20.508,0.000
2875.000,30.762,-21.973,-4.883,-0.488,0.000
2879.000,14.160,-11.230,-7.812,-5.371,0.000
2883.000,-19.043,-8.789,-4.883,-36.621,0.000
2887.000,-16.602,-17.090,-2.441,-44.434,0.000
2891.000,-6.348,-17.090,-5.859,-34.668,0.000
2895.000,-13.672,-9.766,-13.184,-41.504,0.000
2898.000,-39.551,-18.555,-17.578,-62.988,0.000
2902.000,-55.176,-32.715,-23.438,-87.891,0.000
2906.000,-52.246,-19.531,-22.461,-95.215,0.000
2910.000,-52.246,5.371,-17.578,-83.984,0.000
2914.000,-68.848,3.906,-22.949,-92.773,0.000
2918.000,-93.262,-9.766,-23.926,-117.188,0.000
2922.000,-110.840,-3.906,-20.020,-126.465,0.000
2926.000,-124.023,13.184,-30.273,-139.648,0.000
2930.000,-144.531,25.391,-36.133,-155.273,0.000
2934.000,-162.598,23.926,-41.992,-166.504,0.000
2938.000,-165.527,-1.465,-44.434,-187.012,0.000
2941.000,-151.367,-7.812,-38.574,-179.688,0.000
2945.000,-128.906,-3.906,-41.016,-153.809,0.000
2949.000,-132.324,38.086,-48.340,-142.090,0.000
2953.000,-153.809,22.949,-34.180,-159.668,0.000
2957.000,-124.512,-29.297,10.254,-136.719,0.000
2961.000,-106.445,-9.277,4.883,-105.957,0.000
2965.000,-119.141,15.137,-20.996,-123.047,0.000
2969.000,-108.887,34.180,-32.227,-135.742,0.000
2973.000,-96.680,13.184,-31.250,-125.977,0.000
2977.000,-81.543,-4.395,-27.832,-99.121,0.000
2981.000,-73.242,22.949,-43.457,-90.332,0.000
2984.000,-78.613,2.930,-46.387,-103.027,0.000
2988.000,-57.129,2.441,-17.090,-93.262,0.000
2992.000,-40.527,13.672,-0.488,-67.871,0.000
2996.000,-53.711,-21.973,-34.668,-67.383,0.000
3000.000,-44.922,-61.035,-56.641,-68.848,0.000
3004.000,-47.852,-37.109,-32.715,-75.684,0.000
3008.000,-44.434,4.883,0.488,-60.059,0.000
3012.000,-24.902,-4.395,2.441,-42.480,0.000
3016.000,-30.762,13.184,0.488,-44.434,0.000
3020.000,-29.785,4.395,11.230,-38.574,0.000
3023.000,-15.625,-11.719,-12.207,-20.508,0.000
3027.000,-28.320,-23.926,-27.832,-12.207,0.000
3031.000,-40.039,-42.969,-12.207,-33.691,0.000
3035.000,-33.691,-55.176,-16.602,-46.387,0.000
3039.000,-31.250,-50.293,-28.320,-44.434,0.000
3043.000,-30.762,-11.230,-14.160,-41.992,0.000
3047.000,-32.715,-27.832,0.977,-30.273,0.000
3051.000,-43.457,-31.250,-15.625,-41.992,0.000
3055.000,-44.922,-29.785,-32.715,-60.059,0.000
3059.000,-16.113,-42.969,-20.508,-37.598,0.000
3063.000,-1.953,-28.320,-15.137,-20.508,0.000
3066.000,-10.742,-40.527,-29.297,-25.879,0.000
3070.000,-40.039,-51.758,-37.598,-56.641,0.000
3074.000,-51.758,-40.039,-28.320,-62.988,0.000
3078.000,-29.297,-34.180,-19.531,-33.203,0.000
3082.000,-15.137,-41.016,-20.508,-15.137,0.000
3086.000,-36.133,-37.598,-27.832,-35.156,0.000
3090.000,-30.762,-16.113,-32.227,-39.551,0.000
3094.000,-14.160,-12.695,-33.203,-18.555,0.000
3098.000,-30.762,-23.926,-42.969,-14.160,0.000
3102.000,-14.648,-9.766,-13.184,-5.371,0.000
3106.000,-4.883,0.000,11.719,-4.395,0.000
3109.000,-23.926,-40.527,-4.883,-7.812,0.000
3113.000,-42.480,-79.590,-20.996,-13.184,0.000
3117.000,-47.363,-52.246,-46.387,-27.832,0.000
3121.000,-33.203,-43.457,-47.852,-25.879,0.000
3125.000,-30.762,-51.758,-21.484,-14.648,0.000
3129.000,-36.621,-19.531,-12.207,-8.301,0.000
3133.000,-35.156,-16.113,-21.973,-8.789,0.000
3137.000,-18.066,-31.738,-14.648,-1.953,0.000
3141.000,0.977,-22.949,2.441,10.254,0.000
3145.000,-12.207,-20.020,-6.348,6.348,0.000
3148.000,-30.273,-23.438,-23.926,-9.277,0.000
3152.000,-36.133,-41.992,-29.785,-23.438,0.000
3156.000,-36.621,-46.875,-24.414,-24.414,0.000
3160.000,-32.227,-28.320,-29.785,-19.043,0.000
3164.000,-31.250,-38.086,-38.086,-19.043,0.000
3168.000,-32.227,-52.246,-25.879,-21.973,0.000
3172.000,-27.344,-36.621,-15.137,-31.250,0.000
3176.000,-19.043,-7.812,-20.020,-39.062,0.000
3180.000,-4.395,-23.438,-19.531,-19.531,0.000
3184.000,-1.465,-48.828,-29.785,-11.719,0.000
3188.000,-17.578,-33.691,-38.574,-30.273,0.000
3191.000,-32.715,-38.086,-34.668,-36.133,0.000
3195.000,-37.598,-29.297,-33.691,-23.926,0.000
3199.000,-50.781,-24.414,-40.039,-24.414,0.000
3203.000,-54.688,-38.574,-35.156,-38.574,0.000
3207.000,-35.645,-24.414,-21.484,-33.691,0.000
3211.000,-41.016,-25.391,-22.461,-21.973,0.000
3215.000,-45.898,-48.828,-26.367,-21.484,0.000
3219.000,-29.297,-42.480,-20.996,-19.043,0.000
3223.000,-36.621,-36.133,-22.461,-27.344,0.000
3227.000,-52.246,-40.527,-27.832,-41.016,0.000
3231.000,-54.688,-58.594,-41.016,-39.551,0.000
3234.000,-53.223,-50.781,-42.969,-29.785,0.000
3238.000,-45.410,-50.293,-31.738,-32.227,0.000
3242.000,-45.898,-43.457,-48.340,-44.922,0.000
3246.000,-54.688,-31.738,-31.738,-50.293,0.000
3250.000,-55.176,-32.227,-10.254,-47.852,0.000
3254.000,-50.293,-19.531,-18.555,-48.828,0.000
3258.000,-50.293,-24.414,-25.879,-40.527,0.000
3262.000,-36.621,-29.785,-19.043,-15.625,0.000
3266.000,-30.762,-27.832,-11.230,-9.766,0.000
3270.000,-33.203,-21.973,-18.555,-21.484,0.000
3273.000,-25.879,-41.504,-29.785,-26.367,0.000
3277.000,-9.766,-41.016,-37.598,-4.883,0.000
3281.000,10.254,-18.066,-35.645,17.090,0.000
3285.000,-12.207,-22.949,-31.250,-11.719,0.000
3289.000,-20.996,-23.438,-25.879,-18.555,0.000
3293.000,-2.930,-20.508,-24.414,0.000,0.000
3297.000,0.488,-25.879,-32.715,-0.488,0.000
3301.000,1.465,-19.531,-35.156,-2.930,0.000
3305.000,-1.953,-23.438,-35.645,-4.395,0.000
3309.000,-10.254,-34.668,-40.039,-1.465,0.000
3313.000,-9.766,-34.180,-40.039,8.301,0.000
3316.000,-14.648,-39.062,-38.086,-3.418,0.000
3320.000,-20.508,-40.527,-37.109,-10.742,0.000
3324.000,-6.348,-36.133,-41.504,-4.883,0.000
3328.000,5.859,-35.645,-42.480,-9.277,0.000
3332.000,3.418,-37.598,-33.691,-6.348,0.000
3336.000,8.789,-33.203,-34.180,-8.789,0.000
3340.000,3.418,-31.250,-30.273,-12.695,0.000
3344.000,-32.227,-32.715,-22.949,-12.207,0.000
3348.000,-57.129,-30.273,-24.414,-20.508,0.000
3352.000,-47.852,-21.484,-20.020,-26.855,0.000
3356.000,-41.504,-20.996,-21.973,-29.297,0.000
3359.000,-48.340,-26.855,-21.484,-27.832,0.000
3363.000,-63.965,-29.297,-18.555,-41.992,0.000
3367.000,-62.012,-23.438,-20.508,-41.504,0.000
3371.000,-59.570,-15.137,-17.090,-33.691,0.000
3375.000,-77.637,-15.625,-19.043,-64.941,0.000
3379.000,-74.219,-16.113,-24.902,-77.637,0.000
3383.000,-70.801,-14.160,-21.973,-67.871,0.000
3387.000,-81.055,-15.625,-19.531,-77.148,0.000
3391.000,-76.660,-19.043,-18.555,-79.102,0.000
3395.000,-70.801,-19.531,-20.508,-68.848,0.000
3398.000,-64.941,-18.066,-20.020,-65.430,0.000
3402.000,-61.523,-25.879,-21.973,-77.148,0.000
3406.000,-56.152,-25.879,-19.043,-78.613,0.000
3410.000,-45.410,-19.043,-13.672,-61.523,0.000
3414.000,-41.504,-20.020,-15.625,-46.875,0.000
3418.000,-36.621,-22.949,-17.090,-49.805,0.000
3422.000,-15.137,-24.902,-13.184,-42.480,0.000
3426.000,7.324,-20.020,-14.160,-28.320,0.000
3430.000,1.465,-18.555,-12.695,-20.996,0.000
3434.000,6.348,-24.902,-7.812,-1.465,0.000
3438.000,-0.977,-25.879,-8.789,3.906,0.000
3441.000,-11.719,-24.414,-8.789,21.973,0.000
3445.000,6.348,-29.785,-11.719,44.922,0.000
3449.000,13.672,-23.926,-5.859,40.527,0.000
3453.000,22.949,-15.625,0.488,35.645,0.000
3457.000,29.785,-15.137,-13.184,36.133,0.000
3461.000,23.926,-17.090,-14.160,45.898,0.000
3465.000,23.926,-16.602,-3.906,46.875,0.000
3469.000,27.832,-14.160,-4.395,40.527,0.000
3473.000,27.344,-20.996,-8.301,54.688,0.000
3477.000,35.156,-28.809,-6.836,62.988,0.000
3481.000,44.434,-14.160,-4.395,64.453,0.000
3484.000,37.109,-14.160,-8.789,48.828,0.000
3488.000,33.203,-18.555,-11.230,38.086,0.000
3492.000,35.645,-19.043,-11.230,44.434,0.000
3496.000,29.785,-21.973,-13.184,35.156,0.000
3500.000,25.391,-17.090,-13.184,30.273,0.000
3504.000,30.762,-9.766,-7.324,31.738,0.000
3508.000,30.273,-10.742,-6.348,32.715,0.000
3512.000,31.250,-19.043,-9.766,34.180,0.000
3516.000,26.855,-17.090,-10.742,22.949,0.000
3520.000,31.738,-15.137,-9.277,15.625,0.000
3523.000,25.391,-17.090,-15.137,17.578,0.000
3527.000,11.719,-20.996,-18.066,20.508,0.000
3531.000,9.766,-20.508,-11.230,23.438,0.000
3535.000,-3.418,-28.809,-7.812,14.160,0.000
3539.000,-2.930,-22.949,-11.719,8.301,0.000
3543.000,12.695,-16.602,-11.230,16.113,0.000
3547.000,21.973,-20.020,-8.789,26.855,0.000
3551.000,14.648,-23.926,-15.137,23.926,0.000
3555.000,5.371,-36.133,-16.113,7.324,0.000
3559.000,9.277,-20.996,-8.789,11.230,0.000
3563.000,0.000,-16.113,-13.184,16.113,0.000
3566.000,-10.742,-29.297,-20.508,12.207,0.000
3570.000,-6.836,-24.414,-18.555,2.441,0.000
3574.000,9.766,-17.578,-14.648,1.465,0.000
3578.000,16.602,-17.578,-8.301,10.742,0.000
3582.000,-1.465,-18.066,-1.465,10.742,0.000
3586.000,-1.953,-17.578,-1.465,10.254,0.000
3590.000,5.371,-27.832,-12.695,9.766,0.000
3594.000,11.230,-31.738,-14.160,13.184,0.000
3598.000,1.953,-38.574,-13.672,11.719,0.000
3602.000,-2.930,-39.062,-19.043,10.742,0.000
3606.000,2.441,-19.043,-21.484,5.859,0.000
3609.000,15.137,-3.906,-24.902,7.812,0.000
3613.000,20.020,-18.555,-23.926,12.207,0.000
3617.000,18.555,-14.648,-22.461,4.883,0.000
3621.000,19.531,0.488,-18.555,2.930,0.000
3625.000,16.113,-3.418,-18.555,4.883,0.000
3629.000,20.020,-15.625,-19.043,15.137,0.000
3633.000,21.973,-26.367,-18.555,22.461,0.000
3637.000,39.062,-15.137,-12.207,31.250,0.000
3641.000,45.898,-12.695,-2.441,33.691,0.000
3645.000,16.602,-24.414,-10.742,0.000,0.000
3648.000,-1.465,-9.766,-15.137,-6.836,0.000
3652.000,-2.441,10.742,-10.742,0.977,0.000
3656.000,-9.277,-7.324,-15.625,-13.184,0.000
3660.000,-30.273,-1.953,-16.113,-20.996,0.000
3664.000,-39.062,11.230,-24.902,-30.762,0.000
3668.000,-38.574,4.883,-25.391,-48.828,0.000
3672.000,-48.828,1.465,-17.090,-72.754,0.000
3676.000,-49.316,-11.230,-14.648,-86.914,0.000
3680.000,-62.500,-17.090,-9.277,-86.914,0.000
3684.000,-99.121,-15.625,-12.695,-103.027,0.000
3688.000,-108.398,-13.184,-4.395,-118.164,0.000
3691.000,-102.051,-28.809,-14.648,-123.535,0.000
3695.000,-127.441,-41.992,-33.203,-129.395,0.000
3699.000,-147.949,-17.578,-28.320,-141.602,0.000
3703.000,-136.230,3.906,-19.043,-148.438,0.000
3707.000,-125.977,-3.906,-9.277,-144.531,0.000
3711.000,-129.395,-25.391,-9.277,-149.902,0.000
3715.000,-143.066,-30.762,-10.254,-150.879,0.000
3719.000,-140.137,-22.461,-8.789,-145.020,0.000
3723.000,-117.188,-5.371,-13.672,-138.184,0.000
3727.000,-122.070,11.719,-13.672,-134.766,0.000
3731.000,-129.883,11.719,-19.043,-136.230,0.000
3734.000,-129.883,-6.836,-23.438,-150.879,0.000
3738.000,-136.719,-24.902,-18.555,-157.715,0.000
3742.000,-127.930,-29.785,-18.555,-147.949,0.000
3746.000,-132.324,-28.809,-17.090,-142.090,0.000
3750.000,-131.348,-47.852,-10.254,-129.883,0.000
3754.000,-114.746,-61.523,-13.184,-114.746,0.000
3758.000,-106.445,-24.902,-20.020,-102.051,0.000
3762.000,-75.684,13.672,-16.113,-82.031,0.000
3766.000,-71.777,19.531,-10.254,-86.426,0.000
3770.000,-57.617,-1.465,-11.230,-85.938,0.000
3773.000,-34.180,-19.043,-28.809,-63.965,0.000
3777.000,-63.965,-24.414,-44.434,-56.152,0.000
3781.000,-93.750,-25.879,-45.410,-63.965,0.000
3785.000,-89.844,-23.926,-30.273,-76.660,0.000
3789.000,-42.480,-34.668,-3.418,-44.434,0.000
3793.000,-11.719,-20.020,4.395,-14.648,0.000
3797.000,-34.180,-0.977,-11.719,-32.227,0.000
3801.000,-42.480,-15.137,-24.414,-36.621,0.000
3805.000,-22.949,-18.555,-23.926,-27.832,0.000
3809.000,-15.625,-7.812,-14.648,-20.996,0.000
3813.000,-25.879,-7.812,-12.207,-27.832,0.000
3816.000,-42.480,-2.441,-19.043,-37.109,0.000
3820.000,-30.762,-15.137,-20.996,-34.180,0.000
3824.000,-13.184,-23.926,-23.926,-26.367,0.000
3828.000,-21.484,-18.066,-38.574,-27.344,0.000
3832.000,-9.277,-15.625,-27.832,-20.996,0.000
3836.000,0.488,-27.832,-16.113,-15.137,0.000
3840.000,-8.789,-19.531,-22.949,-14.648,0.000
3844.000,-34.668,-1.953,-14.648,-18.066,0.000
3848.000,-50.293,-10.254,-11.230,-21.973,0.000
3852.000,-32.227,-20.020,-20.020,-8.789,0.000
3856.000,-11.230,-24.414,-11.230,-5.859,0.000
3859.000,-6.348,-36.621,-6.348,-8.789,0.000
3863.000,-28.320,-52.734,-26.367,-18.555,0.000
3867.000,-53.711,-31.738,-34.668,-43.945,0.000
3871.000,-52.734,-18.555,-34.180,-53.711,0.000
3875.000,-39.062,-28.809,-29.297,-50.781,0.000
3879.000,-31.250,-20.020,-28.809,-38.086,0.000
3883.000,-33.203,-37.109,-24.414,-35.645,0.000
3887.000,-24.414,-62.500,-5.859,-37.598,0.000
3891.000,-25.391,-44.922,-21.973,-30.762,0.000
3895.000,-48.340,-41.504,-42.969,-30.273,0.000
3898.000,-52.734,-40.039,-18.066,-36.133,0.000
3902.000,-50.781,-33.203,-16.602,-46.875,0.000
3906.000,-45.898,-21.973,-16.113,-38.574,0.000
3910.000,-28.809,-15.137,-2.930,-25.879,0.000
3914.000,-20.508,-29.297,0.000,-22.461,0.000
3918.000,-31.250,-48.340,0.000,-26.367,0.000
3922.000,-25.391,-28.320,2.930,-15.625,0.000
3926.000,-20.508,-11.230,-4.883,-24.414,0.000
3930.000,-20.508,-17.090,-19.531,-36.133,0.000
3934.000,-6.348,-21.484,-13.672,-26.367,0.000
3938.000,-14.160,-46.875,-9.766,-29.785,0.000
3941.000,-41.504,-35.156,-23.926,-39.062,0.000
3945.000,-46.875,-17.578,-30.762,-30.273,0.000
3949.000,-30.762,-20.020,-20.508,-22.461,0.000
3953.000,-16.113,-12.695,-5.371,-27.832,0.000
3957.000,-10.742,-18.555,-7.812,-21.484,0.000
3961.000,-8.789,-8.789,-17.090,-15.137,0.000
3965.000,-16.113,-6.836,-12.207,-12.695,0.000
3969.000,-26.855,-19.043,-18.555,-11.719,0.000
3973.000,-23.438,-7.324,-21.484,-15.625,0.000
3977.000,-10.742,-13.672,-12.207,-8.789,0.000
3981.000,-4.395,-27.344,-9.766,-2.441,0.000
3984.000,-9.277,-18.066,-3.418,2.930,0.000
3988.000,-36.621,-5.859,-14.648,-12.695,0.000
3992.000,-45.410,-8.789,-26.367,-28.809,0.000
3996.000,-43.945,-45.410,-40.527,-33.203,0.000
4000.000,-28.809,-28.809,-38.574,-21.973,0.000
4004.000,-20.508,-6.348,-24.414,-19.531,0.000
4008.000,-33.203,-23.438,-20.508,-36.133,0.000
4012.000,-25.879,-31.250,-12.207,-29.297,0.000
4016.000,-25.391,-26.855,-9.277,-16.602,0.000
4020.000,-33.691,-23.438,-13.672,-28.320,0.000
4023.000,-19.043,-43.945,-7.812,-12.207,0.000
4027.000,-12.695,-41.992,-9.277,-2.930,0.000
4031.000,-32.715,-11.719,-28.809,-28.809,0.000
4035.000,-48.340,-16.602,-33.203,-34.180,0.000
4039.000,-42.480,-36.133,-29.785,-35.645,0.000
4043.000,-41.504,-44.922,-25.391,-30.762,0.000
4047.000,-40.039,-35.645,-9.277,-20.508,0.000
4051.000,-31.738,-14.648,-6.348,-22.949,0.000
4055.000,-18.555,-20.020,-15.625,-22.949,0.000
4059.000,-4.395,-39.551,-15.625,-10.742,0.000
4063.000,12.207,-19.043,-2.441,4.395,0.000
4066.000,22.949,-3.418,-11.230,10.254,0.000
4070.000,7.812,-19.531,-31.250,-13.672,0.000
4074.000,-39.551,-34.668,-39.551,-50.781,0.000
4078.000,-64.453,-29.297,-39.062,-50.781,0.000
4082.000,-50.293,-27.832,-24.902,-26.855,0.000
4086.000,-39.062,-31.250,-23.926,-32.227,0.000
4090.000,-22.461,-33.691,-20.996,-28.809,0.000
4094.000,-10.254,-41.016,-17.090,-12.207,0.000
4098.000,-16.113,-44.922,-23.926,-12.695,0.000
4102.000,-12.695,-41.504,-26.367,-7.812,0.000
4106.000,0.000,-44.922,-22.949,-4.883,0.000
4109.000,-3.906,-44.434,-27.344,-9.277,0.000
4113.000,-7.324,-37.109,-28.320,-3.906,0.000
4117.000,-10.254,-34.668,-26.367,-5.371,0.000
4121.000,-30.762,-41.016,-34.180,-30.273,0.000
4125.000,-20.508,-41.992,-40.527,-18.555,0.000
4129.000,-16.113,-39.551,-34.668,-10.742,0.000
4133.000,-42.969,-39.062,-30.762,-30.762,0.000
4137.000,-51.270,-41.016,-29.785,-37.109,0.000
4141.000,-41.504,-45.898,-24.902,-35.156,0.000
4145.000,-35.156,-41.016,-23.438,-39.062,0.000
4148.000,-44.922,-37.598,-17.090,-41.504,0.000
4152.000,-58.105,-40.527,-16.602,-46.875,0.000
4156.000,-59.082,-36.621,-18.066,-51.758,0.000
4160.000,-55.176,-29.785,-13.184,-54.199,0.000
4164.000,-53.711,-32.227,-17.578,-59.082,0.000
4168.000,-54.199,-33.203,-24.414,-74.707,0.000
4172.000,-46.875,-25.391,-17.090,-68.848,0.000
4176.000,-45.410,-22.461,-16.113,-65.430,0.000
4180.000,-53.223,-22.949,-21.973,-75.684,0.000
4184.000,-65.918,-19.531,-22.461,-73.242,0.000
4188.000,-62.500,-17.090,-22.461,-65.918,0.000
4191.000,-59.082,-13.672,-27.832,-63.965,0.000
4195.000,-55.176,-11.230,-28.320,-54.688,0.000
4199.000,-53.223,-9.277,-24.902,-54.688,0.000
4203.000,-58.105,-9.277,-26.367,-57.129,0.000
4207.000,-41.992,-10.254,-24.902,-46.387,0.000
4211.000,-13.184,-10.742,-23.926,-36.133,0.000
4215.000,-0.488,-11.719,-18.555,-28.320,0.000
4219.000,10.742,-6.836,-14.648,-21.484,0.000
4223.000,26.367,-12.695,-18.555,-10.254,0.000
4227.000,27.832,-14.648,-19.043,3.418,0.000
4231.000,18.066,-6.348,-13.184,16.602,0.000
4234.000,12.695,-11.719,-8.301,23.926,0.000
4238.000,23.438,-17.578,-19.531,25.879,0.000
4242.000,34.180,-18.066,-23.438,28.320,0.000
4246.000,44.922,-17.090,-9.766,39.062,0.000
4250.000,55.664,-13.184,-14.648,46.387,0.000
4254.000,46.875,-9.277,-16.113,36.621,0.000
4258.000,48.340,-14.648,-11.230,34.180,0.000
4262.000,57.129,-25.879,-18.066,47.852,0.000
4266.000,44.434,-20.996,-17.578,54.688,0.000
4270.000,45.898,-14.648,-15.137,50.781,0.000
4273.000,59.570,-11.719,-13.672,53.711,0.000
4277.000,60.547,-13.184,-11.230,62.988,0.000
4281.000,47.363,-20.020,-15.137,60.547,0.000
4285.000,38.574,-14.160,-16.113,47.852,0.000
4289.000,56.641,-5.371,-5.859,56.641,0.000
4293.000,65.430,-10.254,0.000,69.336,0.000
4297.000,66.406,-8.789,0.000,69.824,0.000
4301.000,75.195,-3.418,-1.465,65.430,0.000
4305.000,74.707,-8.789,-4.883,60.547,0.000
4309.000,59.570,-11.230,-4.883,69.824,0.000
4313.000,51.758,-13.184,-1.465,74.707,0.000
4316.000,52.246,-8.301,-3.418,66.406,0.000
4320.000,54.199,-4.883,-6.836,55.664,0.000
4324.000,55.664,-12.695,-12.207,42.480,0.000
4328.000,56.152,-19.043,-12.207,42.969,0.000
4332.000,49.805,-14.160,-8.301,41.504,0.000
4336.000,41.504,-10.742,-5.371,29.297,0.000
4340.000,37.109,-12.695,-8.789,32.715,0.000
4344.000,37.598,-16.113,-10.742,41.016,0.000
4348.000,41.992,-14.160,-12.207,35.156,0.000
4352.000,45.410,-10.254,-16.113,19.531,0.000
4356.000,53.711,-1.953,-17.090,9.277,0.000
4359.000,56.641,-1.953,-11.719,10.254,0.000
4363.000,34.668,-12.207,-13.184,12.695,0.000
4367.000,14.160,-11.719,-14.160,11.719,0.000
4371.000,20.508,-11.719,-12.207,3.906,0.000
4375.000,19.531,-13.672,-11.230,5.859,0.000
4379.000,19.531,-11.230,-9.277,15.625,0.000
4383.000,27.344,-11.719,-9.766,20.508,0.000
4387.000,11.230,-15.625,-9.766,20.020,0.000
4391.000,5.371,-14.160,-7.812,22.949,0.000
4395.000,6.348,-13.184,-5.371,27.344,0.000
4398.000,8.789,-12.695,0.977,29.297,0.000
4402.000,23.926,-10.254,0.488,26.367,0.000
4406.000,21.973,-12.695,-9.277,20.020,0.000
4410.000,16.602,-12.207,-7.812,24.902,0.000
4414.000,20.508,-9.277,-4.395,28.320,0.000
4418.000,20.508,-8.301,-6.348,15.625,0.000
4422.000,21.484,-4.395,-9.277,7.324,0.000
4426.000,21.484,-3.906,-10.742,12.695,0.000
4430.000,14.648,-3.906,-10.742,15.137,0.000
4434.000,9.766,-3.906,-8.301,12.695,0.000
4438.000,11.230,-4.395,-13.184,0.488,0.000
4441.000,15.137,0.977,-16.113,-2.441,0.000
4445.000,20.508,-6.348,-9.766,13.184,0.000
4449.000,29.297,-18.555,-6.348,26.855,0.000
4453.000,12.207,-20.996,-6.348,0.000,0.000
4457.000,3.418,-15.625,-6.836,-24.414,0.000
4461.000,0.977,-15.137,-8.789,-25.391,0.000
4465.000,-11.230,-14.160,-7.324,-40.039,0.000
4469.000,-19.043,-28.809,0.977,-49.316,0.000
4473.000,-33.203,-35.645,-0.977,-61.523,0.000
4477.000,-48.340,-22.461,-9.277,-57.617,0.000
4481.000,-67.383,-17.578,-11.719,-66.895,0.000
4484.000,-88.379,-20.020,-11.719,-90.332,0.000
4488.000,-83.496,-23.926,-7.812,-96.191,0.000
4492.000,-78.125,-18.066,-5.371,-83.496,0.000
4496.000,-98.145,-18.555,-7.324,-91.309,0.000
4500.000,-101.074,-19.531,-1.953,-111.816,0.000
4504.000,-108.887,-16.113,5.371,-124.512,0.000
4508.000,-117.676,-11.719,-1.953,-127.441,0.000
4512.000,-119.141,-7.812,-3.418,-125.000,0.000
4516.000,-121.582,-17.578,1.465,-133.301,0.000
4520.000,-139.648,-37.109,-21.973,-160.645,0.000
4523.000,-150.391,-21.973,-41.016,-171.875,0.000
4527.000,-126.953,-24.414,-23.438,-151.855,0.000
4531.000,-133.301,-21.484,-10.254,-157.227,0.000
4535.000,-146.484,-5.371,-10.742,-164.062,0.000
4539.000,-138.672,-15.137,-16.602,-165.527,0.000
4543.000,-130.371,-31.250,-29.785,-160.156,0.000
4547.000,-110.840,-29.297,-25.391,-131.348,0.000
4551.000,-97.168,-7.324,-6.348,-117.676,0.000
4555.000,-89.844,0.000,-9.277,-112.305,0.000
4559.000,-104.492,-0.488,-27.344,-115.234,0.000
4563.000,-121.094,1.953,-44.922,-118.652,0.000
4566.000,-80.566,-3.906,-31.250,-86.426,0.000
4570.000,-50.781,-48.340,-1.953,-71.289,0.000
4574.000,-59.570,-22.949,-0.488,-83.008,0.000
4578.000,-74.219,18.555,-18.066,-90.332,0.000
4582.000,-71.289,2.930,-19.531,-77.637,0.000
4586.000,-47.363,-21.973,-20.508,-65.430,0.000
4590.000,-50.781,-17.090,-21.484,-65.430,0.000
4594.000,-59.082,1.465,-24.414,-52.246,0.000
4598.000,-51.270,-17.090,-27.832,-38.086,0.000
4602.000,-56.152,-19.043,-34.668,-35.645,0.000
4606.000,-58.105,-6.348,-28.809,-36.133,0.000
4609.000,-45.898,-5.859,-16.602,-35.156,0.000
4613.000,-43.457,-27.344,-25.879,-28.809,0.000
4617.000,-35.156,-46.875,-39.062,-30.273,0.000
4621.000,-29.785,-33.691,-34.180,-29.297,0.000
4625.000,-46.387,-24.902,-31.250,-36.133,0.000
4629.000,-45.410,-41.016,-32.715,-28.809,0.000
4633.000,-24.414,-25.879,-13.184,-12.207,0.000
4637.000,-35.645,-36.133,-16.602,-13.672,0.000
4641.000,-56.641,-48.828,-35.156,-33.691,0.000
4645.000,-42.480,-30.273,-33.691,-39.551,0.000
4648.000,-33.203,-31.250,-46.387,-34.180,0.000
4652.000,-50.781,-29.785,-50.781,-51.758,0.000
4656.000,-46.875,-44.922,-39.062,-59.082,0.000
4660.000,-36.621,-49.805,-43.945,-50.293,0.000
4664.000,-40.527,-41.016,-41.992,-39.551,0.000
4668.000,-39.551,-27.832,-40.527,-36.621,0.000
4672.000,-35.156,-19.531,-50.293,-40.527,0.000
4676.000,-39.551,-66.406,-49.316,-51.758,0.000
4680.000,-41.016,-65.430,-33.203,-59.570,0.000
4684.000,-31.738,-25.391,-27.832,-51.758,0.000
4688.000,-45.410,-25.879,-42.480,-53.223,0.000
4691.000,-64.453,-37.109,-46.875,-59.082,0.000
4695.000,-66.895,-39.551,-42.480,-46.387,0.000
4699.000,-56.641,-48.828,-42.969,-38.574,0.000
4703.000,-44.434,-47.363,-35.645,-41.016,0.000
4707.000,-40.527,-40.039,-26.855,-40.527,0.000
4711.000,-38.086,-36.133,-26.367,-32.715,0.000
4715.000,-45.410,-39.551,-33.203,-26.855,0.000
4719.000,-62.500,-63.965,-40.527,-39.551,0.000
4723.000,-52.734,-43.457,-29.297,-45.410,0.000
4727.000,-31.250,-22.949,-19.531,-37.109,0.000
4731.000,-37.598,-23.438,-26.855,-37.598,0.000
4734.000,-40.039,-23.926,-27.344,-37.109,0.000
4738.000,-41.992,-27.832,-31.738,-39.551,0.000
4742.000,-47.363,-20.996,-34.668,-35.156,0.000
4746.000,-40.039,-25.879,-41.992,-23.926,0.000
4750.000,-37.598,-18.555,-37.598,-15.625,0.000
4754.000,-38.086,-7.812,-15.625,-10.742,0.000
4758.000,-27.832,-20.020,-10.742,-11.230,0.000
4762.000,-13.672,-31.738,-15.625,-9.766,0.000
4766.000,-16.113,-21.973,-21.484,-7.812,0.000
4770.000,-26.367,-2.441,-17.578,-16.602,0.000
4773.000,-32.715,-12.207,-20.508,-35.156,0.000
4777.000,-30.273,-30.762,-42.969,-41.992,0.000
4781.000,-29.297,-31.250,-58.105,-40.039,0.000
4785.000,-30.762,-30.273,-62.500,-39.551,0.000
4789.000,-24.414,-17.578,-49.316,-46.387,0.000
4793.000,-27.832,-21.484,-22.461,-47.852,0.000
4797.000,-39.551,-43.945,-20.020,-39.551,0.000
4801.000,-50.781,-36.133,-29.297,-45.410,0.000
4805.000,-50.293,-16.113,-31.738,-46.387,0.000
4809.000,-37.598,-17.578,-24.414,-34.668,0.000
4813.000,-21.484,-20.508,-15.137,-27.344,0.000
4816.000,-26.855,-19.531,-17.090,-30.762,0.000
4820.000,-33.203,-15.625,-17.578,-34.668,0.000
4824.000,-24.414,-16.602,-19.531,-26.367,0.000
4828.000,-23.926,-23.438,-31.738,-27.344,0.000
4832.000,-33.691,-43.457,-29.297,-36.133,0.000
4836.000,-32.715,-44.434,-27.344,-39.551,0.000
4840.000,-32.227,-28.809,-25.391,-38.086,0.000
4844.000,-41.016,-35.645,-29.785,-41.016,0.000
4848.000,-44.434,-34.180,-40.039,-42.969,0.000
4852.000,-45.898,-32.715,-36.133,-43.945,0.000
4856.000,-48.340,-50.293,-33.203,-55.664,0.000
4859.000,-41.504,-46.875,-22.461,-50.781,0.000
4863.000,-27.344,-25.879,-6.348,-23.438,0.000
4867.000,-35.645,-37.598,-19.043,-28.809,0.000
4871.000,-48.828,-30.762,-30.762,-50.781,0.000
4875.000,-34.180,-25.391,-21.484,-44.922,0.000
4879.000,-20.020,-17.578,-17.578,-23.926,0.000
4883.000,-15.137,0.000,-11.230,-18.066,0.000
4887.000,-17.578,-16.602,-5.371,-26.855,0.000
4891.000,-19.043,-20.508,-5.859,-29.785,0.000
4895.000,-6.348,-8.789,0.000,-22.949,0.000
4898.000,-9.766,-12.207,-2.441,-4.883,0.000
4902.000,-5.371,-15.625,-7.324,13.672,0.000
4906.000,25.391,-5.371,1.465,33.203,0.000
4910.000,12.695,-1.465,-1.465,16.602,0.000
4914.000,-3.906,-10.254,-6.836,4.883,0.000
4918.000,14.160,-3.418,1.465,19.531,0.000
4922.000,19.531,-1.465,0.488,14.648,0.000
4926.000,8.789,-18.066,-24.414,-1.465,0.000
4930.000,2.441,-26.367,-33.691,1.953,0.000
4934.000,-6.836,-20.996,-26.367,2.930,0.000
4938.000,-7.324,-17.090,-26.855,-12.695,0.000
4941.000,7.324,-19.043,-22.949,1.465,0.000
4945.000,14.160,-11.230,-22.949,7.812,0.000
4949.000,2.441,-11.719,-27.832,-12.207,0.000
4953.000,-14.648,-23.438,-32.227,-30.273,0.000
4957.000,-28.320,-20.996,-25.879,-27.344,0.000
4961.000,-45.898,-19.531,-19.043,-20.508,0.000
4965.000,-40.039,-24.902,-22.949,-22.461,0.000
4969.000,-29.785,-26.367,-25.391,-28.809,0.000
4973.000,-42.969,-22.461,-21.973,-31.250,0.000
4977.000,-59.570,-24.902,-23.926,-30.762,0.000
4981.000,-63.477,-26.367,-19.043,-27.344,0.000
4984.000,-63.965,-23.438,-14.648,-43.945,0.000
4988.000,-59.570,-21.484,-12.695,-45.898,0.000
4992.000,-54.199,-21.973,-11.230,-37.109,0.000
4996.000,-51.270,-21.973,-10.742,-34.180,0.000
5000.000,-56.641,-24.902,-10.742,-44.434,0.000
5004.000,-50.293,-22.461,-10.254,-57.617,0.000
5008.000,-47.852,-17.090,-12.207,-61.523,0.000
5012.000,-47.363,-14.160,-11.230,-49.805,0.000
5016.000,-36.133,-19.043,-11.719,-43.945,0.000
5020.000,-25.879,-23.438,-15.625,-44.922,0.000
5023.000,-14.160,-21.973,-17.578,-34.668,0.000
5027.000,-17.578,-20.996,-18.066,-19.043,0.000
5031.000,-16.113,-27.344,-13.672,-7.324,0.000
5035.000,5.859,-22.949,-8.301,7.324,0.000
5039.000,1.465,-11.230,-7.324,22.949,0.000
5043.000,-5.371,-15.137,-4.395,32.715,0.000
5047.000,13.672,-20.020,-4.395,50.293,0.000
5051.000,21.484,-18.066,-6.836,49.805,0.000
5055.000,24.902,-21.484,-2.930,38.086,0.000
5059.000,31.738,-19.043,-1.953,48.340,0.000
5063.000,34.180,-21.973,-7.812,60.059,0.000
5066.000,30.273,-30.273,-8.301,62.500,0.000
5070.000,32.715,-26.855,-1.953,51.270,0.000
5074.000,39.551,-30.762,-2.441,38.086,0.000
5078.000,42.480,-20.020,-2.930,46.387,0.000
5082.000,41.504,-9.766,-3.418,49.316,0.000
5086.000,39.551,-16.602,-7.324,32.715,0.000
5090.000,50.781,-13.672,-5.371,31.250,0.000
5094.000,58.594,-6.836,-5.859,42.969,0.000
5098.000,57.129,-11.719,-12.695,36.621,0.000
5102.000,58.594,-17.578,-9.766,23.438,0.000
5106.000,41.016,-18.066,-5.371,20.020,0.000
5109.000,32.227,-19.531,-14.648,19.043,0.000
5113.000,41.016,-13.672,-16.602,20.020,0.000
5117.000,32.715,-8.789,-13.184,19.043,0.000
5121.000,25.879,-16.113,-13.184,3.906,0.000
5125.000,28.320,-21.484,-11.719,-0.977,0.000
5129.000,15.137,-18.066,-12.695,2.930,0.000
5133.000,11.719,-13.672,-15.625,2.441,0.000
5137.000,24.902,-20.020,-17.578,-6.836,0.000
5141.000,30.762,-28.809,-20.508,-3.906,0.000
5145.000,22.949,-25.879,-25.879,3.418,0.000
5148.000,7.812,-27.832,-24.902,5.859,0.000
5152.000,-3.418,-32.715,-20.996,-0.488,0.000
5156.000,-6.348,-27.344,-18.066,-2.930,0.000
5160.000,0.000,-24.902,-16.602,5.859,0.000
5164.000,4.395,-27.832,-15.625,8.301,0.000
5168.000,3.418,-24.902,-13.672,0.488,0.000
5172.000,15.625,-22.949,-15.625,-3.906,0.000
5176.000,30.273,-28.809,-10.742,7.324,0.000
5180.000,35.156,-30.762,-8.301,13.672,0.000
5184.000,34.180,-24.902,-9.277,10.742,0.000
5188.000,25.879,-16.113,-9.766,-1.953,0.000
5191.000,33.203,-9.766,-6.348,2.441,0.000
5195.000,41.504,-11.230,-7.324,16.602,0.000
5199.000,23.926,-9.277,-16.602,7.324,0.000
5203.000,13.672,-21.973,-22.949,-2.930,0.000
5207.000,16.602,-29.297,-23.438,-1.465,0.000
5211.000,21.973,-11.230,-14.160,8.789,0.000
5215.000,18.555,-8.789,-12.695,20.996,0.000
5219.000,10.742,-10.254,-14.648,22.461,0.000
5223.000,17.090,-7.324,-12.207,15.625,0.000
5227.000,25.391,-11.230,-15.625,13.672,0.000
5231.000,16.113,-15.625,-18.066,16.113,0.000
5234.000,10.742,-10.254,-15.137,16.113,0.000
5238.000,15.625,-10.254,-10.742,16.113,0.000
5242.000,21.973,-13.184,-7.812,14.160,0.000
5246.000,10.742,-17.578,-17.578,10.742,0.000
5250.000,-1.465,-23.926,-25.879,0.977,0.000
5254.000,9.277,-24.902,-13.672,2.930,0.000
5258.000,-3.418,-28.809,-11.719,1.953,0.000
5262.000,-35.156,-27.344,-18.066,-21.973,0.000
5266.000,-39.551,-22.949,-12.695,-31.738,0.000
5270.000,-47.363,-33.691,-11.230,-43.945,0.000
5273.000,-50.781,-25.879,-16.113,-56.152,0.000
5277.000,-33.203,-20.020,-9.277,-46.875,0.000
5281.000,-57.129,-31.250,-15.137,-65.430,0.000
5285.000,-93.750,-25.391,-26.367,-101.562,0.000
5289.000,-101.562,-18.066,-26.855,-112.793,0.000
5293.000,-108.398,-23.926,-19.531,-117.188,0.000
5297.000,-114.746,-24.414,-20.020,-124.023,0.000
5301.000,-116.211,-19.531,-25.879,-124.512,0.000
5305.000,-121.582,-20.996,-22.461,-141.113,0.000
5309.000,-135.254,-17.578,-12.695,-144.531,0.000
5313.000,-149.902,-26.855,-11.719,-143.066,0.000
5316.000,-150.391,-43.945,-12.207,-154.297,0.000
5320.000,-153.320,-28.320,-5.859,-158.691,0.000
5324.000,-158.203,-7.812,0.000,-164.551,0.000
5328.000,-175.293,-53.711,-5.371,-172.852,0.000
5332.000,-177.734,-60.547,-18.066,-168.457,0.000
5336.000,-162.109,-14.648,-18.066,-166.992,0.000
5340.000,-148.438,-43.457,-12.207,-174.805,0.000
5344.000,-137.207,-62.988,-8.789,-160.156,0.000
5348.000,-123.047,-10.742,5.371,-125.977,0.000
5352.000,-104.492,12.695,-1.465,-115.723,0.000
5356.000,-114.258,-11.719,-46.387,-127.441,0.000
5359.000,-129.883,-30.273,-39.551,-143.066,0.000
5363.000,-139.160,-76.660,0.977,-147.461,0.000
5367.000,-125.000,-86.426,-5.371,-126.465,0.000
5371.000,-105.957,-22.461,-18.555,-118.652,0.000
5375.000,-117.188,1.953,-6.836,-127.930,0.000
5379.000,-113.770,-0.977,4.395,-106.934,0.000
5383.000,-99.121,-14.648,4.883,-102.051,0.000
5387.000,-89.355,-36.621,4.395,-103.027,0.000
5391.000,-83.984,-6.348,4.395,-100.098,0.000
5395.000,-88.379,10.254,-3.418,-103.516,0.000
5398.000,-79.590,-2.441,-20.508,-90.332,0.000
5402.000,-77.637,-24.902,-33.691,-86.426,0.000
5406.000,-66.895,-50.781,-25.391,-82.031,0.000
5410.000,-54.688,-35.156,-9.766,-61.523,0.000
5414.000,-57.129,14.160,-20.996,-53.223,0.000
5418.000,-64.941,4.883,-28.320,-63.965,0.000
5422.000,-65.430,-39.062,-28.320,-55.176,0.000
5426.000,-53.223,-18.555,-43.457,-33.691,0.000
5430.000,-33.203,14.648,-22.949,-15.137,0.000
5434.000,-34.180,4.395,-6.348,-26.367,0.000
5438.000,-34.180,-6.836,-6.348,-40.039,0.000
5441.000,-12.695,-6.348,0.488,-26.367,0.000
5445.000,-7.324,-12.207,-7.324,-17.090,0.000
5449.000,-9.277,-21.484,-19.043,-16.113,0.000
5453.000,-17.578,-26.855,-32.715,-36.621,0.000
5457.000,-19.531,-8.789,-31.250,-45.898,0.000
5461.000,-10.742,-12.695,-28.809,-30.762,0.000
5465.000,-13.672,-9.766,-34.668,-17.090,0.000
5469.000,-24.414,-18.555,-25.391,-21.973,0.000
5473.000,-17.090,-42.969,-25.879,-31.250,0.000
5477.000,-7.812,-15.137,-32.227,-17.090,0.000
5481.000,-8.301,-15.625,-27.832,-0.488,0.000
5484.000,-26.367,-25.879,-39.551,-15.137,0.000
5488.000,-25.391,-22.949,-37.598,-14.648,0.000
5492.000,-19.043,-22.461,-20.020,1.953,0.000
5496.000,-37.598,-25.391,-30.273,-14.160,0.000
5500.000,-40.039,-27.832,-35.156,-30.762,0.000
5504.000,-26.367,-23.926,-30.273,-29.785,0.000
5508.000,-17.578,-28.809,-36.133,-29.297,0.000
5512.000,-34.668,-25.391,-36.621,-30.273,0.000
5516.000,-52.246,-33.203,-34.180,-18.066,0.000
5520.000,-46.387,-57.129,-24.902,-10.742,0.000
5523.000,-46.875,-56.152,-20.996,-18.066,0.000
5527.000,-30.273,-24.414,-24.902,-12.207,0.000
5531.000,-27.832,-19.043,-24.414,-12.207,0.000
5535.000,-33.203,-30.273,-20.508,-24.414,0.000
5539.000,-19.043,-36.133,-15.625,-20.996,0.000
5543.000,-18.555,-37.598,-29.297,-19.043,0.000
5547.000,-29.297,-36.133,-35.645,-24.414,0.000
5551.000,-23.926,-29.297,-20.020,-14.160,0.000
5555.000,-23.926,-37.109,-17.578,-14.160,0.000
5559.000,-19.043,-43.457,-24.414,-20.508,0.000
5563.000,-16.113,-27.344,-25.391,-13.184,0.000
5566.000,-28.809,-21.973,-20.996,-12.695,0.000
5570.000,-15.137,-41.992,-18.555,-27.832,0.000
5574.000,-4.395,-21.484,-15.625,-29.297,0.000
5578.000,-10.254,-2.930,-17.578,-25.879,0.000
5582.000,-10.742,-22.949,-22.949,-27.832,0.000
5586.000,-10.742,-22.461,-20.508,-29.785,0.000
5590.000,-3.906,-14.160,-15.625,-22.949,0.000
5594.000,-4.395,-38.574,-13.672,-15.625,0.000
5598.000,-15.625,-35.156,-15.625,-18.066,0.000
5602.000,-20.508,-17.090,-22.949,-30.273,0.000
5606.000,-34.668,-29.297,-32.715,-40.039,0.000
5609.000,-43.457,-48.340,-35.156,-33.691,0.000
5613.000,-24.414,-38.574,-25.879,-16.113,0.000
5617.000,-24.902,-26.855,-21.484,-15.137,0.000
5621.000,-25.391,-30.762,-25.391,-26.367,0.000
5625.000,-5.371,-29.785,-22.461,-27.832,0.000
5629.000,-6.836,-23.926,-21.973,-27.344,0.000
5633.000,-21.973,-29.297,-20.996,-20.508,0.000
5637.000,-24.902,-23.926,-13.672,-10.254,0.000
5641.000,-24.902,-16.113,-16.113,-11.230,0.000
5645.000,-33.203,-25.879,-25.879,-21.973,0.000
5648.000,-47.852,-44.922,-39.062,-38.086,0.000
5652.000,-41.504,-51.270,-31.738,-45.410,0.000
5656.000,-23.926,-34.180,-20.020,-42.480,0.000
5660.000,-18.066,-28.320,-18.066,-37.598,0.000
5664.000,-24.414,-33.691,-17.090,-31.250,0.000
5668.000,-32.227,-37.109,-26.855,-43.945,0.000
5672.000,-26.367,-29.297,-24.414,-57.617,0.000
5676.000,-11.230,-20.996,-14.160,-41.992,0.000
5680.000,-5.371,-12.207,-13.672,-30.762,0.000
5684.000,-6.348,-13.672,-9.766,-34.180,0.000
5688.000,-0.977,-14.160,-0.488,-38.086,0.000
5691.000,3.418,0.488,-1.465,-25.391,0.000
5695.000,-5.371,2.930,-7.812,-14.648,0.000
5699.000,-21.973,-22.461,-17.090,-33.691,0.000
5703.000,-23.926,-24.414,-16.602,-41.016,0.000
5707.000,-15.625,-27.832,-9.766,-28.809,0.000
5711.000,-10.254,-30.273,-4.883,-17.090,0.000
5715.000,-18.066,0.977,-8.301,-28.320,0.000
5719.000,-13.184,0.488,-9.277,-43.457,0.000
5723.000,-2.441,-6.836,-8.301,-36.621,0.000
5727.000,-10.742,-11.230,-14.648,-25.391,0.000
5731.000,-20.020,-20.020,-13.672,-21.484,0.000
5734.000,-27.344,-5.859,-5.371,-30.762,0.000
5738.000,-15.625,2.441,4.395,-37.109,0.000
5742.000,-11.719,-4.395,1.953,-37.598,0.000
5746.000,-27.344,-15.625,-23.438,-48.828,0.000
5750.000,-26.367,-21.484,-33.691,-44.922,0.000
5754.000,-28.809,-19.531,-26.367,-38.574,0.000
5758.000,-21.973,-16.602,-23.926,-30.762,0.000
5762.000,-6.836,-21.973,-24.414,-9.766,0.000
5766.000,-40.527,-33.691,-26.367,-29.785,0.000
5770.000,-55.176,-31.250,-30.762,-54.199,0.000
5773.000,-35.156,-25.879,-34.668,-43.945,0.000
5777.000,-25.391,-30.762,-34.668,-27.344,0.000
5781.000,-36.621,-40.039,-37.598,-30.273,0.000
5785.000,-45.410,-42.969,-35.156,-41.504,0.000
5789.000,-41.992,-36.133,-35.156,-48.828,0.000
5793.000,-35.645,-38.086,-42.480,-48.340,0.000
5797.000,-29.297,-36.133,-41.504,-35.645,0.000
5801.000,-26.855,-32.715,-43.945,-34.668,0.000
5805.000,-20.508,-34.180,-43.457,-47.852,0.000
5809.000,-11.230,-31.250,-36.133,-45.898,0.000
5813.000,-20.996,-35.156,-37.598,-48.828,0.000
5816.000,-35.645,-36.133,-37.109,-62.012,0.000
5820.000,-50.781,-31.738,-34.180,-75.195,0.000
5824.000,-58.105,-24.902,-29.785,-67.383,0.000
5828.000,-53.223,-23.438,-30.273,-52.246,0.000
5832.000,-57.617,-34.668,-35.156,-62.988,0.000
5836.000,-65.918,-37.598,-29.297,-77.637,0.000
5840.000,-61.523,-23.926,-20.020,-76.172,0.000
5844.000,-62.012,-18.066,-20.996,-69.824,0.000
5848.000,-73.730,-23.438,-22.461,-71.289,0.000
5852.000,-67.383,-22.461,-17.090,-67.871,0.000
5856.000,-64.941,-15.137,-18.555,-71.777,0.000
5859.000,-80.078,-11.719,-19.043,-85.938,0.000
5863.000,-81.543,-13.184,-18.066,-76.660,0.000
5867.000,-81.055,-13.672,-22.949,-75.195,0.000
5871.000,-81.055,-17.090,-19.531,-83.984,0.000
5875.000,-67.871,-21.973,-12.695,-76.172,0.000
5879.000,-50.293,-21.484,-12.207,-60.547,0.000
5883.000,-38.086,-17.090,-11.719,-64.453,0.000
5887.000,-29.785,-13.672,-14.160,-54.199,0.000
5891.000,-21.973,-15.625,-10.254,-31.250,0.000
5895.000,-16.602,-20.508,-7.812,-23.438,0.000
5898.000,-15.137,-23.438,-14.648,-14.648,0.000
5902.000,-9.277,-23.438,-10.742,-7.324,0.000
5906.000,3.418,-20.020,-4.883,0.977,0.000
5910.000,19.531,-21.973,-2.441,15.625,0.000
5914.000,30.273,-21.973,2.441,32.227,0.000
5918.000,24.902,-24.414,-1.465,22.949,0.000
5922.000,16.602,-25.879,-9.766,9.766,0.000
5926.000,22.949,-27.832,-6.836,20.996,0.000
5930.000,32.715,-29.297,-4.883,28.809,0.000
5934.000,28.320,-31.250,-4.883,18.555,0.000
5938.000,28.809,-31.250,-0.488,0.488,0.000
5941.000,35.645,-29.785,4.395,8.789,0.000
5945.000,21.484,-32.227,-3.418,16.602,0.000
5949.000,0.488,-35.156,-15.137,11.719,0.000
5953.000,-0.977,-41.016,-17.090,7.812,0.000
5957.000,3.906,-41.504,-10.742,13.672,0.000
5961.000,13.184,-54.688,-7.324,22.461,0.000
5965.000,22.461,-52.246,-4.395,30.273,0.000
5969.000,21.973,-32.715,0.000,31.738,0.000
5973.000,29.297,-35.156,0.488,25.879,0.000
5977.000,29.785,-38.574,1.953,35.156,0.000
5981.000,19.531,-38.086,-0.977,47.852,0.000
5984.000,11.719,-35.645,-4.883,36.133,0.000
5988.000,9.766,-28.809,-4.883,21.973,0.000
5992.000,8.301,-32.227,-4.883,19.531,0.000
5996.000,9.277,-35.156,-5.371,20.996,0.000
6000.000,10.742,-34.668,-11.230,11.719,0.000
6004.000,0.977,-41.504,-16.602,2.930,0.000
6008.000,-1.953,-41.016,-19.531,13.184,0.000
6012.000,-3.906,-38.086,-17.090,18.555,0.000
6016.000,0.488,-35.156,-15.625,10.742,0.000
6020.000,11.230,-33.691,-15.625,6.836,0.000
6023.000,20.508,-32.715,-14.648,19.043,0.000
6027.000,20.996,-35.156,-16.113,15.137,0.000
6031.000,4.395,-43.945,-11.719,-3.418,0.000
6035.000,-19.043,-53.223,-10.254,-23.438,0.000
6039.000,-26.855,-56.641,-13.184,-28.809,0.000
6043.000,-9.766,-49.316,-3.906,-9.766,0.000
6047.000,5.371,-41.992,3.906,11.719,0.000
6051.000,-10.254,-54.199,-3.418,-3.906,0.000
6055.000,-20.508,-54.199,-14.648,-24.902,0.000
6059.000,-25.391,-59.570,-20.996,-18.555,0.000
6063.000,-24.902,-58.594,-14.648,-2.930,0.000
6066.000,-17.578,-48.828,-8.301,1.465,0.000
6070.000,-20.996,-43.945,-14.160,-0.488,0.000
6074.000,-18.555,-39.551,-14.648,2.441,0.000
6078.000,-23.438,-42.480,-11.230,5.371,0.000
6082.000,-28.320,-41.992,-12.695,6.348,0.000
6086.000,-30.762,-39.551,-15.137,-3.418,0.000
6090.000,-23.926,-40.039,-12.207,-14.160,0.000
6094.000,-18.555,-48.340,-14.160,-11.230,0.000
6098.000,-25.879,-42.480,-14.648,-8.789,0.000
6102.000,-25.391,-26.367,-9.766,-10.742,0.000
6106.000,-20.508,-30.273,-14.160,-12.207,0.000
6109.000,-13.184,-26.367,-17.090,-10.742,0.000
6113.000,-5.859,-28.809,-10.254,-0.488,0.000
6117.000,-4.883,-32.715,-5.371,6.836,0.000
6121.000,-3.906,-29.297,-11.230,3.418,0.000
6125.000,-5.859,-35.645,-15.625,-9.277,0.000
6129.000,-8.301,-34.180,-18.066,-6.836,0.000
6133.000,-4.395,-32.715,-26.855,-4.883,0.000
6137.000,18.555,-22.461,-21.484,-3.906,0.000
6141.000,15.137,-9.277,-21.973,-16.113,0.000
6145.000,-12.695,-5.371,-31.738,-29.297,0.000
6148.000,-21.484,-4.395,-29.785,-39.551,0.000
6152.000,-18.066,-5.859,-23.926,-54.199,0.000
6156.000,-7.812,-6.348,-24.902,-51.270,0.000
6160.000,-5.859,-12.695,-21.484,-32.715,0.000
6164.000,-44.434,-13.184,-19.043,-38.086,0.000
6168.000,-59.570,-1.465,-19.531,-58.594,0.000
6172.000,-45.898,-5.859,-19.043,-64.453,0.000
6176.000,-37.109,-7.812,-17.578,-56.152,0.000
6180.000,-31.738,2.930,-11.719,-53.711,0.000
6184.000,-46.875,-2.930,-10.742,-72.266,0.000
6188.000,-62.012,5.371,-6.836,-83.984,0.000
6191.000,-70.312,-7.812,-7.324,-87.402,0.000
6195.000,-78.125,-54.199,-4.395,-91.797,0.000
6199.000,-68.359,-27.344,12.207,-81.055,0.000
6203.000,-95.703,-2.441,-19.043,-106.934,0.000
6207.000,-134.277,-32.227,-43.457,-146.973,0.000
6211.000,-133.301,-39.551,-21.484,-150.391,0.000
6215.000,-135.742,-58.105,-8.789,-145.020,0.000
6219.000,-148.926,-66.406,-12.695,-149.414,0.000
6223.000,-150.879,-42.480,-21.484,-156.250,0.000
6227.000,-135.742,-49.316,-25.879,-145.020,0.000
6231.000,-142.578,-27.832,-24.414,-139.648,0.000
6234.000,-152.832,-49.805,-23.438,-142.578,0.000
6238.000,-138.672,-83.008,-37.598,-140.137,0.000
6242.000,-131.836,-40.039,-28.320,-131.836,0.000
6246.000,-120.605,-11.230,-0.977,-120.117,0.000
6250.000,-106.445,-39.551,3.418,-112.305,0.000
6254.000,-96.680,-59.082,-10.742,-111.328,0.000
6258.000,-88.867,-35.156,-24.902,-107.910,0.000
6262.000,-104.004,0.000,-38.086,-103.516,0.000
6266.000,-100.098,-33.203,-40.039,-90.820,0.000
6270.000,-96.191,-51.758,-26.367,-95.215,0.000
6273.000,-97.168,-13.672,-31.250,-98.633,0.000
6277.000,-76.660,-1.953,-34.668,-80.566,0.000
6281.000,-57.617,-23.438,-26.367,-62.988,0.000
6285.000,-49.316,-28.809,-20.020,-50.293,0.000
6289.000,-41.504,-12.207,-19.531,-48.340,0.000
6293.000,-30.273,-15.137,-23.438,-39.551,0.000
6297.000,-30.762,-10.742,-27.832,-31.738,0.000
6301.000,-25.391,8.301,-22.949,-34.180,0.000
6305.000,-8.789,-21.484,-11.719,-32.227,0.000
6309.000,-15.625,-25.879,-23.438,-33.203,0.000
6313.000,-30.273,7.324,-48.340,-34.180,0.000
6316.000,-35.645,9.766,-38.574,-27.344,0.000
6320.000,-39.551,-6.348,-26.855,-29.297,0.000
6324.000,-43.945,-19.531,-23.926,-24.902,0.000
6328.000,-46.875,-32.227,-26.367,-20.996,0.000
6332.000,-35.645,-24.414,-30.762,-23.926,0.000
6336.000,-34.668,-14.648,-31.250,-33.691,0.000
6340.000,-39.062,-37.109,-27.344,-33.691,0.000
6344.000,-24.414,-6.836,-14.160,-13.672,0.000
6348.000,-35.645,-1.953,-24.414,-21.973,0.000
6352.000,-48.340,-31.250,-35.645,-28.320,0.000
6356.000,-45.898,-36.133,-40.039,-28.809,0.000
6359.000,-41.504,-37.109,-42.969,-29.297,0.000
6363.000,-41.504,-55.664,-30.273,-26.855,0.000
6367.000,-44.434,-66.406,-22.461,-42.480,0.000
6371.000,-26.367,-52.246,-25.879,-39.551,0.000
6375.000,-12.695,-7.812,-42.480,-35.645,0.000
6379.000,-21.973,-9.277,-30.762,-41.992,0.000
6383.000,-41.504,-25.391,-14.160,-41.016,0.000
6387.000,-47.363,11.719,-24.902,-39.062,0.000
6391.000,-37.109,-2.441,-31.250,-41.992,0.000
6395.000,-35.156,-34.668,-30.762,-46.875,0.000
6398.000,-22.949,-7.812,-39.551,-36.133,0.000
6402.000,-12.695,-19.043,-44.922,-31.738,0.000
6406.000,-39.551,-37.109,-37.109,-58.594,0.000
6410.000,-53.223,-24.414,-24.902,-64.453,0.000
6414.000,-49.805,-22.949,-24.414,-52.246,0.000
6418.000,-52.246,-22.949,-43.457,-49.805,0.000
6422.000,-43.945,-35.156,-42.969,-47.363,0.000
6426.000,-22.949,-13.184,-22.461,-30.273,0.000
6430.000,-28.320,-6.836,-24.902,-25.879,0.000
6434.000,-40.527,-21.484,-33.691,-43.945,0.000
6438.000,-28.320,-30.762,-27.832,-61.035,0.000
6441.000,-15.137,-34.180,-25.391,-50.781,0.000
6445.000,-10.254,-4.395,-23.438,-32.227,0.000
6449.000,-14.160,-0.977,-18.066,-33.691,0.000
6453.000,-9.277,-16.113,-26.855,-47.852,0.000
6457.000,-6.348,-29.785,-32.227,-49.805,0.000
6461.000,2.930,-15.137,-15.137,-31.738,0.000
6465.000,0.000,20.508,-4.395,-16.602,0.000
6469.000,-19.043,-20.996,-16.113,-25.391,0.000
6473.000,-19.531,-46.387,-22.461,-28.320,0.000
6477.000,-19.531,-20.508,-33.203,-26.367,0.000
6481.000,-10.254,-2.441,-27.344,-18.555,0.000
6484.000,-13.672,-0.488,-38.574,-21.973,0.000
6488.000,-31.250,-21.973,-34.668,-32.715,0.000
6492.000,-25.391,-38.574,-10.742,-31.250,0.000
6496.000,-20.996,-8.301,-10.254,-26.367,0.000
6500.000,-11.230,10.254,-2.441,-20.020,0.000
6504.000,-21.973,-18.555,-22.949,-33.691,0.000
6508.000,-43.457,-45.898,-50.781,-44.922,0.000
6512.000,-34.180,-11.719,-21.973,-18.555,0.000
6516.000,-28.809,6.836,-0.977,-10.254,0.000
6520.000,-46.875,-15.625,-16.113,-32.715,0.000
6523.000,-42.969,-9.277,-18.066,-41.504,0.000
6527.000,-24.414,-1.953,-17.090,-26.855,0.000
6531.000,-30.762,-12.695,-19.531,-16.602,0.000
6535.000,-47.363,-21.484,-23.926,-23.438,0.000
6539.000,-42.969,-29.297,-27.344,-21.484,0.000
6543.000,-36.133,-26.855,-16.602,-10.742,0.000
6547.000,-33.691,-22.949,-10.254,-9.277,0.000
6551.000,-32.227,-21.973,-7.812,-12.695,0.000
6555.000,-11.719,-17.090,3.418,-2.441,0.000
6559.000,-1.953,-23.926,-1.953,10.254,0.000
6563.000,-5.859,-26.367,-15.625,23.438,0.000
6566.000,-18.066,-22.461,-24.902,6.348,0.000
6570.000,-27.832,-17.090,-22.461,-25.391,0.000
6574.000,-7.812,-11.719,-17.090,-16.113,0.000
6578.000,-20.020,-5.859,-20.996,-18.066,0.000
6582.000,-34.180,-5.371,-27.344,-20.996,0.000
6586.000,-20.508,-8.789,-36.621,-11.719,0.000
6590.000,-19.531,-18.555,-32.227,-10.742,0.000
6594.000,-18.555,-19.531,-26.855,-5.371,0.000
6598.000,-18.555,-16.113,-37.109,-14.648,0.000
6602.000,-5.371,-10.254,-39.062,-5.859,0.000
6606.000,7.812,0.000,-30.273,9.277,0.000
6609.000,5.859,-8.301,-31.738,12.207,0.000
6613.000,6.348,-17.090,-38.086,5.859,0.000
6617.000,1.953,-30.273,-41.992,-3.906,0.000
6621.000,0.488,-37.598,-46.387,-4.883,0.000
6625.000,11.719,-22.461,-41.016,2.930,0.000
6629.000,22.949,-12.207,-41.504,15.625,0.000
6633.000,17.578,-16.602,-38.574,19.531,0.000
6637.000,8.301,-24.902,-39.551,10.742,0.000
6641.000,13.184,-19.043,-42.480,10.742,0.000
6645.000,28.809,-12.695,-38.574,27.344,0.000
6648.000,15.137,-23.926,-42.480,23.926,0.000
6652.000,-4.883,-29.297,-45.410,9.277,0.000
6656.000,2.441,-28.320,-45.898,6.348,0.000
6660.000,18.066,-24.414,-40.527,20.020,0.000
6664.000,22.949,-20.508,-37.109,29.785,0.000
6668.000,23.926,-21.484,-36.621,26.855,0.000
6672.000,18.066,-21.484,-34.180,16.602,0.000
6676.000,23.438,-11.719,-31.250,11.230,0.000
6680.000,27.832,-14.160,-31.250,18.066,0.000
6684.000,22.461,-20.020,-33.203,24.902,0.000
6688.000,25.391,-17.090,-31.250,24.902,0.000
6691.000,27.832,-16.113,-23.438,19.043,0.000
6695.000,24.902,-14.160,-20.020,19.043,0.000
6699.000,20.020,-8.789,-21.973,21.973,0.000
6703.000,22.949,-11.719,-25.879,13.184,0.000
6707.000,34.180,-13.184,-17.090,12.207,0.000
6711.000,41.992,-1.465,-5.859,28.320,0.000
6715.000,32.715,-3.418,-7.812,29.297,0.000
6719.000,27.832,-14.160,-9.766,14.648,0.000
6723.000,30.762,-5.371,-14.160,6.348,0.000
6727.000,35.156,1.953,-18.555,10.742,0.000
6731.000,30.762,-0.977,-20.996,11.719,0.000
6734.000,11.230,-1.465,-18.555,4.883,0.000
6738.000,-4.395,-9.277,-15.137,0.488,0.000
6742.000,8.789,-15.625,-12.207,0.977,0.000
6746.000,14.160,2.441,-9.277,8.301,0.000
6750.000,-1.465,-0.488,-18.066,-0.977,0.000
6754.000,-10.254,-15.137,-19.531,-13.672,0.000
6758.000,-0.488,-19.043,-11.230,-7.812,0.000
6762.000,17.578,-17.090,-0.977,16.113,0.000
6766.000,5.859,-19.531,-10.742,15.137,0.000
6770.000,-2.930,-1.953,-17.090,1.465,0.000
6773.000,-10.254,1.953,-14.648,7.324,0.000
6777.000,0.000,-12.207,-10.742,20.996,0.000
6781.000,2.930,-20.508,-9.766,17.090,0.000
6785.000,-17.090,-19.043,-10.742,12.695,0.000
6789.000,-18.555,-14.648,-7.812,13.672,0.000
6793.000,-5.371,-11.719,-6.348,9.766,0.000
6797.000,-1.465,-3.906,0.000,12.695,0.000
6801.000,6.348,4.883,9.277,19.043,0.000
6805.000,15.625,-12.207,6.836,7.324,0.000
6809.000,13.184,-19.043,-7.324,-2.930,0.000
6813.000,4.883,-11.230,-17.090,-1.465,0.000
6816.000,-2.930,-7.812,-16.113,-8.301,0.000
6820.000,2.441,-5.371,-15.625,-16.113,0.000
6824.000,1.465,-12.695,-15.625,-12.695,0.000
6828.000,-1.465,-21.484,-11.230,-8.301,0.000
6832.000,-5.859,-25.391,-8.789,-0.977,0.000
6836.000,-9.766,-24.414,-7.812,-2.441,0.000
6840.000,-4.395,-27.344,-11.230,-8.789,0.000
6844.000,-4.395,-22.949,-16.113,-5.371,0.000
6848.000,-5.859,-12.695,-8.301,-0.977,0.000
6852.000,-12.207,-18.555,-7.324,-8.301,0.000
6856.000,-19.043,-19.043,-11.719,-18.066,0.000
6859.000,-22.949,-14.648,-17.090,-10.254,0.000
6863.000,-27.832,-18.066,-18.555,-4.883,0.000
6867.000,-36.621,-23.438,-17.090,-18.555,0.000
6871.000,-38.086,-24.414,-18.555,-26.367,0.000
6875.000,-24.902,-18.555,-13.672,-14.160,0.000
6879.000,-14.160,-13.184,-13.184,-2.930,0.000
6883.000,-22.461,-13.184,-14.648,-8.789,0.000
6887.000,-25.391,-22.461,-14.160,-20.020,0.000
6891.000,-13.184,-18.555,-8.301,-11.230,0.000
6895.000,-20.020,-9.277,-8.789,-4.883,0.000
6898.000,-34.180,-18.066,-12.207,-10.254,0.000
6902.000,-25.391,-20.996,-10.742,-12.207,0.000
6906.000,-17.090,-13.672,-14.160,-18.066,0.000
6910.000,-4.395,-12.695,-14.160,-10.254,0.000
6914.000,-1.465,-23.926,-14.160,0.977,0.000
6918.000,-12.695,-30.273,-17.578,-7.812,0.000
6922.000,-12.207,-18.555,-17.578,-11.230,0.000
6926.000,-7.812,-10.254,-16.113,-4.883,0.000
6930.000,-2.930,-16.113,-15.137,-4.395,0.000
6934.000,-6.348,-20.508,-12.695,-6.836,0.000
6938.000,-14.160,-20.996,-12.695,-9.277,0.000
6941.000,-8.301,-17.578,-12.207,-1.953,0.000
6945.000,-4.395,-20.020,-11.719,-1.465,0.000
6949.000,-4.883,-21.484,-13.672,-6.836,0.000
6953.000,-8.301,-21.973,-11.719,-8.789,0.000
6957.000,-5.859,-27.344,-10.742,-5.371,0.000
6961.000,-8.301,-19.531,-11.719,-13.184,0.000
6965.000,-17.578,-15.625,-12.695,-21.484,0.000
6969.000,-21.973,-21.973,-16.602,-19.531,0.000
6973.000,-19.043,-23.926,-20.020,-23.926,0.000
6977.000,-16.602,-15.625,-16.602,-14.648,0.000
6981.000,-13.672,-11.230,-9.766,0.488,0.000
6984.000,-2.930,-10.254,1.465,6.836,0.000
6988.000,3.906,-20.508,0.488,0.488,0.000
6992.000,-2.930,-28.809,-11.719,-4.395,0.000
6996.000,10.742,-9.277,-12.695,9.277,0.000
7000.000,4.883,-6.348,-13.672,2.930,0.000
7004.000,-29.785,-19.531,-18.066,-26.855,0.000
7008.000,-39.551,-18.066,-20.508,-42.969,0.000
7012.000,-33.691,-11.719,-19.531,-33.203,0.000
7016.000,-43.945,-19.043,-12.695,-32.227,0.000
7020.000,-57.617,-23.438,-7.812,-56.641,0.000
7023.000,-68.848,-29.297,-13.672,-72.754,0.000
7027.000,-56.641,-33.691,-5.859,-60.059,0.000
7031.000,-47.363,-13.672,4.883,-53.711,0.000
7035.000,-79.102,-9.277,-14.648,-87.402,0.000
7039.000,-100.586,-45.898,-26.367,-126.465,0.000
7043.000,-108.398,-42.969,-20.020,-131.348,0.000
7047.000,-115.723,-13.672,-18.066,-126.465,0.000
7051.000,-129.883,-31.250,-26.855,-141.602,0.000
7055.000,-138.184,-41.016,-9.766,-157.715,0.000
7059.000,-119.629,-2.441,4.883,-135.254,0.000
7063.000,-114.746,-18.066,-0.488,-116.699,0.000
7066.000,-139.648,-57.617,0.488,-136.230,0.000
7070.000,-148.438,-4.883,6.836,-147.461,0.000
7074.000,-140.137,6.348,-3.906,-141.113,0.000
7078.000,-133.301,-4.883,-15.137,-126.465,0.000
7082.000,-137.695,0.000,-9.277,-122.559,0.000
7086.000,-145.996,-23.926,1.953,-122.559,0.000
7090.000,-132.324,-63.965,5.371,-111.328,0.000
7094.000,-123.535,-46.387,7.324,-107.910,0.000
7098.000,-108.887,1.953,10.254,-98.633,0.000
7102.000,-108.398,-21.973,8.301,-100.098,0.000
7106.000,-105.957,-21.484,6.836,-103.027,0.000
7109.000,-91.797,21.484,-2.930,-88.867,0.000
7113.000,-91.309,7.324,-18.066,-84.473,0.000
7117.000,-100.586,-12.695,-28.320,-104.004,0.000
7121.000,-102.539,-28.320,-27.344,-109.375,0.000
7125.000,-88.867,-34.668,-20.508,-88.379,0.000
7129.000,-70.312,-42.480,-14.648,-63.477,0.000
7133.000,-61.523,-43.457,-8.789,-48.828,0.000
7137.000,-69.336,-22.461,-7.324,-50.781,0.000
7141.000,-59.570,-10.742,-9.277,-30.273,0.000
7145.000,-53.223,-37.109,-13.672,-20.508,0.000
7148.000,-49.316,-44.922,-15.137,-20.996,0.000
7152.000,-48.828,-41.504,-24.414,-29.785,0.000
7156.000,-46.387,-37.109,-13.184,-42.480,0.000
7160.000,-34.180,-20.020,-8.301,-36.133,0.000
7164.000,-30.762,-14.648,-17.090,-24.902,0.000
7168.000,-30.762,-27.832,-18.555,-22.949,0.000
7172.000,-36.133,-42.969,-25.391,-32.715,0.000
7176.000,-18.066,-25.879,-20.996,-17.578,0.000
7180.000,-16.602,-32.715,-20.020,-6.836,0.000
7184.000,-21.484,-49.316,-29.785,-5.371,0.000
7188.000,-23.438,-25.391,-26.855,-21.484,0.000
7191.000,-20.996,-19.531,-29.297,-33.203,0.000
7195.000,-16.602,-33.203,-27.832,-21.973,0.000
7199.000,-21.484,-36.621,-22.461,-12.207,0.000
7203.000,-23.926,-24.902,-19.531,-13.672,0.000
7207.000,-20.996,-23.926,-20.508,-10.742,0.000
7211.000,-9.277,-40.039,-32.715,-11.230,0.000
7215.000,-3.906,-34.180,-34.180,2.930,0.000
7219.000,-23.438,-29.297,-23.926,-10.254,0.000
7223.000,-17.090,-24.902,-19.531,-18.066,0.000
7227.000,-7.812,-24.902,-12.207,5.859,0.000
7231.000,-21.484,-44.922,-1.953,5.859,0.000
7234.000,-29.297,-33.691,-9.766,-9.277,0.000
7238.000,-32.715,-8.789,-23.438,-15.137,0.000
7242.000,-35.156,-2.930,-18.066,-3.906,0.000
7246.000,-35.156,-7.812,-16.113,1.953,0.000
7250.000,-35.645,-19.043,-16.113,-11.719,0.000
7254.000,-29.297,-39.551,-13.672,-7.324,0.000
7258.000,-17.578,-32.227,-14.160,-7.812,0.000
7262.000,-12.207,-22.949,-11.230,-13.184,0.000
7266.000,-27.344,-27.344,-18.555,-12.207,0.000
7270.000,-31.738,-17.578,-22.949,-16.113,0.000
7273.000,-7.812,-5.371,-8.789,-7.324,0.000
7277.000,2.930,-19.531,-15.625,-3.906,0.000
7281.000,-15.625,-37.598,-31.250,-15.625,0.000
7285.000,-29.785,-21.484,-24.414,-28.809,0.000
7289.000,-13.184,-12.207,-13.184,-19.043,0.000
7293.000,-7.324,-23.926,-20.020,-7.324,0.000
7297.000,-18.066,-26.367,-37.598,-16.113,0.000
7301.000,-19.531,-33.203,-45.898,-28.320,0.000
7305.000,-12.695,-50.293,-49.316,-32.227,0.000
7309.000,1.953,-35.156,-42.969,-26.367,0.000
7313.000,-3.906,-30.273,-31.250,-21.484,0.000
7316.000,-1.953,-22.461,-23.438,-20.996,0.000
7320.000,7.812,0.488,-13.184,-11.230,0.000
7324.000,-1.953,-1.953,-15.625,0.000,0.000
7328.000,1.953,-14.648,-21.973,4.883,0.000
7332.000,2.930,-20.996,-12.207,8.789,0.000
7336.000,-25.391,-30.273,-20.020,-6.836,0.000
7340.000,-38.086,-29.785,-33.691,-20.508,0.000
7344.000,-17.090,-28.809,-32.227,-2.930,0.000
7348.000,-5.859,-28.809,-32.227,9.766,0.000
7352.000,-16.602,-27.832,-38.086,0.488,0.000
7356.000,-10.254,-19.043,-42.480,-8.789,0.000
7359.000,5.371,-16.602,-42.480,-4.395,0.000
7363.000,25.879,-16.113,-41.016,10.742,0.000
7367.000,37.598,-9.277,-39.551,14.160,0.000
7371.000,30.273,-13.672,-35.645,2.930,0.000
7375.000,34.180,-17.090,-36.621,5.859,0.000
7379.000,29.297,-27.832,-48.340,-0.488,0.000
7383.000,26.367,-30.273,-49.805,-5.371,0.000
7387.000,21.484,-32.715,-43.457,2.930,0.000
7391.000,19.531,-33.203,-39.062,10.742,0.000
7395.000,41.016,-25.879,-28.320,26.855,0.000
7398.000,43.457,-40.527,-36.621,22.461,0.000
7402.000,38.086,-43.945,-45.410,9.277,0.000
