timestamp,TP9,AF7,AF8,TP10,Right AUX
1673806255.155,-20.020,-32.227,-25.879,-30.762,0.000
1673806255.159,-21.484,-44.434,-36.621,-22.461,0.000
1673806255.162,-20.020,-30.762,-26.855,-16.113,0.000
1673806255.166,-25.879,-25.879,-28.809,-20.020,0.000
1673806255.170,-12.695,-31.250,-26.855,-26.367,0.000
1673806255.174,-8.789,-22.949,-15.625,-29.297,0.000
1673806255.178,-16.602,-13.184,-12.695,-21.973,0.000
1673806255.182,-17.578,-18.066,-17.090,-16.113,0.000
1673806255.186,-21.484,-31.738,-25.879,-37.598,0.000
1673806255.190,-11.230,-27.832,-23.438,-36.133,0.000
1673806255.194,-12.207,-16.113,-24.902,-24.902,0.000
1673806255.198,-23.438,-23.438,-25.879,-26.855,0.000
1673806255.202,-11.719,-31.250,-26.367,-20.020,0.000
1673806255.205,-4.395,-19.531,-30.762,-22.949,0.000
1673806255.209,-16.113,-15.137,-22.949,-21.484,0.000
1673806255.213,-36.133,-25.879,-20.508,-18.066,0.000
1673806255.217,-37.109,-27.832,-27.832,-33.691,0.000
1673806255.221,-18.555,-31.250,-18.066,-27.832,0.000
1673806255.225,-11.230,-29.785,-16.602,-12.695,0.000
1673806255.229,-21.973,-16.602,-29.297,-25.391,0.000
1673806255.233,-21.973,-12.695,-29.297,-35.156,0.000
1673806255.237,-20.020,-21.484,-25.391,-34.180,0.000
1673806255.241,-17.090,-18.555,-22.949,-21.484,0.000
1673806255.244,-26.855,-22.949,-27.832,-20.020,0.000
1673806255.248,-35.645,-30.273,-28.809,-30.762,0.000
1673806255.252,-33.203,-24.414,-18.555,-28.320,0.000
1673806255.256,-29.785,-13.184,-26.367,-21.484,0.000
1673806255.260,-22.949,-23.438,-31.738,-14.648,0.000
1673806255.264,-17.090,-33.691,-24.414,-9.766,0.000
1673806255.268,-15.625,-25.879,-23.438,-5.371,0.000
1673806255.272,-18.066,-20.020,-12.695,-10.742,0.000
1673806255.276,-18.066,-26.367,-12.695,-22.461,0.000
1673806255.280,-9.766,-28.320,-14.160,-21.484,0.000
1673806255.284,-3.418,-14.648,-15.137,-23.926,0.000
1673806255.287,-6.348,-20.996,-19.531,-36.133,0.000
1673806255.291,-12.207,-33.203,-18.066,-30.273,0.000
1673806255.295,-22.461,-30.273,-25.879,-20.508,0.000
1673806255.299,-12.695,-28.809,-22.461,-16.602,0.000
1673806255.303,-9.277,-21.973,-17.578,-31.250,0.000
1673806255.307,-13.672,-17.090,-24.414,-33.203,0.000
1673806255.311,-9.766,-13.184,-21.973,-18.555,0.000
1673806255.315,-8.789,-13.184,-19.043,-17.578,0.000
1673806255.319,-7.812,-15.137,-20.020,-29.785,0.000
1673806255.323,-4.883,-22.949,-17.090,-34.180,0.000
1673806255.326,-4.883,-25.391,-10.742,-28.809,0.000
1673806255.330,-9.277,-23.438,-12.695,-20.508,0.000
1673806255.334,-15.625,-27.344,-19.531,-20.508,0.000
1673806255.338,-17.090,-33.691,-23.438,-22.949,0.000
1673806255.342,-16.113,-28.320,-19.531,-15.625,0.000
1673806255.346,-15.137,-26.367,-14.648,-12.695,0.000
1673806255.350,-11.230,-32.715,-20.508,-24.902,0.000
1673806255.354,-7.324,-32.227,-22.949,-26.367,0.000
1673806255.358,0.000,-26.855,-14.648,-8.789,0.000
1673806255.362,-8.789,-22.461,-17.090,-0.977,0.000
1673806255.366,-16.113,-19.043,-22.461,-7.324,0.000
1673806255.369,-6.348,-23.926,-18.066,-11.230,0.000
1673806255.373,-4.883,-31.250,-18.066,-12.207,0.000
1673806255.377,-8.301,-20.508,-18.555,-8.789,0.000
1673806255.381,-9.277,-9.277,-14.160,4.883,0.000
1673806255.385,-5.859,-15.137,-8.789,3.418,0.000
1673806255.389,-7.812,-9.766,-6.836,4.883,0.000
1673806255.393,-14.160,-8.789,-7.324,1.465,0.000
1673806255.397,-11.719,-13.672,-10.254,-16.113,0.000
1673806255.401,-6.836,-9.277,-8.789,-17.578,0.000
1673806255.405,-3.906,-5.859,-7.812,-14.160,0.000
1673806255.409,-1.953,-20.508,-16.113,-16.602,0.000
1673806255.412,-5.859,-25.879,-24.414,-16.602,0.000
1673806255.416,-7.812,-15.625,-20.020,-13.672,0.000
1673806255.420,1.953,-3.906,-15.625,-11.719,0.000
1673806255.424,7.812,10.742,-6.836,-8.789,0.000
1673806255.428,0.488,6.348,-3.418,0.000,0.000
1673806255.432,10.254,7.324,0.488,6.836,0.000
1673806255.436,20.020,12.207,11.230,15.625,0.000
1673806255.440,6.836,-0.488,3.906,12.207,0.000
1673806255.444,4.395,-9.766,-8.301,12.695,0.000
1673806255.448,14.648,-3.906,-13.672,16.113,0.000
1673806255.451,20.020,13.184,1.953,14.648,0.000
1673806255.455,15.625,10.254,5.371,1.953,0.000
1673806255.459,9.766,-4.883,-13.672,-8.789,0.000
1673806255.463,8.789,-1.953,-18.066,-0.977,0.000
1673806255.467,4.395,-2.930,-14.648,0.000,0.000
1673806255.471,-0.488,1.465,-14.160,-0.488,0.000
1673806255.475,0.488,5.371,-15.137,6.836,0.000
1673806255.479,4.395,0.000,-9.277,17.578,0.000
1673806255.483,5.371,-3.906,-7.812,16.602,0.000
1673806255.487,-1.465,-5.371,-18.066,7.324,0.000
1673806255.491,-2.930,-8.301,-26.367,7.324,0.000
1673806255.494,1.953,-1.953,-20.020,10.254,0.000
1673806255.498,-1.465,-1.465,-22.461,7.324,0.000
1673806255.502,-0.977,-14.160,-27.344,-4.883,0.000
1673806255.506,-3.906,-18.066,-20.020,-6.836,0.000
1673806255.510,-2.930,-10.254,-15.625,-1.953,0.000
1673806255.514,-1.953,-15.625,-20.508,-7.812,0.000
1673806255.518,0.000,-27.344,-26.367,-12.695,0.000
1673806255.522,-9.277,-11.230,-24.414,-13.184,0.000
1673806255.526,-23.926,-7.812,-16.113,-4.883,0.000
1673806255.530,-28.320,-15.137,-11.719,-3.906,0.000
1673806255.534,-19.043,-14.160,-12.207,-12.695,0.000
1673806255.537,-17.090,-12.695,-18.555,-20.996,0.000
1673806255.541,-24.414,-25.391,-26.367,-23.926,0.000
1673806255.545,-20.020,-26.367,-24.902,-16.602,0.000
1673806255.549,-23.438,-31.250,-28.320,-12.207,0.000
1673806255.553,-31.250,-39.551,-28.809,-18.555,0.000
1673806255.557,-41.016,-31.250,-20.508,-26.855,0.000
1673806255.561,-38.086,-35.645,-17.090,-30.762,0.000
1673806255.565,-37.109,-38.086,-20.996,-26.855,0.000
1673806255.569,-37.598,-29.785,-19.531,-26.855,0.000
1673806255.573,-40.039,-21.973,-19.531,-38.574,0.000
1673806255.576,-42.480,-33.691,-38.086,-42.480,0.000
1673806255.580,-28.809,-23.438,-32.227,-32.227,0.000
1673806255.584,-30.273,-20.508,-13.672,-40.039,0.000
1673806255.588,-41.992,-37.598,-16.602,-43.945,0.000
1673806255.592,-46.387,-32.715,-20.508,-26.855,0.000
1673806255.596,-42.480,-25.879,-16.602,-16.113,0.000
1673806255.600,-38.086,-34.180,-22.949,-15.137,0.000
1673806255.604,-42.480,-32.715,-20.996,-18.555,0.000
1673806255.608,-40.039,-20.996,-18.555,-21.484,0.000
1673806255.612,-35.156,-15.137,-16.602,-18.555,0.000
1673806255.616,-31.250,-15.625,-11.230,-11.230,0.000
1673806255.619,-32.715,-21.973,-17.578,-14.648,0.000
1673806255.623,-30.273,-20.508,-18.066,-18.066,0.000
1673806255.627,-23.438,-16.113,-13.672,-12.207,0.000
1673806255.631,-21.973,-30.762,-14.160,-9.277,0.000
1673806255.635,-24.902,-31.250,-20.508,-22.461,0.000
1673806255.639,-23.926,-16.113,-20.508,-20.508,0.000
1673806255.643,-21.484,-14.160,-19.531,-0.488,0.000
1673806255.647,-21.973,-19.043,-20.020,0.488,0.000
1673806255.651,-26.367,-16.602,-12.695,-2.441,0.000
1673806255.655,-31.738,-15.137,-13.672,-14.160,0.000
1673806255.658,-31.738,-16.113,-10.254,-13.672,0.000
1673806255.662,-39.551,-21.973,-6.836,-4.883,0.000
1673806255.666,-32.715,-21.484,-24.902,-16.602,0.000
1673806255.670,-22.949,-27.832,-26.367,-22.949,0.000
1673806255.674,-20.996,-29.297,-14.160,-12.207,0.000
1673806255.678,-22.461,-26.367,-13.184,-9.766,0.000
1673806255.682,-22.949,-24.414,-20.508,-14.648,0.000
1673806255.686,-17.090,-10.254,-25.391,-14.648,0.000
1673806255.690,-13.672,-12.207,-20.996,-10.254,0.000
1673806255.694,-12.207,-20.996,-26.855,-12.207,0.000
1673806255.698,-7.324,-21.484,-32.227,-10.254,0.000
1673806255.701,-3.906,-26.367,-16.113,-11.230,0.000
1673806255.705,-6.836,-31.250,-15.137,-16.113,0.000
1673806255.709,-19.043,-35.156,-38.574,-24.414,0.000
1673806255.713,-19.531,-33.203,-34.668,-28.809,0.000
1673806255.717,-14.160,-20.996,-21.973,-20.020,0.000
1673806255.721,-10.254,-20.996,-17.578,-16.113,0.000
1673806255.725,-5.859,-25.391,-14.160,-19.043,0.000
1673806255.729,-2.441,-20.508,-9.277,-13.672,0.000
1673806255.733,-1.953,-11.719,-6.348,-17.578,0.000
1673806255.737,2.441,-18.066,-9.766,-17.578,0.000
1673806255.741,-8.789,-30.273,-19.531,-18.555,0.000
1673806255.744,-12.695,-16.602,-22.949,-18.066,0.000
1673806255.748,-5.371,-12.207,-18.066,-2.441,0.000
1673806255.752,-14.648,-26.855,-18.555,-8.789,0.000
1673806255.756,-20.020,-22.461,-18.555,-21.484,0.000
1673806255.760,-16.602,-13.184,-13.184,-7.812,0.000
1673806255.764,-23.926,-16.602,-20.020,-7.324,0.000
1673806255.768,-20.508,-24.902,-29.785,-14.160,0.000
1673806255.772,-5.859,-23.926,-32.227,-15.625,0.000
1673806255.776,-3.906,-25.391,-34.668,-12.695,0.000
1673806255.780,-1.465,-44.434,-33.691,-4.883,0.000
1673806255.783,0.000,-40.039,-24.414,-1.953,0.000
1673806255.787,-8.789,-15.625,-14.160,-5.859,0.000
1673806255.791,-12.695,-2.930,-14.648,-5.371,0.000
1673806255.795,-4.883,-0.977,-19.043,4.395,0.000
1673806255.799,-2.441,-18.555,-20.996,-1.465,0.000
1673806255.803,-0.977,-26.855,-12.207,-9.766,0.000
1673806255.807,-8.789,-25.879,-19.531,-12.207,0.000
1673806255.811,-24.414,-20.020,-31.738,-5.859,0.000
1673806255.815,-30.762,-18.066,-26.855,-15.625,0.000
1673806255.819,-35.645,-19.531,-19.531,-32.715,0.000
1673806255.823,-37.109,-28.320,-23.438,-27.344,0.000
1673806255.826,-33.203,-37.598,-28.320,-21.973,0.000
1673806255.830,-42.969,-31.250,-22.949,-17.090,0.000
1673806255.834,-40.039,-22.461,-24.902,-17.578,0.000
1673806255.838,-29.297,-22.949,-34.180,-25.391,0.000
1673806255.842,-31.250,-32.715,-34.668,-30.273,0.000
1673806255.846,-37.109,-34.668,-35.645,-32.715,0.000
1673806255.850,-28.320,-21.973,-31.738,-29.785,0.000
1673806255.854,-11.719,-23.926,-24.414,-26.855,0.000
1673806255.858,-12.207,-33.203,-27.832,-21.973,0.000
1673806255.862,-23.438,-22.461,-27.344,-25.879,0.000
1673806255.866,-31.250,-11.719,-23.926,-33.691,0.000
1673806255.869,-37.109,-12.207,-34.180,-28.809,0.000
1673806255.873,-32.227,-17.578,-42.480,-18.555,0.000
1673806255.877,-25.391,-24.414,-34.180,-16.113,0.000
1673806255.881,-23.438,-17.578,-27.832,-14.648,0.000
1673806255.885,-20.508,-19.043,-37.109,-8.301,0.000
1673806255.889,-22.949,-25.879,-40.527,-11.719,0.000
1673806255.893,-28.320,-17.090,-30.762,-9.766,0.000
1673806255.897,-28.320,-17.090,-24.902,-10.254,0.000
1673806255.901,-30.273,-19.531,-31.738,-8.301,0.000
1673806255.905,-28.320,-21.973,-36.133,-2.930,0.000
1673806255.908,-29.297,-40.039,-22.949,-11.719,0.000
1673806255.912,-30.273,-37.598,-14.160,-7.812,0.000
1673806255.916,-21.484,-20.996,-13.184,-6.836,0.000
1673806255.920,-17.578,-15.137,-24.414,-13.672,0.000
1673806255.924,-15.625,-12.695,-24.902,-6.836,0.000
1673806255.928,-9.277,-19.043,-12.695,10.742,0.000
1673806255.932,-7.324,-15.625,-16.113,22.949,0.000
1673806255.936,-10.254,-3.906,-20.996,4.395,0.000
1673806255.940,-12.695,-11.230,-19.043,-2.441,0.000
1673806255.944,-4.883,-14.648,-19.531,2.441,0.000
1673806255.948,-7.812,-16.113,-20.020,-12.695,0.000
1673806255.951,-4.395,-15.137,-25.391,-14.648,0.000
1673806255.955,-3.906,-7.324,-21.973,-11.719,0.000
1673806255.959,-18.555,-11.230,-22.949,-13.672,0.000
1673806255.963,-20.020,-24.414,-28.320,-4.883,0.000
1673806255.967,-20.020,-31.738,-26.367,3.418,0.000
1673806255.971,-22.461,-22.949,-17.090,0.977,0.000
1673806255.975,-20.508,-19.531,-15.625,-2.441,0.000
1673806255.979,-34.668,-19.531,-24.414,-9.277,0.000
1673806255.983,-43.457,-20.020,-24.902,-15.137,0.000
1673806255.987,-33.691,-23.926,-20.508,-16.602,0.000
1673806255.991,-32.715,-25.879,-26.367,-12.695,0.000
1673806255.994,-33.203,-30.762,-32.715,-10.254,0.000
1673806255.998,-37.109,-36.621,-21.973,-16.113,0.000
1673806256.002,-42.969,-39.062,-22.461,-18.555,0.000
1673806256.006,-47.852,-36.133,-29.785,-19.043,0.000
1673806256.010,-38.086,-26.855,-17.090,-16.113,0.000
1673806256.014,-33.203,-23.926,-12.207,-20.996,0.000
1673806256.018,-37.598,-22.461,-20.996,-31.250,0.000
1673806256.022,-43.457,-26.367,-29.785,-41.504,0.000
1673806256.026,-40.527,-33.203,-28.320,-40.527,0.000
1673806256.030,-36.133,-36.133,-31.738,-35.645,0.000
1673806256.033,-38.574,-25.391,-39.551,-32.715,0.000
1673806256.037,-37.109,-17.090,-19.043,-38.086,0.000
1673806256.041,-30.762,-19.043,-17.090,-41.016,0.000
1673806256.045,-25.391,-19.531,-34.180,-30.273,0.000
1673806256.049,-26.855,-23.438,-22.949,-25.391,0.000
1673806256.053,-20.996,-20.508,-17.578,-25.879,0.000
1673806256.057,-18.066,-14.648,-16.113,-15.625,0.000
1673806256.061,-28.320,-10.254,-5.371,-5.859,0.000
1673806256.065,-24.414,-4.395,-0.488,7.324,0.000
1673806256.069,-8.301,1.465,-6.836,0.977,0.000
1673806256.073,-3.906,10.254,-1.953,-2.441,0.000
1673806256.076,-4.395,0.977,9.766,7.324,0.000
1673806256.080,-7.812,-1.953,12.695,0.000,0.000
1673806256.084,-14.160,1.953,9.277,-13.672,0.000
1673806256.088,-14.160,5.371,7.324,-6.836,0.000
1673806256.092,-10.742,4.395,6.348,0.000,0.000
1673806256.096,-15.137,-2.441,-6.348,-0.488,0.000
1673806256.100,-24.902,-9.766,-10.742,-4.395,0.000
1673806256.104,-19.043,-5.371,-11.230,-8.789,0.000
1673806256.108,-15.137,-8.301,-22.949,-4.395,0.000
1673806256.112,-20.020,-5.859,-11.230,-3.906,0.000
1673806256.116,-26.855,-2.930,-6.348,-12.695,0.000
1673806256.119,-26.367,-9.277,-9.766,-15.137,0.000
1673806256.123,-12.207,-9.766,-3.906,-9.766,0.000
1673806256.127,-12.207,-18.555,-6.836,-12.695,0.000
1673806256.131,-25.391,-33.691,-14.648,-16.113,0.000
1673806256.135,-18.066,-23.926,-18.066,-11.230,0.000
1673806256.139,-9.277,-3.418,-10.254,-12.207,0.000
1673806256.143,-8.789,-3.906,-20.020,-12.695,0.000
1673806256.147,-5.859,-5.859,-24.414,-8.789,0.000
1673806256.151,-4.883,-5.859,-4.395,-16.602,0.000
1673806256.155,-1.465,-2.441,-1.953,-22.949,0.000
1673806256.158,4.883,-2.930,-11.719,-17.578,0.000
1673806256.162,-2.930,-9.277,-20.996,-13.184,0.000
1673806256.166,-16.602,-14.160,-19.043,-23.438,0.000
1673806256.170,-11.719,-21.484,-20.508,-27.344,0.000
1673806256.174,-16.602,-19.531,-17.578,-24.902,0.000
1673806256.178,-25.879,-11.719,-12.695,-26.855,0.000
1673806256.182,-21.484,-6.836,-16.602,-24.414,0.000
1673806256.186,-24.902,-10.254,-31.738,-24.414,0.000
1673806256.190,-32.227,-15.625,-27.344,-17.090,0.000
1673806256.194,-41.992,-7.812,-9.277,-5.859,0.000
1673806256.198,-43.457,-4.395,-7.324,0.000,0.000
1673806256.201,-36.133,-6.836,-9.277,1.953,0.000
1673806256.205,-33.203,-9.277,-13.184,-2.441,0.000
1673806256.209,-32.227,-17.090,-10.742,-0.488,0.000
1673806256.213,-23.926,-18.555,-7.812,9.277,0.000
1673806256.217,-18.066,-4.883,-11.719,10.254,0.000
1673806256.221,-22.461,-8.301,-11.230,-8.301,0.000
1673806256.225,-24.414,-5.859,-13.672,-19.531,0.000
1673806256.229,-20.996,2.930,-24.902,-7.812,0.000
1673806256.233,-19.531,-1.953,-27.832,-2.441,0.000
1673806256.237,-11.719,-11.230,-22.461,-5.859,0.000
1673806256.240,3.418,-9.277,-20.996,3.418,0.000
1673806256.244,6.836,-1.465,-9.277,10.742,0.000
1673806256.248,6.836,3.906,-2.441,0.488,0.000
1673806256.252,8.301,0.000,-14.160,-5.859,0.000
1673806256.256,6.836,-8.301,-28.320,-1.953,0.000
1673806256.260,5.859,-5.371,-21.484,-0.977,0.000
1673806256.264,1.465,-6.348,-13.672,-19.531,0.000
1673806256.268,6.836,-4.395,-15.137,-21.484,0.000
1673806256.272,4.883,0.000,-22.949,-19.043,0.000
1673806256.276,-4.883,-9.277,-23.926,-23.438,0.000
1673806256.280,-4.395,-13.672,-16.602,-21.484,0.000
1673806256.283,-5.371,-13.672,-18.066,-20.508,0.000
1673806256.287,-1.953,-29.297,-27.344,-20.996,0.000
1673806256.291,-7.324,-22.461,-22.461,-20.020,0.000
1673806256.295,-29.297,-10.254,-12.207,-29.297,0.000
1673806256.299,-41.992,-15.625,-18.066,-36.133,0.000
1673806256.303,-43.945,-22.949,-19.043,-37.598,0.000
1673806256.307,-52.734,-33.691,-16.113,-41.504,0.000
1673806256.311,-62.500,-31.250,-19.531,-43.457,0.000
1673806256.315,-65.918,-27.344,-31.738,-48.828,0.000
1673806256.319,-67.383,-28.809,-31.250,-44.434,0.000
1673806256.323,-62.988,-24.414,-21.484,-36.621,0.000
1673806256.326,-59.082,-22.461,-14.648,-29.297,0.000
1673806256.330,-50.293,-36.621,-9.766,-20.020,0.000
1673806256.334,-39.551,-42.480,-13.184,-24.902,0.000
1673806256.338,-43.457,-27.832,-27.832,-28.320,0.000
1673806256.342,-41.016,-30.762,-33.203,-32.715,0.000
1673806256.346,-36.133,-31.250,-15.625,-35.156,0.000
1673806256.350,-32.227,-18.555,-20.020,-25.879,0.000
1673806256.354,-26.367,-15.137,-21.484,-28.809,0.000
1673806256.358,-22.949,-22.461,-8.789,-37.598,0.000
1673806256.362,-22.461,-20.020,-9.277,-25.879,0.000
1673806256.365,-20.508,-20.508,-13.184,-22.461,0.000
1673806256.369,-3.418,-40.039,-25.879,-29.297,0.000
1673806256.373,3.906,-31.738,-45.410,-22.949,0.000
1673806256.377,-5.371,-12.695,-30.273,-20.020,0.000
1673806256.381,-10.742,-10.254,-10.742,-25.391,0.000
1673806256.385,-12.695,-12.207,-14.648,-23.438,0.000
1673806256.389,-10.254,-10.742,-15.137,-23.438,0.000
1673806256.393,-0.977,-7.324,-9.766,-16.113,0.000
1673806256.397,-3.418,-15.137,-9.277,-10.254,0.000
1673806256.401,-10.742,-22.461,-18.555,-11.230,0.000
1673806256.405,-11.719,-31.250,-30.762,-18.066,0.000
1673806256.408,-15.625,-28.320,-20.508,-10.742,0.000
1673806256.412,-25.879,-13.184,-12.695,-8.789,0.000
1673806256.416,-30.273,-12.207,-14.648,-22.949,0.000
1673806256.420,-24.902,-8.789,-10.742,-18.066,0.000
1673806256.424,-19.531,-5.859,-7.324,-9.277,0.000
1673806256.428,-23.438,-13.184,-13.672,-13.672,0.000
1673806256.432,-28.809,-10.742,-17.090,-23.438,0.000
1673806256.436,-30.273,-14.160,-21.484,-29.297,0.000
1673806256.440,-39.062,-28.320,-21.973,-32.227,0.000
1673806256.444,-40.039,-32.227,-20.508,-27.832,0.000
1673806256.448,-37.598,-29.297,-35.645,-31.738,0.000
1673806256.451,-39.551,-27.344,-34.180,-42.969,0.000
1673806256.455,-29.297,-34.180,-28.809,-38.086,0.000
1673806256.459,-18.066,-33.203,-33.691,-32.227,0.000
1673806256.463,-20.996,-37.109,-30.273,-31.250,0.000
1673806256.467,-15.625,-32.227,-32.715,-33.691,0.000
1673806256.471,-9.277,-16.113,-23.438,-30.762,0.000
1673806256.475,-11.719,-19.043,-24.414,-21.973,0.000
1673806256.479,-21.484,-29.785,-36.621,-15.625,0.000
1673806256.483,-27.344,-25.879,-11.719,-13.184,0.000
1673806256.487,-34.668,-21.484,-3.418,-18.066,0.000
1673806256.490,-36.133,-35.156,-20.020,-27.832,0.000
1673806256.494,-34.180,-45.410,-23.438,-23.438,0.000
1673806256.498,-25.879,-31.738,-16.602,-15.137,0.000
1673806256.502,-19.531,-18.066,-19.043,-26.367,0.000
1673806256.506,-24.902,-20.020,-28.320,-25.879,0.000
1673806256.510,-23.926,-17.090,-41.504,-21.973,0.000
1673806256.514,-27.832,-14.160,-31.738,-27.344,0.000
1673806256.518,-38.574,-23.438,-18.066,-39.062,0.000
1673806256.522,-43.945,-18.555,-25.391,-52.246,0.000
1673806256.526,-41.992,-11.719,-28.320,-50.781,0.000
1673806256.530,-47.852,-24.414,-17.578,-43.945,0.000
1673806256.533,-54.688,-29.297,-18.555,-47.852,0.000
1673806256.537,-60.547,-29.785,-35.156,-56.641,0.000
1673806256.541,-63.965,-30.762,-35.645,-58.105,0.000
1673806256.545,-58.594,-21.484,-24.414,-45.898,0.000
1673806256.549,-45.410,-14.648,-18.555,-35.645,0.000
1673806256.553,-39.062,-22.461,-22.461,-41.504,0.000
1673806256.557,-35.645,-22.461,-26.367,-42.969,0.000
1673806256.561,-26.367,-12.207,-33.691,-33.691,0.000
1673806256.565,-26.367,-15.625,-37.109,-32.227,0.000
1673806256.569,-24.902,-22.949,-20.020,-28.320,0.000
1673806256.573,-27.344,-24.414,-15.625,-19.531,0.000
1673806256.576,-21.484,-18.066,-20.996,-15.625,0.000
1673806256.580,-21.973,-27.832,-17.090,-26.367,0.000
1673806256.584,-29.785,-32.715,-19.043,-34.180,0.000
1673806256.588,-32.715,-14.160,-27.344,-28.809,0.000
1673806256.592,-35.645,-9.766,-31.250,-27.832,0.000
1673806256.596,-39.551,-13.184,-25.879,-27.344,0.000
1673806256.600,-31.738,-11.719,-18.555,-25.391,0.000
1673806256.604,-18.555,-8.789,-24.414,-21.484,0.000
1673806256.608,-27.832,-11.719,-25.879,-20.996,0.000
1673806256.612,-29.297,-24.414,-17.578,-29.785,0.000
1673806256.615,-17.090,-25.391,-17.090,-36.621,0.000
1673806256.619,-21.973,-19.531,-19.043,-40.039,0.000
1673806256.623,-26.367,-17.090,-26.367,-38.086,0.000
1673806256.627,-36.621,-17.090,-19.043,-36.133,0.000
1673806256.631,-40.527,-22.461,-16.602,-40.039,0.000
1673806256.635,-29.785,-26.855,-29.297,-45.898,0.000
1673806256.639,-33.691,-21.973,-39.062,-36.621,0.000
1673806256.643,-46.875,-18.066,-45.410,-29.785,0.000
1673806256.647,-45.898,-35.156,-53.223,-30.762,0.000
1673806256.651,-47.852,-45.898,-25.879,-39.551,0.000
1673806256.655,-58.105,-31.738,-8.301,-50.781,0.000
1673806256.658,-58.105,-36.621,-21.484,-44.434,0.000
1673806256.662,-52.246,-37.598,-20.996,-36.621,0.000
1673806256.666,-49.805,-27.832,-17.578,-38.086,0.000
1673806256.670,-41.992,-32.715,-19.043,-48.828,0.000
1673806256.674,-35.156,-26.367,-22.461,-43.945,0.000
1673806256.678,-35.156,-31.738,-20.996,-31.738,0.000
1673806256.682,-37.109,-34.180,-20.020,-34.180,0.000
1673806256.686,-40.527,-31.738,-28.809,-44.922,0.000
1673806256.690,-44.434,-26.855,-26.855,-37.109,0.000
1673806256.694,-41.016,-17.090,-21.973,-21.484,0.000
1673806256.697,-37.109,-18.066,-26.367,-28.809,0.000
1673806256.701,-25.391,-19.043,-31.738,-35.645,0.000
1673806256.705,-18.066,-19.043,-30.762,-32.715,0.000
1673806256.709,-38.086,-23.438,-32.227,-40.039,0.000
1673806256.713,-47.363,-20.996,-31.738,-42.969,0.000
1673806256.717,-36.133,-20.508,-33.691,-38.574,0.000
1673806256.721,-40.527,-25.879,-35.645,-33.203,0.000
1673806256.725,-43.945,-27.344,-35.156,-30.762,0.000
1673806256.729,-36.133,-16.602,-35.645,-23.438,0.000
1673806256.733,-31.250,-2.441,-36.133,-24.902,0.000
1673806256.737,-27.344,-6.836,-29.297,-34.668,0.000
1673806256.740,-26.367,-20.020,-14.648,-21.973,0.000
1673806256.744,-26.855,-22.949,-11.719,-13.672,0.000
1673806256.748,-24.414,-21.973,-19.043,-29.785,0.000
1673806256.752,-19.531,-19.531,-13.672,-31.250,0.000
1673806256.756,-18.555,-18.555,-7.324,-19.043,0.000
1673806256.760,-25.391,-16.113,-4.883,-12.207,0.000
1673806256.764,-28.809,-21.484,-13.184,-13.672,0.000
1673806256.768,-28.809,-23.926,-18.066,-11.719,0.000
1673806256.772,-26.367,-19.531,-9.766,-9.766,0.000
1673806256.776,-21.484,-19.043,-10.254,-9.277,0.000
1673806256.780,-28.320,-25.879,-13.184,-14.160,0.000
1673806256.783,-32.715,-34.668,-9.277,-24.414,0.000
1673806256.787,-31.738,-28.320,-9.766,-24.902,0.000
1673806256.791,-39.062,-24.902,-18.555,-35.156,0.000
1673806256.795,-36.621,-22.949,-16.602,-33.203,0.000
1673806256.799,-27.344,-24.414,-12.695,-28.320,0.000
1673806256.803,-23.926,-32.227,-15.625,-21.973,0.000
1673806256.807,-23.926,-31.738,-17.578,-20.508,0.000
1673806256.811,-18.555,-30.762,-18.555,-14.648,0.000
1673806256.815,-14.648,-31.738,-23.438,-7.812,0.000
1673806256.819,-20.508,-21.484,-30.273,-25.391,0.000
1673806256.822,-22.461,-15.625,-30.762,-32.715,0.000
1673806256.826,-24.414,-21.484,-17.578,-20.996,0.000
1673806256.830,-23.926,-18.555,-10.742,-15.137,0.000
1673806256.834,-24.414,-13.184,-14.648,-26.367,0.000
1673806256.838,-20.508,-6.836,-17.578,-32.227,0.000
1673806256.842,-22.461,-4.395,-17.090,-22.949,0.000
1673806256.846,-27.832,-9.277,-14.160,-16.113,0.000
1673806256.850,-29.297,-11.230,-20.508,-18.066,0.000
1673806256.854,-21.973,0.488,-30.273,-19.531,0.000
1673806256.858,-14.160,-2.441,-23.926,-6.836,0.000
1673806256.862,-18.555,-8.301,-8.301,-6.348,0.000
1673806256.865,-28.809,-8.789,-3.906,-13.184,0.000
1673806256.869,-26.855,0.977,-3.418,-20.020,0.000
1673806256.873,-20.020,6.836,-3.418,-17.578,0.000
1673806256.877,-34.180,-3.418,-8.301,-12.695,0.000
1673806256.881,-47.852,-11.230,-10.742,-20.996,0.000
1673806256.885,-38.574,-13.672,-10.254,-20.996,0.000
1673806256.889,-30.273,-14.160,-5.859,-13.184,0.000
1673806256.893,-19.531,-4.883,-7.324,-13.672,0.000
1673806256.897,-3.418,-2.441,-16.113,-13.672,0.000
1673806256.901,3.906,-0.977,-14.160,-8.301,0.000
1673806256.905,6.836,6.836,-7.324,-6.836,0.000
1673806256.908,0.977,0.977,-5.371,-0.977,0.000
1673806256.912,-2.441,0.977,-8.789,6.348,0.000
1673806256.916,5.371,8.301,-3.418,5.859,0.000
1673806256.920,11.230,6.348,4.395,5.859,0.000
1673806256.924,0.488,-1.465,4.883,0.000,0.000
1673806256.928,-3.906,-12.695,4.883,-3.418,0.000
1673806256.932,4.395,-7.812,4.395,7.324,0.000
1673806256.936,3.906,1.953,-9.766,11.719,0.000
1673806256.940,-5.371,1.465,-14.160,13.184,0.000
1673806256.944,-1.465,0.000,-0.977,15.625,0.000
1673806256.947,-2.930,-2.930,-0.977,6.836,0.000
1673806256.951,-8.301,-18.066,-5.371,-3.418,0.000
1673806256.955,-3.418,-21.484,-4.883,-4.395,0.000
1673806256.959,-8.789,-11.230,-5.371,-6.348,0.000
1673806256.963,-13.672,-1.465,0.000,-6.348,0.000
1673806256.967,-17.578,1.465,1.953,-0.977,0.000
1673806256.971,-18.555,-0.488,-4.395,-13.184,0.000
1673806256.975,-14.160,-0.488,-9.766,-23.438,0.000
1673806256.979,-18.066,-2.930,-16.602,-24.902,0.000
1673806256.983,-14.648,-7.324,-12.207,-27.344,0.000
1673806256.987,-4.395,-17.578,-5.371,-30.273,0.000
1673806256.990,-10.254,-14.648,-14.648,-13.672,0.000
1673806256.994,-12.695,-11.719,-13.184,-0.977,0.000
1673806256.998,-14.648,-25.879,-13.184,-6.836,0.000
1673806257.002,-20.020,-20.508,-22.461,-11.719,0.000
1673806257.006,-21.484,-13.184,-5.859,-18.066,0.000
1673806257.010,-21.973,-20.508,-0.488,-5.859,0.000
1673806257.014,-23.438,-26.367,-13.184,1.465,0.000
1673806257.018,-17.090,-23.438,-15.137,-9.277,0.000
1673806257.022,-15.137,-12.207,-15.625,-11.230,0.000
1673806257.026,-27.832,-13.672,-18.555,-7.812,0.000
1673806257.030,-35.156,-24.414,-21.484,-0.488,0.000
1673806257.033,-36.133,-32.227,-13.672,1.953,0.000
1673806257.037,-35.645,-22.949,-18.555,-17.578,0.000
1673806257.041,-35.156,-21.973,-27.344,-33.203,0.000
1673806257.045,-39.062,-21.973,-26.367,-25.391,0.000
1673806257.049,-42.969,-13.184,-27.832,-21.973,0.000
1673806257.053,-36.621,-7.324,-19.043,-25.391,0.000
1673806257.057,-25.879,-16.113,-16.602,-33.691,0.000
1673806257.061,-30.273,-20.508,-24.414,-44.434,0.000
1673806257.065,-35.645,-13.184,-19.531,-37.109,0.000
1673806257.069,-28.809,-12.207,-11.230,-41.016,0.000
1673806257.072,-23.926,-18.066,-19.043,-38.086,0.000
1673806257.076,-24.414,-17.090,-32.715,-22.949,0.000
1673806257.080,-22.949,-14.648,-25.391,-23.926,0.000
1673806257.084,-18.555,-16.602,-18.555,-24.414,0.000
1673806257.088,-25.879,-23.926,-20.508,-25.391,0.000
1673806257.092,-24.902,-25.391,-15.625,-16.602,0.000
1673806257.096,-21.484,-15.137,-8.301,-0.977,0.000
1673806257.100,-23.926,-11.230,-11.230,-1.953,0.000
1673806257.104,-25.391,-18.066,-23.438,-7.812,0.000
1673806257.108,-29.785,-19.531,-21.973,-17.090,0.000
1673806257.112,-36.133,-21.484,-11.719,-17.578,0.000
1673806257.115,-41.016,-24.902,-9.277,-8.789,0.000
1673806257.119,-38.086,-33.203,-15.625,-15.625,0.000
1673806257.123,-39.062,-31.738,-25.879,-22.949,0.000
1673806257.127,-40.527,-27.344,-26.367,-16.602,0.000
1673806257.131,-39.551,-41.504,-17.578,-21.484,0.000
1673806257.135,-39.551,-34.668,-16.113,-27.344,0.000
1673806257.139,-38.574,-15.137,-13.184,-22.949,0.000
1673806257.143,-35.645,-19.043,-18.066,-21.973,0.000
1673806257.147,-35.156,-23.926,-20.996,-28.320,0.000
1673806257.151,-37.598,-19.531,-13.672,-34.180,0.000
1673806257.154,-33.203,-21.973,-15.137,-28.809,0.000
1673806257.158,-29.297,-30.273,-19.043,-14.648,0.000
1673806257.162,-33.203,-21.973,-20.996,-15.625,0.000
1673806257.166,-29.785,-16.602,-20.996,-23.438,0.000
1673806257.170,-15.137,-17.578,-17.578,-19.043,0.000
1673806257.174,-12.207,-20.996,-17.090,-18.066,0.000
1673806257.178,-21.973,-33.203,-22.949,-17.090,0.000
1673806257.182,-30.273,-26.855,-27.832,-16.113,0.000
1673806257.186,-19.043,-14.648,-22.461,-22.949,0.000
1673806257.190,-9.766,-20.996,-29.297,-27.344,0.000
1673806257.194,-21.973,-31.250,-42.969,-30.762,0.000
1673806257.197,-26.855,-27.832,-28.320,-24.902,0.000
1673806257.201,-25.879,-21.484,-15.625,-22.461,0.000
1673806257.205,-30.762,-19.043,-16.113,-16.113,0.000
1673806257.209,-31.738,-21.973,-27.344,-12.207,0.000
1673806257.213,-32.227,-15.137,-42.480,-6.348,0.000
1673806257.217,-31.250,-16.113,-25.391,-10.254,0.000
1673806257.221,-34.668,-29.785,-5.859,-23.438,0.000
1673806257.225,-39.062,-23.926,-10.742,-22.461,0.000
1673806257.229,-35.156,-17.090,-12.695,-17.578,0.000
1673806257.233,-29.297,-18.555,-16.113,-20.508,0.000
1673806257.237,-21.973,-18.555,-16.602,-23.438,0.000
1673806257.240,-16.602,-22.461,-16.113,-26.367,0.000
1673806257.244,-7.324,-25.391,-21.973,-24.414,0.000
1673806257.248,-2.930,-20.996,-16.113,-15.625,0.000
1673806257.252,-13.672,-15.625,-11.719,-12.207,0.000
1673806257.256,-18.555,-18.066,-20.020,-19.043,0.000
1673806257.260,-8.789,-21.484,-27.832,-15.137,0.000
1673806257.264,-8.789,-26.855,-25.879,-13.184,0.000
1673806257.268,-17.090,-20.508,-25.391,-22.461,0.000
1673806257.272,-8.789,-19.531,-37.109,-24.902,0.000
1673806257.276,-6.836,-33.203,-40.039,-17.578,0.000
1673806257.279,-10.254,-21.973,-27.344,-11.719,0.000
1673806257.283,-12.207,-15.625,-26.855,-13.672,0.000
1673806257.287,-9.277,-20.020,-27.344,-23.926,0.000
1673806257.291,-12.695,-18.066,-21.973,-30.762,0.000
1673806257.295,-17.578,-18.555,-26.855,-20.020,0.000
1673806257.299,-20.020,-25.391,-25.879,-26.367,0.000
1673806257.303,-23.438,-32.227,-19.043,-32.227,0.000
1673806257.307,-27.344,-39.062,-21.484,-27.344,0.000
1673806257.311,-37.109,-36.133,-25.879,-34.180,0.000
1673806257.315,-35.645,-24.902,-30.273,-39.062,0.000
1673806257.319,-28.320,-20.020,-25.879,-33.691,0.000
1673806257.322,-26.367,-28.809,-29.297,-36.621,0.000
1673806257.326,-24.902,-36.133,-43.457,-34.668,0.000
1673806257.330,-24.414,-29.297,-41.016,-17.578,0.000
1673806257.334,-39.062,-29.297,-30.273,-19.043,0.000
1673806257.338,-47.363,-38.574,-25.391,-35.156,0.000
1673806257.342,-42.480,-37.109,-21.973,-36.621,0.000
1673806257.346,-44.922,-23.926,-23.438,-32.715,0.000
1673806257.350,-42.969,-24.902,-27.344,-36.621,0.000
1673806257.354,-33.691,-31.738,-23.926,-33.691,0.000
1673806257.358,-34.668,-28.320,-28.809,-27.344,0.000
1673806257.362,-34.180,-27.344,-31.250,-18.066,0.000
1673806257.365,-37.109,-20.020,-16.602,-14.160,0.000
1673806257.369,-37.598,-19.043,-12.695,-24.414,0.000
1673806257.373,-24.414,-27.832,-17.578,-30.273,0.000
1673806257.377,-22.949,-20.020,-31.250,-24.414,0.000
1673806257.381,-30.273,-17.090,-41.992,-23.438,0.000
1673806257.385,-27.832,-26.855,-23.438,-27.344,0.000
1673806257.389,-30.762,-29.785,-17.578,-36.621,0.000
1673806257.393,-35.156,-33.203,-28.320,-38.574,0.000
1673806257.397,-39.551,-35.645,-35.156,-29.785,0.000
1673806257.401,-34.668,-33.691,-31.250,-24.902,0.000
1673806257.404,-24.414,-27.344,-32.715,-26.367,0.000
1673806257.408,-12.695,-16.602,-24.902,-19.531,0.000
1673806257.412,-4.395,-13.672,-3.906,-13.184,0.000
1673806257.416,-11.230,-19.531,-5.859,-20.996,0.000
1673806257.420,-14.648,-29.297,-16.113,-32.227,0.000
1673806257.424,-9.766,-23.926,-23.926,-27.832,0.000
1673806257.428,-9.766,-6.348,-20.996,-16.602,0.000
1673806257.432,-19.531,-6.836,-15.137,-16.602,0.000
1673806257.436,-29.297,-12.695,-27.832,-29.785,0.000
1673806257.440,-24.902,-20.020,-38.574,-33.691,0.000
1673806257.444,-20.020,-22.949,-23.926,-26.367,0.000
1673806257.447,-20.996,-19.043,-19.043,-21.484,0.000
1673806257.451,-14.648,-19.531,-20.996,-15.137,0.000
1673806257.455,-11.719,-16.602,-20.020,-10.742,0.000
1673806257.459,-20.508,-16.113,-22.949,-17.578,0.000
1673806257.463,-28.809,-24.414,-29.297,-27.344,0.000
1673806257.467,-25.391,-20.996,-32.227,-29.785,0.000
1673806257.471,-16.113,-20.508,-30.762,-28.809,0.000
1673806257.475,-19.043,-26.855,-30.762,-24.414,0.000
1673806257.479,-35.156,-28.320,-34.180,-21.973,0.000
1673806257.483,-32.715,-22.461,-25.879,-24.902,0.000
1673806257.487,-32.715,-20.508,-24.902,-33.203,0.000
1673806257.490,-37.109,-21.973,-29.785,-41.504,0.000
1673806257.494,-27.832,-19.531,-21.973,-31.250,0.000
1673806257.498,-34.668,-15.625,-22.949,-28.809,0.000
1673806257.502,-36.133,-16.113,-28.809,-38.086,0.000
1673806257.506,-30.762,-24.414,-30.273,-34.668,0.000
1673806257.510,-31.738,-28.809,-28.320,-18.555,0.000
1673806257.514,-36.133,-30.762,-25.879,-23.438,0.000
1673806257.518,-37.109,-37.598,-23.926,-27.344,0.000
1673806257.522,-26.367,-36.621,-16.113,-16.113,0.000
1673806257.526,-33.203,-35.156,-12.695,-9.277,0.000
1673806257.529,-44.922,-38.086,-11.719,-6.836,0.000
1673806257.533,-44.922,-26.367,-24.902,-16.602,0.000
1673806257.537,-41.992,-25.391,-34.180,-22.949,0.000
1673806257.541,-36.133,-23.438,-20.996,-13.184,0.000
1673806257.545,-32.227,-25.391,-18.555,-10.742,0.000
1673806257.549,-33.691,-24.902,-27.832,-16.113,0.000
1673806257.553,-33.203,-13.672,-24.902,-13.672,0.000
1673806257.557,-34.180,-16.113,-22.949,-16.602,0.000
1673806257.561,-35.156,-19.043,-26.855,-17.090,0.000
1673806257.565,-37.109,-25.879,-25.879,-18.555,0.000
1673806257.569,-37.598,-26.855,-28.809,-27.344,0.000
1673806257.572,-31.250,-17.578,-30.762,-29.785,0.000
1673806257.576,-27.832,-24.414,-29.297,-16.602,0.000
1673806257.580,-38.086,-22.461,-29.297,-7.812,0.000
1673806257.584,-38.086,-19.531,-28.320,-12.207,0.000
1673806257.588,-39.551,-29.297,-23.926,-19.531,0.000
1673806257.592,-32.715,-27.344,-19.531,-16.113,0.000
1673806257.596,-29.785,-14.648,-24.902,-13.672,0.000
1673806257.600,-32.715,-15.625,-36.133,-26.367,0.000
1673806257.604,-35.645,-20.020,-44.922,-35.645,0.000
1673806257.608,-36.133,-29.297,-36.621,-36.621,0.000
1673806257.611,-30.273,-30.762,-17.578,-34.668,0.000
1673806257.615,-34.180,-23.438,-14.160,-30.273,0.000
1673806257.619,-30.762,-20.996,-17.578,-28.809,0.000
1673806257.623,-25.879,-16.113,-18.555,-23.438,0.000
1673806257.627,-27.344,-22.461,-29.297,-13.184,0.000
1673806257.631,-37.109,-29.785,-32.227,-19.531,0.000
1673806257.635,-45.898,-32.227,-28.809,-32.227,0.000
1673806257.639,-38.086,-41.504,-28.320,-18.555,0.000
1673806257.643,-43.945,-35.156,-28.809,-16.602,0.000
1673806257.647,-54.688,-29.297,-30.273,-30.273,0.000
1673806257.651,-49.316,-28.809,-30.273,-28.320,0.000
1673806257.654,-48.340,-31.250,-31.738,-23.926,0.000
1673806257.658,-44.922,-31.738,-31.250,-20.508,0.000
1673806257.662,-39.062,-20.020,-26.855,-16.113,0.000
1673806257.666,-40.039,-11.230,-25.879,-19.043,0.000
1673806257.670,-31.738,-14.648,-26.855,-20.020,0.000
1673806257.674,-24.902,-17.578,-32.715,-18.555,0.000
1673806257.678,-32.715,-28.809,-31.738,-16.602,0.000
1673806257.682,-31.738,-40.039,-23.438,-15.137,0.000
1673806257.686,-22.949,-30.273,-22.949,-18.066,0.000
1673806257.690,-26.367,-22.461,-20.996,-26.367,0.000
1673806257.694,-27.344,-18.555,-23.926,-17.578,0.000
1673806257.697,-17.090,-20.020,-26.855,-8.789,0.000
1673806257.701,-9.277,-23.926,-26.367,-10.742,0.000
1673806257.705,-15.137,-31.250,-25.879,-12.695,0.000
1673806257.709,-21.484,-34.668,-31.738,-18.555,0.000
1673806257.713,-21.484,-22.461,-37.109,-24.414,0.000
1673806257.717,-24.902,-19.531,-33.203,-20.020,0.000
1673806257.721,-19.043,-15.137,-29.785,-13.672,0.000
1673806257.725,-13.672,-13.672,-26.367,-15.625,0.000
1673806257.729,-17.578,-21.484,-21.973,-13.184,0.000
1673806257.733,-22.461,-30.273,-20.020,-20.020,0.000
1673806257.736,-27.344,-31.738,-26.855,-32.715,0.000
1673806257.740,-29.297,-24.414,-28.809,-31.738,0.000
1673806257.744,-37.109,-25.391,-24.902,-29.785,0.000
1673806257.748,-44.922,-24.902,-27.344,-37.109,0.000
1673806257.752,-40.039,-22.949,-28.809,-31.738,0.000
1673806257.756,-37.598,-21.973,-26.855,-20.996,0.000
1673806257.760,-41.504,-20.508,-29.785,-9.766,0.000
1673806257.764,-45.898,-25.391,-34.180,-11.230,0.000
1673806257.768,-45.410,-23.438,-25.879,-23.438,0.000
1673806257.772,-40.039,-18.555,-24.414,-22.461,0.000
1673806257.776,-44.434,-24.902,-21.484,-16.113,0.000
1673806257.779,-45.898,-28.809,-21.484,-20.508,0.000
1673806257.783,-36.621,-28.809,-22.461,-21.973,0.000
1673806257.787,-32.227,-29.297,-22.461,-28.320,0.000
1673806257.791,-36.621,-31.250,-27.832,-32.227,0.000
1673806257.795,-34.180,-26.855,-22.949,-18.066,0.000
1673806257.799,-30.273,-19.531,-20.508,-9.277,0.000
1673806257.803,-27.832,-12.207,-23.926,-17.578,0.000
1673806257.807,-24.414,-20.020,-37.109,-27.344,0.000
1673806257.811,-27.832,-31.738,-36.133,-29.297,0.000
1673806257.815,-35.156,-25.391,-14.648,-29.785,0.000
1673806257.819,-38.574,-18.555,-7.812,-34.180,0.000
1673806257.822,-30.273,-20.508,-10.742,-31.738,0.000
1673806257.826,-34.180,-26.855,-17.090,-23.438,0.000
1673806257.830,-32.227,-22.949,-15.625,-18.555,0.000
1673806257.834,-26.855,-20.020,-13.184,-18.555,0.000
1673806257.838,-36.621,-29.297,-22.461,-21.973,0.000
1673806257.842,-32.715,-24.902,-32.715,-22.461,0.000
1673806257.846,-24.902,-8.301,-23.926,-18.066,0.000
1673806257.850,-27.832,-8.789,-14.160,-21.484,0.000
1673806257.854,-26.367,-18.066,-16.113,-26.367,0.000
1673806257.858,-24.414,-24.414,-17.090,-26.855,0.000
1673806257.861,-25.391,-23.438,-20.020,-27.832,0.000
1673806257.865,-27.832,-23.926,-21.484,-22.461,0.000
1673806257.869,-37.109,-30.762,-25.391,-24.902,0.000
1673806257.873,-35.645,-27.832,-30.762,-19.531,0.000
1673806257.877,-29.297,-21.484,-24.902,-15.137,0.000
1673806257.881,-23.926,-12.207,-25.391,-13.184,0.000
1673806257.885,-26.855,-15.625,-23.926,-14.648,0.000
1673806257.889,-28.809,-21.484,-14.160,-22.949,0.000
1673806257.893,-18.555,-16.602,-6.348,-14.160,0.000
1673806257.897,-21.973,-20.996,-8.301,-12.207,0.000
1673806257.901,-22.949,-26.367,-17.090,-20.996,0.000
1673806257.904,-23.926,-16.113,-17.090,-29.297,0.000
1673806257.908,-38.086,-13.672,-13.184,-22.949,0.000
1673806257.912,-41.992,-25.879,-11.719,-13.672,0.000
1673806257.916,-37.598,-25.391,-17.090,-24.902,0.000
1673806257.920,-34.668,-16.602,-20.996,-26.855,0.000
1673806257.924,-36.621,-17.090,-19.531,-24.902,0.000
1673806257.928,-39.062,-20.020,-16.113,-31.250,0.000
1673806257.932,-36.133,-20.508,-13.672,-21.973,0.000
1673806257.936,-28.320,-20.020,-15.625,-13.672,0.000
1673806257.940,-17.578,-22.949,-15.137,-25.879,0.000
1673806257.944,-16.602,-35.156,-18.066,-37.109,0.000
1673806257.947,-30.273,-37.109,-21.973,-47.852,0.000
1673806257.951,-22.949,-21.484,-22.949,-43.945,0.000
1673806257.955,-11.230,-18.066,-23.438,-35.156,0.000
1673806257.959,-25.879,-22.949,-29.785,-39.551,0.000
1673806257.963,-21.484,-27.832,-34.180,-34.668,0.000
1673806257.967,-8.301,-27.832,-25.391,-24.902,0.000
1673806257.971,-10.254,-20.996,-26.367,-38.086,0.000
1673806257.975,-12.207,-21.973,-33.203,-38.574,0.000
1673806257.979,-16.113,-29.297,-23.926,-23.438,0.000
1673806257.983,-24.414,-30.273,-17.578,-20.020,0.000
1673806257.986,-22.461,-27.832,-26.367,-19.043,0.000
1673806257.990,-18.066,-28.809,-25.391,-15.625,0.000
1673806257.994,-20.020,-26.855,-23.438,-13.672,0.000
1673806257.998,-21.484,-21.484,-17.090,-7.812,0.000
1673806258.002,-28.320,-21.484,-14.160,-15.625,0.000
1673806258.006,-31.250,-22.461,-20.996,-26.855,0.000
1673806258.010,-30.273,-30.273,-22.949,-23.926,0.000
1673806258.014,-25.391,-32.227,-20.508,-19.043,0.000
1673806258.018,-20.996,-34.668,-19.043,-18.555,0.000
1673806258.022,-23.926,-32.227,-20.996,-22.461,0.000
1673806258.026,-27.344,-19.531,-26.367,-16.602,0.000
1673806258.029,-23.926,-15.137,-20.020,-2.441,0.000
1673806258.033,-24.414,-12.695,-16.602,-7.324,0.000
1673806258.037,-24.414,-9.277,-13.184,-16.113,0.000
1673806258.041,-20.508,-11.719,-16.113,-19.531,0.000
1673806258.045,-19.043,-21.973,-22.461,-16.602,0.000
1673806258.049,-22.949,-23.926,-18.555,-19.043,0.000
1673806258.053,-29.785,-16.113,-7.812,-22.461,0.000
1673806258.057,-36.133,-14.648,-3.418,-30.273,0.000
1673806258.061,-41.992,-2.441,0.977,-25.879,0.000
1673806258.065,-37.598,-0.977,1.465,-20.508,0.000
1673806258.069,-31.738,-5.859,-0.977,-16.113,0.000
1673806258.072,-25.879,2.441,0.000,-6.348,0.000
1673806258.076,-19.043,-0.488,0.000,-5.371,0.000
1673806258.080,-18.066,-3.418,5.371,-4.883,0.000
1673806258.084,-19.531,8.301,8.789,0.977,0.000
1673806258.088,-19.531,9.766,9.766,8.789,0.000
1673806258.092,-20.508,2.441,6.836,4.395,0.000
1673806258.096,-17.578,0.000,-1.953,3.906,0.000
1673806258.100,-17.090,3.418,-4.395,3.906,0.000
1673806258.104,-9.277,8.789,5.371,6.836,0.000
1673806258.108,0.977,9.766,6.836,5.371,0.000
1673806258.111,-5.859,8.301,0.488,-8.789,0.000
1673806258.115,-6.348,-2.441,-5.859,-3.906,0.000
1673806258.119,-2.441,-13.672,-12.695,-2.930,0.000
1673806258.123,-12.695,-0.488,-9.766,-17.090,0.000
1673806258.127,-17.090,5.859,-9.277,-16.602,0.000
1673806258.131,-19.531,-0.977,-13.184,-13.672,0.000
1673806258.135,-20.996,-2.930,-15.137,-21.484,0.000
1673806258.139,-15.625,-10.254,-13.184,-16.602,0.000
1673806258.143,-11.719,-14.648,-13.672,-9.277,0.000
1673806258.147,-15.137,-10.742,-23.926,-13.672,0.000
1673806258.151,-16.602,-5.859,-22.949,-8.789,0.000
1673806258.154,-10.742,-2.930,-20.996,-9.277,0.000
1673806258.158,-13.184,-1.953,-14.160,-15.137,0.000
1673806258.162,-21.484,-10.254,-0.977,-22.461,0.000
1673806258.166,-22.949,-16.113,-1.465,-17.578,0.000
1673806258.170,-26.855,-11.230,-5.859,-8.301,0.000
1673806258.174,-25.391,-13.672,-6.348,-3.418,0.000
1673806258.178,-16.113,-18.066,-5.371,-9.277,0.000
1673806258.182,-20.996,-19.531,-8.789,-12.207,0.000
1673806258.186,-26.367,-22.461,-19.043,-0.488,0.000
1673806258.190,-27.344,-22.949,-22.461,-6.836,0.000
1673806258.194,-28.320,-11.230,-9.277,-12.207,0.000
1673806258.197,-22.461,-4.883,-4.883,-12.695,0.000
1673806258.201,-24.414,-17.090,-13.672,-20.996,0.000
1673806258.205,-29.785,-23.438,-11.719,-19.531,0.000
1673806258.209,-22.461,-19.531,-7.812,-19.531,0.000
1673806258.213,-20.996,-13.672,-10.254,-21.484,0.000
1673806258.217,-29.297,-12.207,-14.648,-20.020,0.000
1673806258.221,-36.133,-9.766,-13.672,-30.273,0.000
1673806258.225,-38.086,-11.719,-12.207,-36.133,0.000
1673806258.229,-38.574,-22.949,-14.160,-28.320,0.000
1673806258.233,-33.203,-20.996,-17.578,-20.996,0.000
1673806258.236,-36.133,-13.672,-14.648,-19.043,0.000
1673806258.240,-40.039,-20.508,-8.301,-24.414,0.000
1673806258.244,-31.250,-20.020,-9.766,-18.555,0.000
1673806258.248,-33.203,-17.578,-21.973,-10.742,0.000
1673806258.252,-32.227,-20.020,-16.602,-3.418,0.000
1673806258.256,-32.715,-29.785,-4.395,5.859,0.000
1673806258.260,-23.438,-32.715,-11.719,0.000,0.000
1673806258.264,-15.625,-12.207,-16.602,-0.977,0.000
1673806258.268,-35.156,-9.277,-18.555,-0.488,0.000
1673806258.272,-38.086,-26.367,-21.973,-7.812,0.000
1673806258.276,-23.926,-32.227,-27.832,-3.906,0.000
1673806258.279,-24.414,-20.020,-28.809,-5.859,0.000
1673806258.283,-33.203,-13.672,-19.531,-15.625,0.000
1673806258.287,-32.715,-13.672,-14.648,-9.277,0.000
1673806258.291,-20.508,-10.254,-14.648,-11.230,0.000
1673806258.295,-14.648,-10.742,-19.043,-22.949,0.000
1673806258.299,-17.578,-17.578,-21.973,-23.438,0.000
1673806258.303,-26.367,-18.555,-21.484,-14.648,0.000
1673806258.307,-27.344,-15.625,-18.555,-5.371,0.000
1673806258.311,-26.367,-15.137,-18.555,-15.625,0.000
1673806258.315,-27.832,-20.020,-28.809,-29.297,0.000
1673806258.319,-23.926,-25.879,-31.738,-23.926,0.000
1673806258.322,-29.297,-28.320,-24.902,-26.367,0.000
1673806258.326,-35.645,-31.250,-31.738,-32.715,0.000
1673806258.330,-29.297,-26.367,-32.715,-28.320,0.000
1673806258.334,-33.203,-15.625,-26.855,-23.438,0.000
1673806258.338,-33.691,-18.555,-20.996,-17.578,0.000
1673806258.342,-29.297,-32.715,-23.438,-26.855,0.000
1673806258.346,-30.762,-33.203,-28.320,-29.297,0.000
1673806258.350,-27.832,-24.902,-18.555,-19.531,0.000
1673806258.354,-23.438,-27.832,-20.996,-20.996,0.000
1673806258.358,-16.602,-25.391,-17.090,-20.020,0.000
1673806258.361,-15.625,-25.391,-13.672,-18.555,0.000
1673806258.365,-18.066,-25.879,-24.414,-12.207,0.000
1673806258.369,-19.531,-13.672,-20.508,-11.230,0.000
1673806258.373,-13.184,-21.484,-20.508,-25.391,0.000
1673806258.377,-3.418,-26.367,-23.926,-32.227,0.000
1673806258.381,-5.859,-17.578,-15.625,-22.461,0.000
1673806258.385,-16.602,-18.555,-9.766,-16.602,0.000
1673806258.389,-20.020,-21.973,-16.113,-17.090,0.000
1673806258.393,-16.113,-29.785,-22.461,-25.391,0.000
1673806258.397,-19.531,-30.273,-13.184,-24.902,0.000
1673806258.401,-19.531,-21.484,-11.230,-13.672,0.000
1673806258.404,-17.578,-19.043,-15.625,-15.625,0.000
1673806258.408,-20.996,-15.625,-19.043,-20.508,0.000
1673806258.412,-23.926,-14.648,-20.020,-25.879,0.000
1673806258.416,-26.367,-24.902,-22.949,-30.273,0.000
1673806258.420,-32.227,-25.879,-23.926,-32.715,0.000
1673806258.424,-38.574,-23.438,-29.297,-35.645,0.000
1673806258.428,-41.016,-25.391,-25.879,-32.227,0.000
1673806258.432,-45.410,-25.879,-18.555,-28.809,0.000
1673806258.436,-49.316,-29.297,-21.973,-30.273,0.000
1673806258.440,-42.969,-32.715,-21.484,-29.297,0.000
1673806258.444,-41.016,-26.855,-20.996,-25.879,0.000
1673806258.447,-39.551,-18.066,-20.996,-20.996,0.000
1673806258.451,-28.320,-12.695,-13.672,-11.230,0.000
1673806258.455,-25.879,-13.672,-5.859,-14.648,0.000
1673806258.459,-26.855,-17.090,-10.742,-27.344,0.000
1673806258.463,-29.297,-19.531,-18.066,-29.297,0.000
1673806258.467,-32.227,-27.344,-21.973,-32.715,0.000
1673806258.471,-29.297,-25.391,-20.020,-29.785,0.000
1673806258.475,-24.414,-20.020,-22.461,-31.250,0.000
1673806258.479,-27.832,-28.809,-29.785,-42.969,0.000
1673806258.483,-30.273,-29.297,-24.414,-36.133,0.000
1673806258.486,-24.902,-28.809,-19.531,-34.668,0.000
1673806258.490,-34.668,-29.785,-23.438,-48.340,0.000
1673806258.494,-43.457,-21.973,-30.273,-49.316,0.000
1673806258.498,-38.574,-18.066,-33.203,-40.039,0.000
1673806258.502,-48.340,-25.391,-37.598,-45.410,0.000
1673806258.506,-49.805,-28.809,-33.691,-49.316,0.000
1673806258.510,-42.969,-29.785,-21.973,-44.434,0.000
1673806258.514,-54.688,-31.738,-23.438,-42.480,0.000
1673806258.518,-58.594,-33.691,-24.902,-46.387,0.000
1673806258.522,-58.105,-34.668,-26.367,-50.293,0.000
1673806258.526,-57.617,-27.344,-30.273,-49.805,0.000
1673806258.529,-50.781,-26.367,-25.391,-44.434,0.000
1673806258.533,-50.293,-28.320,-24.414,-45.410,0.000
1673806258.537,-48.340,-32.715,-34.180,-42.480,0.000
1673806258.541,-37.598,-36.621,-42.969,-35.156,0.000
1673806258.545,-32.715,-30.273,-40.527,-31.738,0.000
1673806258.549,-36.621,-29.785,-21.973,-25.391,0.000
1673806258.553,-36.621,-25.879,-12.207,-22.949,0.000
1673806258.557,-36.621,-25.879,-20.508,-27.832,0.000
1673806258.561,-35.645,-28.809,-21.973,-33.203,0.000
1673806258.565,-34.180,-27.344,-24.414,-27.832,0.000
1673806258.569,-26.855,-24.414,-26.367,-16.113,0.000
1673806258.572,-21.484,-20.508,-24.902,-14.160,0.000
1673806258.576,-17.090,-26.855,-25.391,-20.020,0.000
1673806258.580,-12.695,-24.414,-30.762,-21.484,0.000
1673806258.584,-14.160,-10.742,-27.344,-15.625,0.000
1673806258.588,-14.648,-10.254,-21.973,-16.113,0.000
1673806258.592,-18.066,-16.602,-25.879,-21.973,0.000
1673806258.596,-19.043,-17.578,-28.809,-24.414,0.000
1673806258.600,-16.113,-14.160,-26.855,-23.926,0.000
1673806258.604,-15.137,-17.578,-20.508,-16.113,0.000
1673806258.608,-18.555,-17.090,-16.602,-22.461,0.000
1673806258.611,-28.809,-13.672,-21.484,-30.273,0.000
1673806258.615,-30.762,-15.625,-32.715,-28.320,0.000
1673806258.619,-25.879,-12.695,-32.227,-27.832,0.000
1673806258.623,-34.180,-10.742,-26.367,-41.016,0.000
1673806258.627,-41.504,-20.508,-29.297,-45.898,0.000
1673806258.631,-38.574,-22.949,-29.785,-36.621,0.000
1673806258.635,-38.574,-16.113,-25.391,-34.668,0.000
1673806258.639,-40.527,-18.555,-26.855,-25.391,0.000
1673806258.643,-39.062,-20.508,-38.086,-22.949,0.000
1673806258.647,-34.180,-16.602,-29.297,-27.832,0.000
1673806258.651,-36.133,-23.926,-29.297,-27.832,0.000
1673806258.654,-40.039,-30.762,-35.156,-35.645,0.000
1673806258.658,-40.527,-26.367,-34.668,-45.898,0.000
1673806258.662,-44.922,-20.508,-31.250,-44.922,0.000
1673806258.666,-42.480,-16.602,-18.555,-35.156,0.000
1673806258.670,-40.527,-16.602,-22.949,-29.785,0.000
1673806258.674,-41.992,-21.484,-28.320,-34.180,0.000
1673806258.678,-30.273,-24.902,-24.902,-41.504,0.000
1673806258.682,-26.367,-20.508,-20.508,-33.691,0.000
1673806258.686,-36.133,-27.344,-19.043,-27.344,0.000
1673806258.690,-30.762,-28.320,-20.508,-31.250,0.000
1673806258.694,-17.090,-21.484,-26.367,-28.809,0.000
1673806258.697,-11.230,-20.508,-27.832,-20.020,0.000
1673806258.701,-16.113,-33.691,-21.484,-13.672,0.000
1673806258.705,-22.461,-33.691,-19.531,-12.207,0.000
1673806258.709,-22.949,-20.996,-20.996,-11.230,0.000
1673806258.713,-19.043,-19.043,-20.020,-13.184,0.000
1673806258.717,-19.043,-23.926,-17.090,-13.184,0.000
1673806258.721,-8.301,-22.949,-18.555,-6.836,0.000
1673806258.725,7.324,-16.113,-20.996,-4.883,0.000
1673806258.729,3.418,-17.090,-23.438,-14.160,0.000
1673806258.733,-13.672,-23.926,-25.391,-11.719,0.000
1673806258.736,-19.531,-24.414,-21.484,-4.395,0.000
1673806258.740,-19.043,-23.926,-18.555,-18.066,0.000
1673806258.744,-21.973,-24.414,-22.949,-29.297,0.000
1673806258.748,-20.996,-30.762,-33.691,-23.438,0.000
1673806258.752,-24.902,-31.738,-32.715,-16.113,0.000
1673806258.756,-27.344,-22.949,-25.391,-18.555,0.000
1673806258.760,-28.809,-25.879,-27.344,-33.691,0.000
1673806258.764,-32.227,-26.855,-29.297,-36.133,0.000
1673806258.768,-30.273,-24.902,-31.250,-26.367,0.000
1673806258.772,-29.297,-29.785,-28.809,-17.090,0.000
1673806258.776,-35.156,-29.297,-25.391,-22.949,0.000
1673806258.779,-36.621,-28.809,-24.902,-26.367,0.000
1673806258.783,-33.691,-30.762,-21.973,-20.508,0.000
1673806258.787,-29.297,-23.926,-18.066,-18.066,0.000
1673806258.791,-30.762,-21.973,-14.160,-18.555,0.000
1673806258.795,-32.227,-27.832,-19.043,-22.461,0.000
1673806258.799,-27.344,-23.926,-22.949,-17.578,0.000
1673806258.803,-33.691,-19.043,-23.438,-9.766,0.000
1673806258.807,-34.180,-24.902,-24.902,-15.625,0.000
1673806258.811,-29.297,-24.414,-24.902,-17.578,0.000
1673806258.815,-26.855,-13.672,-21.973,-15.137,0.000
1673806258.819,-28.320,-18.555,-20.508,-15.625,0.000
1673806258.822,-34.180,-28.320,-21.973,-13.672,0.000
1673806258.826,-40.039,-26.855,-21.973,-22.949,0.000
1673806258.830,-42.480,-22.949,-22.461,-29.297,0.000
1673806258.834,-37.598,-21.973,-28.809,-25.391,0.000
1673806258.838,-38.086,-23.438,-28.809,-25.879,0.000
1673806258.842,-38.086,-29.785,-25.879,-32.227,0.000
1673806258.846,-37.598,-33.691,-25.391,-35.645,0.000
1673806258.850,-42.969,-36.621,-29.785,-38.086,0.000
1673806258.854,-50.781,-34.668,-30.762,-39.062,0.000
1673806258.858,-51.270,-28.809,-26.367,-41.016,0.000
1673806258.861,-41.016,-33.691,-28.320,-44.922,0.000
1673806258.865,-46.387,-37.109,-44.922,-44.922,0.000
1673806258.869,-51.758,-30.273,-41.992,-39.551,0.000
1673806258.873,-38.086,-35.156,-20.508,-35.156,0.000
1673806258.877,-41.992,-35.645,-20.996,-39.062,0.000
1673806258.881,-49.316,-31.738,-24.902,-37.598,0.000
1673806258.885,-42.480,-32.715,-24.902,-32.227,0.000
1673806258.889,-37.598,-27.344,-24.414,-25.391,0.000
1673806258.893,-36.621,-28.809,-25.391,-28.809,0.000
1673806258.897,-36.621,-33.691,-28.320,-33.691,0.000
1673806258.901,-32.227,-31.738,-27.832,-23.926,0.000
1673806258.904,-29.785,-23.926,-25.879,-18.555,0.000
1673806258.908,-37.598,-25.879,-22.461,-22.949,0.000
1673806258.912,-37.109,-33.203,-21.973,-21.484,0.000
1673806258.916,-25.879,-24.902,-17.578,-7.812,0.000
1673806258.920,-20.020,-12.207,-17.578,-3.418,0.000
1673806258.924,-13.672,-13.672,-24.902,-10.742,0.000
1673806258.928,-3.906,-15.625,-21.484,-15.625,0.000
1673806258.932,-7.324,-8.301,-13.184,-15.137,0.000
1673806258.936,-13.184,-14.160,-14.160,-17.090,0.000
1673806258.940,-18.066,-31.738,-25.391,-20.508,0.000
1673806258.944,-23.926,-32.715,-27.832,-27.832,0.000
1673806258.947,-28.320,-27.832,-19.531,-29.785,0.000
1673806258.951,-22.949,-28.809,-16.602,-14.648,0.000
1673806258.955,-22.949,-24.902,-20.020,-23.438,0.000
1673806258.959,-28.320,-23.438,-22.949,-34.180,0.000
1673806258.963,-25.391,-28.809,-25.391,-31.250,0.000
1673806258.967,-19.043,-20.020,-24.414,-30.273,0.000
1673806258.971,-15.625,-13.672,-24.414,-24.902,0.000
1673806258.975,-15.625,-7.324,-30.273,-19.043,0.000
1673806258.979,-15.625,-9.766,-31.250,-20.020,0.000
1673806258.983,-20.508,-28.320,-27.832,-18.555,0.000
1673806258.986,-20.508,-33.691,-23.926,-18.066,0.000
1673806258.990,-19.531,-31.738,-24.414,-22.949,0.000
1673806258.994,-18.555,-25.391,-26.367,-21.484,0.000
1673806258.998,-15.625,-18.555,-27.344,-14.648,0.000
1673806259.002,-18.066,-21.973,-22.949,-13.184,0.000
1673806259.006,-17.090,-27.832,-15.625,-14.160,0.000
1673806259.010,-20.020,-26.855,-20.508,-27.832,0.000
1673806259.014,-20.508,-20.996,-22.949,-30.273,0.000
1673806259.018,-17.090,-28.320,-20.996,-20.508,0.000
1673806259.022,-18.555,-34.180,-22.949,-20.020,0.000
1673806259.026,-22.949,-24.414,-21.973,-20.508,0.000
1673806259.029,-34.180,-34.180,-32.715,-27.344,0.000
1673806259.033,-39.551,-50.293,-36.621,-25.879,0.000
1673806259.037,-33.203,-40.039,-31.250,-27.344,0.000
1673806259.041,-33.691,-32.227,-35.645,-37.598,0.000
1673806259.045,-30.762,-28.320,-36.133,-41.504,0.000
1673806259.049,-25.879,-27.832,-31.738,-31.738,0.000
1673806259.053,-27.344,-34.180,-33.203,-26.367,0.000
1673806259.057,-28.809,-29.785,-38.574,-40.039,0.000
1673806259.061,-23.438,-22.461,-38.574,-29.785,0.000
1673806259.065,-15.625,-19.043,-31.250,-23.438,0.000
1673806259.069,-9.766,-23.926,-26.367,-33.691,0.000
1673806259.072,-14.648,-28.809,-33.691,-28.809,0.000
1673806259.076,-20.996,-28.320,-42.480,-29.785,0.000
1673806259.080,-18.066,-25.879,-37.109,-34.668,0.000
1673806259.084,-16.602,-22.461,-27.832,-28.320,0.000
1673806259.088,-17.578,-20.996,-24.414,-27.344,0.000
1673806259.092,-20.508,-27.344,-29.297,-33.203,0.000
1673806259.096,-18.066,-23.438,-30.762,-23.438,0.000
1673806259.100,-16.113,-20.020,-24.414,-14.160,0.000
1673806259.104,-17.578,-33.691,-24.414,-10.742,0.000
1673806259.108,-19.531,-37.598,-25.879,-11.230,0.000
1673806259.111,-21.973,-34.180,-23.926,-11.230,0.000
1673806259.115,-24.902,-21.973,-23.438,-8.301,0.000
1673806259.119,-30.273,-11.230,-31.738,-11.719,0.000
1673806259.123,-33.691,-13.672,-31.250,-19.531,0.000
1673806259.127,-29.785,-22.461,-24.414,-18.066,0.000
1673806259.131,-24.902,-26.367,-19.043,-6.348,0.000
1673806259.135,-20.508,-17.578,-11.719,0.977,0.000
1673806259.139,-16.602,-11.230,-15.625,-4.395,0.000
1673806259.143,-10.742,-8.301,-17.090,-9.277,0.000
1673806259.147,-10.742,-3.418,-12.695,-16.113,0.000
1673806259.151,-21.973,-20.508,-22.461,-22.949,0.000
1673806259.154,-33.691,-28.320,-30.762,-20.508,0.000
1673806259.158,-34.668,-11.230,-30.273,-25.391,0.000
1673806259.162,-31.250,-13.184,-26.855,-23.926,0.000
1673806259.166,-19.531,-15.625,-31.738,-23.438,0.000
1673806259.170,-23.438,-25.879,-37.109,-31.738,0.000
1673806259.174,-31.738,-34.180,-28.320,-23.926,0.000
1673806259.178,-31.738,-22.949,-24.414,-22.461,0.000
1673806259.182,-37.598,-20.508,-23.926,-31.250,0.000
1673806259.186,-37.109,-22.461,-23.438,-31.738,0.000
1673806259.190,-29.785,-15.137,-23.438,-21.484,0.000
1673806259.194,-31.250,-16.602,-24.414,-22.461,0.000
1673806259.197,-28.320,-31.738,-25.879,-26.855,0.000
1673806259.201,-14.648,-25.879,-21.973,-22.461,0.000
1673806259.205,-16.602,-11.719,-20.996,-17.090,0.000
1673806259.209,-23.926,-13.672,-22.461,-21.973,0.000
1673806259.213,-25.879,-24.902,-19.043,-23.438,0.000
1673806259.217,-31.250,-26.367,-20.020,-20.508,0.000
1673806259.221,-40.527,-24.902,-21.484,-22.461,0.000
1673806259.225,-34.180,-27.832,-20.020,-41.016,0.000
1673806259.229,-21.484,-27.832,-20.508,-43.457,0.000
1673806259.233,-18.555,-21.484,-32.227,-20.996,0.000
1673806259.236,-21.484,-17.578,-25.879,-14.648,0.000
1673806259.240,-22.949,-14.648,-10.742,-16.602,0.000
1673806259.244,-18.066,-12.207,-14.160,-20.020,0.000
1673806259.248,-21.973,-9.766,-15.137,-15.137,0.000
1673806259.252,-31.738,-9.766,-13.184,-6.836,0.000
1673806259.256,-34.668,-9.277,-15.137,-8.301,0.000
1673806259.260,-30.762,-12.207,-13.184,-6.836,0.000
1673806259.264,-30.762,-15.625,-13.672,-0.977,0.000
1673806259.268,-34.180,-16.602,-15.137,6.348,0.000
1673806259.272,-35.645,-30.273,-23.438,0.000,0.000
1673806259.276,-28.809,-31.738,-21.484,1.465,0.000
1673806259.279,-24.902,-24.902,-2.441,7.324,0.000
1673806259.283,-25.391,-22.461,3.906,4.395,0.000
1673806259.287,-23.926,-8.789,0.488,7.812,0.000
1673806259.291,-22.949,-1.465,-1.953,4.395,0.000
1673806259.295,-25.879,-1.465,-1.465,-11.719,0.000
1673806259.299,-26.367,-5.859,-0.977,-12.207,0.000
1673806259.303,-29.297,-8.301,-4.883,-2.930,0.000
1673806259.307,-24.902,-1.953,-5.371,-8.301,0.000
1673806259.311,-13.672,0.977,-3.906,-12.207,0.000
1673806259.315,-14.648,1.953,-8.789,-14.648,0.000
1673806259.319,-20.508,-1.953,-14.648,-14.648,0.000
1673806259.322,-20.508,-2.441,-8.301,-8.789,0.000
