timestamp,TP9,AF7,AF8,TP10,Right AUX
0.000,-26.367,-25.391,-29.785,-14.160,0.000
4.000,-26.367,-25.391,-33.203,-8.301,0.000
8.000,-33.203,-26.855,-33.691,-3.418,0.000
12.000,-29.297,-30.762,-33.691,-2.930,0.000
16.000,-23.926,-36.133,-34.668,-7.324,0.000
20.000,-24.902,-34.668,-31.250,-17.578,0.000
23.000,-20.996,-33.691,-33.203,-24.414,0.000
27.000,-19.043,-37.109,-32.715,-18.066,0.000
31.000,-20.996,-40.527,-31.250,-11.230,0.000
35.000,-20.020,-41.504,-36.621,-11.719,0.000
39.000,-33.203,-38.086,-33.203,-11.719,0.000
43.000,-43.457,-36.621,-36.133,-11.719,0.000
47.000,-31.250,-36.133,-35.645,-19.043,0.000
51.000,-7.812,-32.227,-30.762,-5.859,0.000
55.000,-4.883,-30.273,-28.809,8.301,0.000
59.000,-22.949,-38.086,-27.344,-22.461,0.000
62.000,-27.344,-46.387,-32.715,-52.734,0.000
66.000,-38.086,-44.434,-35.645,-65.918,0.000
70.000,-90.820,-41.992,-31.250,-69.824,0.000
74.000,-125.488,-53.711,-34.180,-81.543,0.000
78.000,-125.000,-62.500,-40.527,-100.098,0.000
82.000,-120.605,-54.199,-37.598,-109.375,0.000
86.000,-116.211,-47.363,-39.062,-135.254,0.000
90.000,-126.465,-52.734,-48.340,-154.297,0.000
94.000,-156.250,-60.059,-52.734,-157.715,0.000
98.000,-166.992,-61.523,-47.852,-154.297,0.000
102.000,-164.062,-77.148,-38.086,-153.320,0.000
105.000,-161.621,-72.754,-43.457,-157.715,0.000
109.000,-159.180,-60.059,-51.758,-163.086,0.000
113.000,-166.992,-59.082,-53.711,-155.273,0.000
117.000,-158.203,-63.477,-47.363,-132.324,0.000
121.000,-151.855,-70.801,-42.969,-133.789,0.000
125.000,-161.133,-67.871,-39.062,-133.301,0.000
129.000,-145.996,-64.453,-26.855,-116.211,0.000
133.000,-125.977,-60.547,-40.039,-117.188,0.000
137.000,-123.047,-58.594,-45.898,-124.023,0.000
141.000,-120.605,-63.477,-29.785,-118.652,0.000
145.000,-123.535,-63.965,-26.855,-106.934,0.000
148.000,-121.094,-58.594,-29.785,-103.027,0.000
152.000,-116.699,-55.176,-28.809,-100.586,0.000
156.000,-95.215,-49.316,-27.832,-84.473,0.000
160.000,-72.266,-49.805,-33.203,-78.125,0.000
164.000,-71.777,-44.434,-35.645,-77.148,0.000
168.000,-73.242,-42.969,-35.645,-68.359,0.000
172.000,-63.965,-42.969,-34.668,-60.059,0.000
176.000,-48.340,-35.156,-33.203,-48.340,0.000
180.000,-54.688,-38.574,-34.668,-41.504,0.000
184.000,-59.082,-42.969,-37.109,-53.711,0.000
188.000,-48.340,-41.016,-33.203,-60.059,0.000
191.000,-41.016,-41.504,-28.320,-50.293,0.000
195.000,-44.922,-37.598,-29.785,-44.434,0.000
199.000,-53.223,-40.039,-30.762,-53.223,0.000
203.000,-58.105,-42.480,-32.227,-51.758,0.000
207.000,-55.176,-38.574,-35.645,-43.457,0.000
211.000,-39.551,-41.992,-37.598,-32.715,0.000
215.000,-42.480,-38.574,-34.180,-25.879,0.000
219.000,-55.176,-32.227,-27.344,-31.738,0.000
223.000,-44.922,-37.109,-30.762,-26.855,0.000
227.000,-41.992,-35.645,-32.715,-21.484,0.000
230.000,-44.434,-35.156,-30.762,-26.855,0.000
234.000,-51.758,-37.598,-31.738,-30.273,0.000
238.000,-51.270,-34.180,-31.738,-29.785,0.000
242.000,-48.828,-32.227,-31.738,-20.996,0.000
246.000,-37.598,-28.809,-35.156,-16.602,0.000
250.000,-27.344,-32.715,-39.551,-35.156,0.000
254.000,-18.555,-29.785,-34.668,-41.992,0.000
258.000,-4.395,-26.855,-29.297,-30.273,0.000
262.000,-12.207,-23.926,-27.832,-17.090,0.000
266.000,-23.926,-21.973,-23.438,-11.230,0.000
270.000,-29.785,-33.203,-31.250,-21.484,0.000
273.000,-30.762,-33.203,-39.551,-27.832,0.000
277.000,-31.250,-31.738,-36.133,-24.902,0.000
281.000,-33.203,-41.992,-33.203,-30.762,0.000
285.000,-35.156,-35.156,-39.062,-37.109,0.000
289.000,-40.039,-26.855,-40.039,-31.738,0.000
293.000,-32.715,-30.762,-34.668,-23.438,0.000
297.000,-42.480,-31.738,-35.156,-23.438,0.000
301.000,-45.898,-27.344,-30.273,-32.227,0.000
305.000,-32.227,-22.461,-24.902,-33.203,0.000
309.000,-34.668,-18.555,-24.902,-18.066,0.000
313.000,-31.738,-22.949,-22.949,-13.672,0.000
316.000,-33.203,-31.250,-26.855,-32.715,0.000
320.000,-36.621,-29.785,-30.762,-32.227,0.000
324.000,-23.438,-28.809,-28.809,-16.113,0.000
328.000,-20.996,-30.273,-31.738,-25.879,0.000
332.000,-24.414,-27.832,-33.691,-45.898,0.000
336.000,-13.672,-21.973,-30.762,-44.434,0.000
340.000,-7.324,-15.137,-32.227,-29.785,0.000
344.000,-13.672,-19.043,-31.250,-17.578,0.000
348.000,-17.578,-27.344,-27.832,-21.484,0.000
352.000,-12.695,-22.949,-37.598,-29.297,0.000
355.000,-3.906,-24.414,-40.527,-19.043,0.000
359.000,-12.695,-24.414,-35.645,-14.160,0.000
363.000,-19.531,-25.879,-36.133,-17.578,0.000
367.000,-34.668,-29.297,-37.598,-18.066,0.000
371.000,-56.152,-30.273,-33.691,-18.555,0.000
375.000,-47.363,-32.715,-29.297,-15.137,0.000
379.000,-43.945,-31.738,-33.691,-25.879,0.000
383.000,-41.992,-30.273,-34.668,-38.086,0.000
387.000,-34.180,-28.320,-24.414,-38.086,0.000
391.000,-41.016,-27.832,-20.020,-29.785,0.000
395.000,-43.457,-22.461,-21.973,-19.043,0.000
398.000,-34.668,-17.090,-25.391,-13.672,0.000
402.000,-25.391,-20.020,-25.391,-18.066,0.000
406.000,-33.203,-23.926,-23.438,-24.902,0.000
410.000,-56.641,-28.809,-23.926,-25.391,0.000
414.000,-61.035,-29.297,-21.973,-26.855,0.000
418.000,-40.039,-28.320,-20.996,-38.086,0.000
422.000,-34.668,-30.273,-25.879,-38.574,0.000
426.000,-33.691,-27.344,-24.902,-35.156,0.000
430.000,-42.480,-27.832,-22.461,-35.156,0.000
434.000,-48.828,-29.297,-24.414,-33.203,0.000
438.000,-50.781,-28.320,-26.367,-40.527,0.000
441.000,-61.035,-28.320,-22.949,-34.180,0.000
445.000,-45.898,-26.367,-22.949,-18.066,0.000
449.000,-27.832,-22.461,-24.902,-17.090,0.000
453.000,-25.879,-21.484,-22.461,-36.133,0.000
457.000,-25.391,-23.438,-24.902,-41.992,0.000
461.000,-35.645,-25.879,-29.297,-41.016,0.000
465.000,-64.453,-28.809,-25.391,-41.992,0.000
469.000,-71.777,-33.203,-23.438,-38.086,0.000
473.000,-45.898,-31.738,-21.484,-20.508,0.000
477.000,-30.762,-28.809,-19.043,0.488,0.000
480.000,-39.062,-30.273,-25.879,-13.672,0.000
484.000,-41.504,-35.156,-32.715,-34.180,0.000
488.000,-45.410,-37.109,-30.762,-29.785,0.000
492.000,-19.531,-33.203,-25.391,-6.836,0.000
496.000,0.000,-31.738,-25.879,4.883,0.000
500.000,-18.555,-33.203,-25.879,-9.277,0.000
504.000,-27.344,-25.879,-25.879,-25.879,0.000
508.000,-17.090,-20.508,-25.391,-17.578,0.000
512.000,0.977,-26.855,-16.113,-4.883,0.000
516.000,9.277,-26.367,-19.531,-1.953,0.000
520.000,-31.738,-20.508,-20.996,12.207,0.000
523.000,-55.176,-17.578,-14.160,27.832,0.000
527.000,-34.180,-14.160,-14.648,21.484,0.000
531.000,-24.902,-13.672,-17.578,0.977,0.000
535.000,-8.301,-10.742,-20.020,-3.418,0.000
539.000,-2.930,-6.836,-20.508,-4.883,0.000
543.000,-16.113,-3.418,-21.484,-10.742,0.000
547.000,-2.930,-2.930,-18.555,-0.977,0.000
551.000,12.695,-10.742,-15.137,11.230,0.000
555.000,-5.371,-12.695,-20.508,8.789,0.000
559.000,-14.160,-15.625,-18.066,11.230,0.000
563.000,0.488,-11.719,-16.113,17.090,0.000
566.000,9.766,-2.441,-21.973,-1.465,0.000
570.000,22.461,0.488,-22.949,-24.902,0.000
574.000,42.480,1.953,-24.902,-17.090,0.000
578.000,41.992,2.441,-21.973,4.883,0.000
582.000,13.184,-4.395,-18.066,2.930,0.000
586.000,15.137,-4.883,-25.391,-3.418,0.000
590.000,11.230,-4.395,-34.668,2.441,0.000
594.000,7.324,0.977,-36.133,5.859,0.000
598.000,-2.441,-0.977,-30.273,10.742,0.000
602.000,-14.648,-11.230,-29.785,21.973,0.000
605.000,7.812,-3.418,-31.250,22.461,0.000
609.000,9.766,0.000,-25.391,33.203,0.000
613.000,4.883,-5.859,-18.555,47.852,0.000
617.000,4.395,-9.277,-20.996,47.363,0.000
621.000,10.742,-2.930,-21.973,46.875,0.000
625.000,18.066,-1.953,-20.020,36.133,0.000
629.000,22.949,-14.648,-18.066,23.438,0.000
633.000,25.391,-12.695,-19.043,27.344,0.000
637.000,14.648,-8.789,-20.508,20.996,0.000
641.000,20.508,-10.742,-18.555,19.531,0.000
645.000,21.973,-15.625,-20.020,31.738,0.000
648.000,23.438,-13.184,-21.484,20.020,0.000
652.000,35.645,-9.277,-18.555,4.395,0.000
656.000,28.320,-13.672,-21.484,6.348,0.000
660.000,23.438,-9.766,-26.855,16.113,0.000
664.000,31.250,-10.254,-18.555,14.648,0.000
668.000,35.645,-10.742,-14.648,8.301,0.000
672.000,39.062,-8.301,-19.531,5.859,0.000
676.000,38.086,-12.695,-17.090,18.066,0.000
680.000,27.832,-14.160,-17.090,26.855,0.000
684.000,19.531,-20.996,-17.578,29.297,0.000
688.000,18.555,-20.020,-20.020,32.715,0.000
691.000,-2.441,-22.461,-23.438,16.113,0.000
695.000,-16.602,-28.809,-17.090,-2.441,0.000
699.000,-15.137,-21.973,-16.113,-4.883,0.000
703.000,-2.930,-18.555,-23.438,5.859,0.000
707.000,24.902,-20.508,-26.367,9.766,0.000
711.000,34.668,-13.184,-24.902,23.438,0.000
715.000,39.551,-13.184,-23.438,20.508,0.000
719.000,39.551,-19.531,-26.367,-7.324,0.000
723.000,-10.742,-20.020,-19.531,-15.625,0.000
727.000,-41.016,-21.973,-14.648,-11.230,0.000
730.000,-31.250,-26.367,-16.113,5.859,0.000
734.000,-47.363,-29.297,-13.184,13.184,0.000
738.000,-55.664,-30.273,-17.090,-2.930,0.000
742.000,-38.086,-30.762,-22.461,-29.297,0.000
746.000,-31.738,-34.180,-25.391,-46.875,0.000
750.000,-28.809,-30.273,-27.344,-50.293,0.000
754.000,-30.762,-30.762,-27.344,-44.922,0.000
758.000,-42.969,-40.527,-26.367,-44.922,0.000
762.000,-42.969,-37.109,-24.414,-36.133,0.000
766.000,-39.062,-32.227,-23.438,-29.297,0.000
770.000,-38.574,-34.180,-22.461,-35.156,0.000
773.000,-47.363,-30.273,-19.043,-27.344,0.000
777.000,-47.363,-31.738,-22.461,-23.438,0.000
781.000,-32.715,-33.691,-23.438,-28.320,0.000
785.000,-18.066,-25.879,-19.531,-35.645,0.000
789.000,3.418,-24.414,-17.578,-41.992,0.000
793.000,2.441,-24.414,-18.555,-33.203,0.000
797.000,-17.578,-25.879,-22.949,-19.531,0.000
801.000,-45.410,-30.273,-19.531,-12.695,0.000
805.000,-52.246,-30.762,-14.648,-5.859,0.000
809.000,-34.180,-23.926,-18.066,1.465,0.000
813.000,-29.785,-22.461,-18.555,-16.602,0.000
816.000,-20.020,-22.949,-24.414,-33.691,0.000
820.000,-16.602,-24.902,-30.273,-33.691,0.000
824.000,-29.785,-26.367,-27.832,-29.297,0.000
828.000,-31.250,-34.180,-32.715,-26.855,0.000
832.000,-25.391,-31.250,-29.297,-28.320,0.000
836.000,-7.812,-26.855,-23.438,-14.648,0.000
840.000,-15.625,-36.621,-24.902,-10.254,0.000
844.000,-45.898,-41.504,-29.297,-38.086,0.000
848.000,-57.129,-40.039,-30.762,-38.574,0.000
852.000,-62.500,-47.363,-26.367,-54.199,0.000
855.000,-69.824,-52.246,-27.832,-89.844,0.000
859.000,-95.703,-49.316,-30.762,-95.215,0.000
863.000,-112.305,-52.246,-29.297,-86.426,0.000
867.000,-117.676,-53.223,-23.926,-88.867,0.000
871.000,-135.254,-48.340,-23.926,-112.305,0.000
875.000,-127.930,-48.340,-29.297,-121.094,0.000
879.000,-123.535,-51.270,-30.762,-118.164,0.000
883.000,-132.812,-57.617,-33.203,-127.930,0.000
887.000,-131.836,-59.082,-32.715,-132.324,0.000
891.000,-138.672,-44.922,-35.156,-124.023,0.000
895.000,-144.043,-48.828,-29.297,-110.840,0.000
898.000,-152.344,-61.523,-26.367,-123.535,0.000
902.000,-148.926,-71.289,-35.645,-138.184,0.000
906.000,-136.719,-79.102,-32.227,-124.023,0.000
910.000,-137.695,-64.453,-34.180,-112.793,0.000
914.000,-132.324,-54.688,-30.273,-120.117,0.000
918.000,-146.973,-62.988,-24.414,-138.184,0.000
922.000,-149.902,-63.965,-32.227,-137.207,0.000
926.000,-123.047,-62.012,-29.297,-114.746,0.000
930.000,-111.328,-61.523,-27.344,-109.863,0.000
934.000,-112.305,-56.641,-26.367,-108.398,0.000
938.000,-116.699,-56.152,-29.297,-110.840,0.000
941.000,-91.797,-56.152,-34.180,-102.539,0.000
945.000,-82.031,-48.828,-31.250,-85.938,0.000
949.000,-86.426,-49.316,-28.809,-84.961,0.000
953.000,-91.797,-53.711,-24.414,-74.707,0.000
957.000,-83.496,-52.246,-20.508,-61.523,0.000
961.000,-67.871,-52.734,-21.973,-63.965,0.000
965.000,-64.453,-51.270,-26.367,-60.547,0.000
969.000,-74.707,-43.945,-25.391,-47.363,0.000
973.000,-72.754,-39.551,-21.973,-40.039,0.000
977.000,-65.430,-43.457,-26.855,-32.227,0.000
980.000,-50.781,-39.062,-27.832,-25.391,0.000
984.000,-37.598,-37.598,-23.926,-28.809,0.000
988.000,-42.969,-40.039,-25.391,-26.367,0.000
992.000,-41.992,-35.156,-26.367,-22.949,0.000
996.000,-39.062,-32.715,-29.297,-21.484,0.000
1000.000,-48.340,-29.785,-29.785,-24.902,0.000
1004.000,-46.387,-33.203,-27.832,-38.086,0.000
1008.000,-24.902,-36.133,-33.203,-36.133,0.000
1012.000,-19.043,-31.738,-34.180,-32.715,0.000
1016.000,-18.555,-29.297,-32.227,-40.039,0.000
1020.000,-49.316,-30.273,-29.785,-45.410,0.000
1023.000,-71.777,-33.203,-25.879,-41.992,0.000
1027.000,-48.828,-29.297,-20.996,-37.109,0.000
1031.000,-28.320,-26.367,-24.414,-43.457,0.000
1035.000,-20.020,-31.738,-30.762,-50.781,0.000
1039.000,-23.438,-28.809,-31.738,-43.945,0.000
1043.000,-26.367,-25.879,-25.879,-31.738,0.000
1047.000,-47.363,-27.344,-18.555,-28.809,0.000
1051.000,-62.012,-25.391,-20.020,-32.715,0.000
1055.000,-53.223,-28.809,-26.367,-37.598,0.000
1059.000,-53.223,-27.832,-27.832,-22.949,0.000
1063.000,-66.406,-28.809,-28.320,-17.090,0.000
1066.000,-62.012,-30.762,-29.785,-30.273,0.000
1070.000,-46.875,-25.391,-26.855,-33.203,0.000
1074.000,-46.875,-23.438,-23.926,-34.180,0.000
1078.000,-49.316,-22.461,-26.855,-41.992,0.000
1082.000,-58.105,-27.344,-32.715,-49.805,0.000
1086.000,-51.270,-31.738,-29.785,-46.875,0.000
1090.000,-48.340,-33.691,-33.203,-51.270,0.000
1094.000,-53.223,-36.621,-39.062,-47.852,0.000
1098.000,-50.293,-38.086,-35.645,-37.109,0.000
1102.000,-49.805,-37.109,-32.715,-47.852,0.000
1105.000,-52.246,-33.691,-31.738,-50.293,0.000
1109.000,-52.246,-36.621,-27.344,-45.898,0.000
1113.000,-42.969,-39.551,-25.879,-49.316,0.000
1117.000,-29.785,-37.598,-29.785,-58.105,0.000
1121.000,-19.531,-39.062,-29.297,-61.523,0.000
1125.000,-19.043,-38.086,-24.414,-57.617,0.000
1129.000,-44.434,-35.645,-24.902,-52.734,0.000
1133.000,-72.266,-37.598,-22.949,-38.574,0.000
1137.000,-61.523,-35.156,-25.391,-36.621,0.000
1141.000,-48.828,-31.738,-31.738,-38.574,0.000
1145.000,-39.551,-31.738,-28.320,-41.016,0.000
1148.000,-26.367,-28.809,-25.879,-48.828,0.000
1152.000,-35.156,-26.367,-21.484,-44.434,0.000
1156.000,-36.133,-30.762,-20.996,-37.598,0.000
1160.000,-36.621,-31.738,-23.926,-40.039,0.000
1164.000,-56.641,-37.109,-23.438,-41.016,0.000
1168.000,-50.293,-38.086,-22.949,-39.551,0.000
1172.000,-39.551,-31.250,-22.949,-34.180,0.000
1176.000,-41.504,-37.109,-26.367,-36.621,0.000
1180.000,-31.738,-37.598,-27.832,-41.016,0.000
1184.000,-30.762,-29.785,-25.879,-38.086,0.000
1188.000,-43.457,-30.273,-26.855,-41.992,0.000
1191.000,-39.062,-30.762,-29.785,-44.434,0.000
1195.000,-38.086,-27.344,-29.785,-42.969,0.000
1199.000,-40.527,-28.809,-33.691,-42.969,0.000
1203.000,-25.391,-30.273,-33.691,-43.945,0.000
1207.000,-20.996,-33.203,-32.227,-41.016,0.000
1211.000,-19.531,-29.297,-31.738,-38.574,0.000
1215.000,-22.949,-28.320,-30.273,-37.598,0.000
1219.000,-53.223,-34.668,-32.715,-38.086,0.000
1223.000,-65.918,-34.180,-27.344,-33.691,0.000
1227.000,-59.082,-31.250,-25.879,-24.902,0.000
1230.000,-43.945,-35.645,-28.320,-22.949,0.000
1234.000,-33.203,-32.227,-31.738,-35.645,0.000
1238.000,-37.598,-30.762,-37.598,-41.992,0.000
1242.000,-32.227,-25.879,-35.156,-28.809,0.000
1246.000,-8.789,-20.508,-28.809,-11.230,0.000
1250.000,10.254,-19.531,-28.809,-9.277,0.000
1254.000,-33.691,-21.973,-31.250,-29.785,0.000
1258.000,-77.148,-30.762,-24.414,-38.574,0.000
1262.000,-66.406,-35.645,-20.996,-24.414,0.000
1266.000,-54.688,-34.180,-31.250,-21.973,0.000
1270.000,-44.434,-32.227,-32.715,-20.508,0.000
1273.000,-29.297,-29.785,-35.156,-10.742,0.000
1277.000,-22.949,-24.414,-38.574,-8.789,0.000
1281.000,-26.855,-22.461,-37.598,-13.184,0.000
1285.000,-24.414,-17.578,-32.715,-17.090,0.000
1289.000,-20.996,-17.090,-26.367,-12.695,0.000
1293.000,-15.137,-24.902,-29.785,-5.371,0.000
1297.000,-7.324,-23.438,-28.320,-8.301,0.000
1301.000,0.488,-22.461,-26.367,-9.277,0.000
1305.000,9.277,-16.602,-26.367,3.418,0.000
1309.000,22.949,-10.742,-20.508,11.719,0.000
1313.000,25.391,-14.160,-17.090,5.371,0.000
1316.000,21.484,-8.789,-20.996,11.719,0.000
1320.000,27.832,-9.766,-24.902,15.625,0.000
1324.000,3.418,-20.996,-23.926,3.418,0.000
1328.000,-14.160,-16.113,-24.414,13.672,0.000
1332.000,-0.488,-9.766,-23.926,27.344,0.000
1336.000,8.301,-9.766,-25.391,15.137,0.000
1340.000,18.555,-11.230,-25.879,18.066,0.000
1344.000,28.320,-9.766,-22.461,32.227,0.000
1348.000,31.738,-7.324,-26.855,27.344,0.000
1352.000,21.484,-5.859,-28.809,25.391,0.000
1355.000,21.484,-2.441,-25.879,31.738,0.000
1359.000,28.320,0.000,-23.438,36.133,0.000
1363.000,27.344,0.000,-26.367,39.551,0.000
1367.000,40.039,-0.977,-31.738,46.875,0.000
1371.000,44.922,-2.930,-34.180,51.270,0.000
1375.000,37.598,-2.930,-36.621,39.062,0.000
1379.000,38.086,-2.930,-35.645,42.480,0.000
1383.000,47.852,-1.465,-31.738,41.504,0.000
1387.000,57.617,-4.883,-30.273,26.367,0.000
1391.000,74.219,-2.441,-32.227,40.039,0.000
1395.000,78.613,0.977,-31.250,37.598,0.000
1398.000,65.430,-3.418,-34.668,9.766,0.000
1402.000,72.266,-4.395,-37.109,24.414,0.000
1406.000,58.105,-5.859,-39.062,48.828,0.000
1410.000,21.484,-12.207,-38.574,42.480,0.000
1414.000,17.090,-13.672,-32.715,33.203,0.000
1418.000,20.020,-11.719,-30.762,26.855,0.000
1422.000,-0.488,-13.672,-30.273,32.227,0.000
1426.000,-13.184,-16.113,-24.902,38.574,0.000
1430.000,-16.113,-15.625,-26.367,36.133,0.000
1434.000,-5.859,-10.254,-27.344,33.203,0.000
1438.000,13.184,-9.766,-22.461,32.227,0.000
1441.000,30.762,-7.812,-26.855,23.438,0.000
1445.000,35.645,-4.883,-23.926,35.645,0.000
1449.000,18.066,-4.883,-18.066,40.039,0.000
1453.000,-1.465,-15.625,-18.555,13.672,0.000
1457.000,6.836,-23.438,-21.973,6.836,0.000
1461.000,28.320,-15.137,-26.855,9.766,0.000
1465.000,26.855,-20.508,-30.273,-10.742,0.000
1469.000,37.598,-20.996,-29.297,-20.020,0.000
1473.000,41.992,-14.160,-31.250,-1.953,0.000
1477.000,18.555,-9.766,-30.762,16.602,0.000
1480.000,-6.348,-11.230,-21.973,30.273,0.000
1484.000,-9.277,-17.578,-23.438,22.949,0.000
1488.000,-4.883,-13.184,-25.879,15.137,0.000
1492.000,7.324,-14.160,-23.926,11.719,0.000
1496.000,24.414,-13.184,-23.926,1.465,0.000
1500.000,16.113,-12.207,-23.926,8.301,0.000
1504.000,-7.812,-20.020,-21.484,17.578,0.000
1508.000,-33.691,-20.508,-20.020,18.555,0.000
1512.000,-35.645,-19.043,-23.926,5.371,0.000
1516.000,-38.574,-21.973,-21.973,-2.441,0.000
1520.000,-34.180,-21.484,-17.090,-1.465,0.000
1523.000,-25.879,-20.996,-20.508,0.488,0.000
1527.000,-26.367,-18.555,-24.902,-0.488,0.000
1531.000,-30.762,-20.508,-24.414,-0.977,0.000
1535.000,-30.273,-17.090,-23.926,-2.930,0.000
1539.000,-32.227,-18.066,-26.855,-13.184,0.000
1543.000,-31.250,-22.949,-30.762,-28.320,0.000
1547.000,-19.531,-21.973,-30.273,-38.574,0.000
1551.000,-7.324,-19.043,-33.203,-39.551,0.000
1555.000,-15.137,-19.043,-33.691,-43.945,0.000
1559.000,-20.508,-18.066,-32.227,-31.738,0.000
1563.000,-11.230,-17.090,-33.203,-20.996,0.000
1566.000,-26.367,-20.508,-29.297,-31.738,0.000
1570.000,-18.555,-21.973,-27.832,-25.391,0.000
1574.000,-4.395,-17.090,-32.227,-25.391,0.000
1578.000,-18.555,-13.184,-35.645,-31.250,0.000
1582.000,-14.648,-14.648,-31.738,-14.160,0.000
1586.000,-9.766,-14.160,-30.273,-7.324,0.000
1590.000,-2.441,-19.043,-31.738,-16.113,0.000
1594.000,-7.812,-20.020,-33.203,-21.973,0.000
1598.000,-16.602,-17.090,-34.668,-18.555,0.000
1602.000,-25.879,-19.043,-33.691,-13.672,0.000
1605.000,-59.570,-22.461,-36.621,-18.555,0.000
1609.000,-42.480,-25.879,-38.086,-11.719,0.000
1613.000,-17.578,-24.414,-37.598,-5.859,0.000
1617.000,-33.203,-24.902,-40.039,-8.789,0.000
1621.000,-48.828,-26.855,-35.156,-6.348,0.000
1625.000,-40.527,-23.438,-27.832,2.930,0.000
1629.000,-25.879,-21.973,-29.297,8.789,0.000
1633.000,-27.344,-25.879,-31.250,-6.836,0.000
1637.000,-26.855,-28.320,-29.785,-31.250,0.000
1641.000,-12.695,-26.367,-28.809,-30.762,0.000
1645.000,-1.953,-24.414,-27.832,-26.367,0.000
1648.000,-21.973,-23.438,-26.367,-32.227,0.000
1652.000,-26.855,-27.832,-29.297,-35.156,0.000
1656.000,-5.859,-28.320,-27.344,-30.762,0.000
1660.000,-6.836,-25.879,-24.902,-30.762,0.000
1664.000,-12.695,-27.832,-31.250,-39.551,0.000
1668.000,-14.160,-28.809,-34.180,-44.922,0.000
1672.000,-23.926,-27.344,-33.203,-36.621,0.000
1676.000,-25.391,-26.855,-30.273,-24.414,0.000
1680.000,-21.973,-28.320,-28.320,-29.297,0.000
1684.000,-27.344,-31.250,-34.180,-43.457,0.000
1688.000,-34.180,-29.297,-37.598,-51.270,0.000
1691.000,-40.039,-29.297,-37.598,-41.016,0.000
1695.000,-31.738,-32.227,-39.551,-27.344,0.000
1699.000,-34.180,-33.203,-41.504,-33.203,0.000
1703.000,-60.547,-37.109,-35.156,-29.785,0.000
1707.000,-56.641,-37.598,-31.738,-17.090,0.000
1711.000,-36.621,-35.156,-36.621,-26.367,0.000
1715.000,-27.832,-32.715,-36.621,-28.320,0.000
1719.000,-32.715,-28.809,-29.297,-25.391,0.000
1723.000,-36.133,-24.902,-28.320,-26.855,0.000
1727.000,-35.645,-25.879,-27.832,-19.531,0.000
1730.000,-26.367,-24.902,-26.855,-5.859,0.000
1734.000,-26.367,-24.414,-28.809,0.488,0.000
1738.000,-23.438,-27.344,-30.762,-1.465,0.000
1742.000,-3.418,-22.949,-32.715,-2.441,0.000
1746.000,1.465,-19.531,-31.250,-7.324,0.000
1750.000,-2.930,-29.297,-32.715,-32.227,0.000
1754.000,-10.254,-32.227,-36.133,-32.227,0.000
1758.000,-1.465,-29.785,-37.109,0.488,0.000
1762.000,-6.348,-38.086,-23.926,15.137,0.000
1766.000,-43.945,-45.410,-21.484,-7.324,0.000
1770.000,-50.293,-37.109,-29.785,-31.738,0.000
1773.000,-47.363,-35.645,-30.762,-30.762,0.000
1777.000,-59.570,-42.480,-31.738,-41.016,0.000
1781.000,-74.219,-45.410,-34.180,-74.707,0.000
1785.000,-88.867,-44.922,-30.762,-93.750,0.000
1789.000,-101.074,-45.898,-25.879,-95.703,0.000
1793.000,-120.117,-50.293,-25.879,-105.469,0.000
1797.000,-129.883,-52.734,-30.762,-121.582,0.000
1801.000,-133.789,-53.223,-32.715,-132.324,0.000
1805.000,-149.414,-58.594,-31.738,-148.926,0.000
1809.000,-160.156,-65.430,-34.180,-154.297,0.000
1813.000,-174.316,-66.895,-34.668,-143.066,0.000
1816.000,-178.223,-64.941,-32.715,-140.137,0.000
1820.000,-173.340,-64.453,-31.738,-151.855,0.000
1824.000,-172.852,-63.477,-34.180,-147.461,0.000
1828.000,-182.129,-62.012,-29.785,-144.043,0.000
1832.000,-185.547,-57.617,-28.320,-149.414,0.000
1836.000,-170.898,-59.570,-35.156,-153.320,0.000
1840.000,-160.645,-61.523,-38.574,-151.367,0.000
1844.000,-154.785,-54.199,-34.180,-132.324,0.000
1848.000,-165.527,-56.152,-32.227,-141.113,0.000
1852.000,-168.945,-57.617,-37.598,-147.949,0.000
1855.000,-157.227,-52.734,-41.016,-129.395,0.000
1859.000,-146.484,-56.641,-37.109,-116.211,0.000
1863.000,-132.324,-58.594,-32.227,-127.930,0.000
1867.000,-111.816,-48.340,-27.344,-137.207,0.000
1871.000,-89.844,-51.758,-32.715,-136.719,0.000
1875.000,-87.402,-55.176,-37.109,-117.676,0.000
1879.000,-93.262,-45.410,-27.344,-89.844,0.000
1883.000,-72.754,-44.434,-22.949,-78.613,0.000
1887.000,-47.852,-46.387,-28.809,-87.402,0.000
1891.000,-44.922,-44.922,-31.250,-81.055,0.000
1895.000,-59.570,-42.969,-31.250,-68.359,0.000
1898.000,-85.449,-35.645,-31.250,-65.918,0.000
1902.000,-89.844,-35.645,-27.344,-51.270,0.000
1906.000,-67.871,-35.156,-26.367,-44.922,0.000
1910.000,-62.500,-35.645,-30.273,-44.922,0.000
1914.000,-67.383,-38.086,-33.203,-41.016,0.000
1918.000,-54.688,-36.133,-32.715,-43.457,0.000
1922.000,-53.223,-34.668,-32.715,-33.691,0.000
1926.000,-52.246,-37.598,-31.738,-21.484,0.000
1930.000,-41.504,-39.551,-27.832,-19.043,0.000
1934.000,-42.969,-37.109,-20.508,-18.555,0.000
1938.000,-33.691,-37.109,-18.555,-25.879,0.000
1941.000,-26.855,-30.762,-17.578,-19.043,0.000
1945.000,-25.879,-27.344,-13.672,-2.441,0.000
1949.000,-14.160,-28.320,-13.672,-9.277,0.000
1953.000,3.418,-27.344,-16.602,-22.949,0.000
1957.000,4.395,-27.832,-16.113,-15.625,0.000
1961.000,-4.883,-27.344,-17.090,-10.254,0.000
1965.000,8.789,-26.367,-16.602,-19.531,0.000
1969.000,14.160,-26.367,-18.066,-19.043,0.000
1973.000,-24.414,-27.344,-26.855,-24.414,0.000
1977.000,-37.109,-32.227,-31.738,-35.156,0.000
1980.000,-24.902,-32.715,-29.785,-29.785,0.000
1984.000,-17.578,-27.832,-31.738,-28.320,0.000
1988.000,-2.930,-24.902,-32.227,-28.320,0.000
1992.000,-3.906,-27.832,-31.738,-21.484,0.000
1996.000,-23.926,-34.668,-36.621,-29.297,0.000
2000.000,-33.203,-37.598,-35.156,-32.227,0.000
2004.000,-40.039,-41.992,-33.203,-31.250,0.000
2008.000,-54.199,-40.039,-34.180,-21.484,0.000
2012.000,-47.363,-37.598,-36.621,-25.391,0.000
2016.000,-33.691,-32.227,-43.457,-37.598,0.000
2020.000,-21.973,-21.973,-36.133,-32.715,0.000
2023.000,-12.207,-18.066,-24.902,-16.113,0.000
2027.000,-21.973,-17.090,-27.344,-6.836,0.000
2031.000,-25.391,-23.926,-29.785,-15.137,0.000
2035.000,-14.648,-27.832,-28.809,-26.855,0.000
2039.000,-24.414,-24.414,-26.367,-24.414,0.000
2043.000,-28.320,-30.273,-28.320,-24.902,0.000
2047.000,-26.367,-32.227,-28.809,-15.137,0.000
2051.000,-31.250,-25.879,-27.344,-7.324,0.000
2055.000,-38.086,-27.832,-30.762,-20.996,0.000
2059.000,-56.641,-29.297,-34.180,-26.367,0.000
2063.000,-59.570,-25.391,-31.250,-38.574,0.000
2066.000,-53.711,-20.996,-28.320,-49.316,0.000
2070.000,-54.199,-20.996,-28.320,-50.293,0.000
2074.000,-53.711,-24.414,-28.809,-37.598,0.000
2078.000,-51.758,-27.344,-30.273,-30.273,0.000
2082.000,-41.504,-26.367,-26.367,-38.574,0.000
2086.000,-36.621,-23.438,-30.273,-44.434,0.000
2090.000,-49.316,-25.391,-31.738,-40.527,0.000
2094.000,-58.105,-26.855,-26.855,-32.227,0.000
2098.000,-51.758,-30.762,-27.344,-27.344,0.000
2102.000,-47.363,-28.320,-25.879,-33.691,0.000
2105.000,-35.645,-23.926,-25.391,-37.109,0.000
2109.000,-26.855,-22.949,-22.949,-34.180,0.000
2113.000,-25.391,-22.461,-20.508,-33.691,0.000
2117.000,-30.762,-23.438,-22.949,-38.086,0.000
2121.000,-46.387,-20.508,-20.508,-33.691,0.000
2125.000,-47.852,-23.926,-19.531,-32.715,0.000
2129.000,-49.316,-28.320,-24.902,-53.223,0.000
2133.000,-52.734,-32.227,-29.785,-63.965,0.000
2137.000,-36.133,-31.738,-29.785,-64.453,0.000
2141.000,-40.039,-30.273,-27.832,-53.223,0.000
2145.000,-71.777,-33.203,-34.180,-37.109,0.000
2148.000,-85.938,-33.691,-34.668,-34.180,0.000
2152.000,-91.797,-35.156,-32.715,-35.645,0.000
2156.000,-88.379,-37.109,-36.621,-40.527,0.000
2160.000,-74.707,-37.598,-34.668,-38.086,0.000
2164.000,-75.684,-40.039,-35.645,-37.109,0.000
2168.000,-71.777,-36.621,-40.039,-51.270,0.000
2172.000,-68.359,-37.109,-42.969,-58.594,0.000
2176.000,-66.406,-39.062,-41.992,-64.941,0.000
2180.000,-61.523,-38.086,-41.504,-68.848,0.000
2184.000,-53.223,-38.574,-41.504,-70.801,0.000
2188.000,-46.387,-35.645,-40.039,-75.684,0.000
2191.000,-56.641,-37.109,-43.457,-68.848,0.000
2195.000,-80.078,-37.598,-46.387,-72.266,0.000
2199.000,-88.867,-36.621,-44.434,-93.750,0.000
2203.000,-78.125,-37.109,-43.457,-102.051,0.000
2207.000,-62.012,-35.156,-41.016,-95.215,0.000
2211.000,-46.387,-30.762,-34.668,-86.914,0.000
2215.000,-81.055,-25.391,-31.250,-84.473,0.000
2219.000,-112.793,-29.297,-33.691,-83.496,0.000
2223.000,-85.938,-33.691,-35.645,-67.871,0.000
2227.000,-50.293,-28.809,-32.715,-46.875,0.000
2230.000,-49.805,-24.902,-28.809,-49.805,0.000
2234.000,-80.078,-26.367,-34.668,-71.289,0.000
2238.000,-106.445,-28.320,-39.062,-74.219,0.000
2242.000,-102.051,-33.203,-37.598,-52.734,0.000
2246.000,-79.102,-26.855,-27.832,-31.738,0.000
2250.000,-64.453,-18.066,-23.926,-32.227,0.000
2254.000,-57.617,-17.090,-27.832,-41.992,0.000
2258.000,-44.434,-16.602,-31.250,-40.527,0.000
2262.000,-26.367,-8.301,-27.344,-34.668,0.000
2266.000,-27.832,0.977,-20.996,-37.598,0.000
2270.000,-31.250,-0.488,-27.344,-33.203,0.000
2273.000,-19.043,-3.418,-29.785,-16.602,0.000
2277.000,-14.648,-5.859,-28.809,-5.371,0.000
2281.000,-8.789,-12.207,-30.273,-8.301,0.000
2285.000,-6.836,-7.324,-31.250,-11.719,0.000
2289.000,-11.230,-3.418,-31.250,-15.625,0.000
2293.000,-8.301,-6.348,-33.203,-16.602,0.000
2297.000,11.230,-0.488,-37.598,-11.230,0.000
2301.000,49.316,5.859,-36.133,-8.301,0.000
2305.000,66.406,0.977,-35.156,-9.766,0.000
2309.000,50.293,-2.930,-41.504,2.441,0.000
2313.000,20.508,-6.348,-41.504,14.160,0.000
2316.000,4.883,-10.254,-36.621,13.184,0.000
2320.000,29.785,-6.348,-32.227,24.902,0.000
2324.000,32.715,-1.953,-33.203,35.156,0.000
2328.000,12.207,-1.953,-41.016,34.180,0.000
2332.000,22.949,-4.883,-41.992,38.086,0.000
2336.000,23.438,-6.836,-41.016,27.344,0.000
2340.000,11.719,-13.672,-41.016,28.809,0.000
2344.000,11.719,-15.137,-34.668,41.504,0.000
2348.000,16.602,-17.090,-32.227,32.227,0.000
2352.000,11.719,-21.484,-37.109,23.926,0.000
2355.000,23.926,-15.137,-33.203,34.668,0.000
2359.000,34.180,-18.555,-31.250,58.594,0.000
2363.000,32.227,-18.066,-34.668,54.199,0.000
2367.000,39.062,-14.648,-36.621,33.203,0.000
2371.000,41.016,-17.090,-40.039,22.461,0.000
2375.000,48.340,-12.207,-40.039,24.902,0.000
2379.000,63.477,-11.719,-35.156,34.180,0.000
2383.000,59.570,-18.555,-33.203,27.832,0.000
2387.000,45.898,-19.043,-29.785,25.879,0.000
2391.000,40.039,-16.602,-24.902,39.062,0.000
2395.000,28.809,-16.602,-26.855,45.898,0.000
2398.000,34.180,-15.625,-25.879,42.969,0.000
2402.000,56.641,-15.137,-23.438,36.133,0.000
2406.000,56.152,-17.578,-21.973,35.156,0.000
2410.000,29.785,-19.043,-20.996,36.133,0.000
2414.000,-1.953,-21.484,-23.438,33.691,0.000
2418.000,8.789,-22.949,-24.902,37.598,0.000
2422.000,12.695,-17.090,-21.973,39.062,0.000
2426.000,3.418,-12.695,-20.508,27.344,0.000
2430.000,5.859,-13.184,-25.879,13.672,0.000
2434.000,17.090,-10.254,-26.855,15.137,0.000
2438.000,19.531,-11.230,-23.926,20.996,0.000
2441.000,7.324,-20.020,-23.926,25.879,0.000
2445.000,6.836,-20.508,-21.973,44.922,0.000
2449.000,8.301,-18.066,-23.926,45.898,0.000
2453.000,2.930,-18.066,-26.367,16.113,0.000
2457.000,10.254,-19.531,-24.902,5.859,0.000
2461.000,26.855,-18.555,-29.785,9.766,0.000
2465.000,28.320,-16.602,-30.273,4.883,0.000
2469.000,35.645,-19.531,-28.809,5.371,0.000
2473.000,47.363,-23.926,-27.832,9.277,0.000
2477.000,-4.395,-27.832,-28.809,8.789,0.000
2480.000,-45.898,-34.180,-31.250,-7.324,0.000
2484.000,-23.926,-33.691,-30.273,-9.277,0.000
2488.000,4.395,-26.855,-28.809,-12.207,0.000
2492.000,17.578,-21.973,-30.273,-13.184,0.000
2496.000,-3.418,-31.250,-33.203,-9.766,0.000
2500.000,-27.832,-34.668,-30.273,-3.906,0.000
2504.000,-20.020,-29.785,-29.785,3.418,0.000
2508.000,-6.836,-28.320,-34.180,-1.953,0.000
2512.000,-11.230,-30.762,-34.668,-19.043,0.000
2516.000,-19.043,-32.715,-30.762,-23.438,0.000
2520.000,-15.137,-32.715,-29.297,-22.461,0.000
2523.000,-20.020,-35.156,-29.785,-28.320,0.000
2527.000,-40.039,-32.227,-28.809,-20.508,0.000
2531.000,-38.086,-33.691,-33.691,-18.066,0.000
2535.000,-12.207,-32.227,-35.645,-20.996,0.000
2539.000,-23.926,-29.785,-31.250,-20.996,0.000
2543.000,-45.410,-31.250,-30.273,-11.719,0.000
2547.000,-43.457,-31.738,-30.273,-8.789,0.000
2551.000,-37.598,-33.691,-32.715,-10.742,0.000
2555.000,-35.156,-30.273,-31.250,-11.719,0.000
2559.000,-25.879,-28.809,-27.344,-15.625,0.000
2563.000,-12.207,-32.715,-26.367,-17.578,0.000
2566.000,-7.812,-31.738,-27.832,-30.762,0.000
2570.000,-17.090,-29.297,-27.344,-33.203,0.000
2574.000,-41.504,-36.133,-27.344,-24.902,0.000
2578.000,-46.387,-35.156,-28.320,-18.555,0.000
2582.000,-34.180,-31.250,-27.832,-23.926,0.000
2586.000,-20.996,-30.762,-27.344,-33.203,0.000
2590.000,-2.441,-33.691,-26.855,-31.250,0.000
2594.000,-0.488,-30.273,-27.344,-20.020,0.000
2598.000,-20.020,-20.508,-29.297,-19.043,0.000
2602.000,-23.926,-24.414,-31.250,-23.926,0.000
2605.000,-28.809,-27.832,-25.879,-17.578,0.000
2609.000,-43.945,-28.809,-25.391,-25.391,0.000
2613.000,-29.785,-27.344,-31.250,-33.691,0.000
2617.000,-9.277,-24.902,-27.344,-33.691,0.000
2621.000,-7.324,-25.391,-26.855,-29.297,0.000
2625.000,-16.602,-24.902,-30.762,-17.090,0.000
2629.000,-18.555,-26.855,-33.203,-13.184,0.000
2633.000,-23.438,-27.832,-33.203,-15.137,0.000
2637.000,-31.738,-27.832,-33.203,-19.531,0.000
2641.000,-28.809,-30.762,-32.715,-19.043,0.000
2645.000,-31.250,-31.738,-33.203,-34.180,0.000
2648.000,-29.297,-32.715,-35.156,-47.363,0.000
2652.000,-18.555,-34.668,-38.086,-32.715,0.000
2656.000,0.488,-31.250,-39.062,-16.602,0.000
2660.000,-13.672,-34.180,-27.344,-11.230,0.000
2664.000,-64.941,-40.039,-21.484,-34.180,0.000
2668.000,-84.961,-35.156,-24.414,-61.035,0.000
2672.000,-79.590,-41.016,-31.250,-62.988,0.000
2676.000,-86.914,-57.129,-30.762,-60.547,0.000
2680.000,-106.445,-55.176,-30.762,-83.496,0.000
2684.000,-134.277,-58.105,-32.715,-114.258,0.000
2688.000,-141.602,-62.012,-33.691,-113.281,0.000
2691.000,-145.996,-58.105,-36.621,-120.117,0.000
2695.000,-168.945,-58.105,-35.156,-142.090,0.000
2699.000,-166.504,-60.059,-34.180,-155.762,0.000
2703.000,-162.109,-66.895,-38.574,-173.340,0.000
2707.000,-163.574,-70.801,-41.016,-173.828,0.000
2711.000,-172.363,-73.242,-39.062,-162.109,0.000
2715.000,-183.594,-70.312,-35.645,-157.227,0.000
2719.000,-183.594,-63.965,-36.621,-167.480,0.000
2723.000,-168.945,-59.082,-34.180,-165.039,0.000
2727.000,-155.273,-60.547,-35.645,-156.738,0.000
2730.000,-152.344,-65.918,-40.527,-163.574,0.000
2734.000,-141.113,-64.453,-39.551,-157.715,0.000
2738.000,-117.676,-57.129,-35.645,-137.207,0.000
2742.000,-120.605,-62.012,-35.156,-132.812,0.000
2746.000,-128.906,-64.941,-37.109,-132.324,0.000
2750.000,-128.418,-55.664,-34.668,-124.023,0.000
2754.000,-128.418,-52.734,-33.691,-113.281,0.000
2758.000,-107.422,-54.688,-30.762,-95.215,0.000
2762.000,-92.773,-54.688,-34.180,-87.402,0.000
2766.000,-95.215,-50.293,-36.133,-87.891,0.000
2770.000,-95.703,-41.016,-32.227,-82.031,0.000
2773.000,-102.051,-42.480,-34.180,-65.430,0.000
2777.000,-88.867,-47.852,-31.738,-44.434,0.000
2781.000,-64.941,-44.922,-28.320,-40.527,0.000
2785.000,-57.129,-46.387,-28.809,-44.922,0.000
2789.000,-63.477,-47.852,-29.297,-43.945,0.000
2793.000,-58.105,-42.480,-30.273,-43.945,0.000
2797.000,-47.852,-36.621,-27.344,-38.574,0.000
2801.000,-50.781,-38.086,-21.484,-30.762,0.000
2805.000,-47.363,-41.016,-22.461,-30.273,0.000
2809.000,-36.621,-41.992,-24.902,-27.344,0.000
2813.000,-38.086,-42.480,-24.414,-20.020,0.000
2816.000,-29.785,-35.645,-28.809,-26.855,0.000
2820.000,-37.598,-39.062,-32.715,-27.832,0.000
2824.000,-48.828,-42.480,-30.273,-25.879,0.000
2828.000,-33.203,-36.621,-27.832,-25.879,0.000
2832.000,-8.301,-32.227,-28.809,-33.203,0.000
2836.000,-0.977,-36.133,-30.273,-47.363,0.000
2840.000,-19.531,-41.504,-30.762,-41.992,0.000
2844.000,-33.691,-36.621,-32.715,-30.762,0.000
2848.000,-53.711,-34.668,-38.086,-31.250,0.000
2852.000,-53.223,-32.715,-38.086,-40.527,0.000
2855.000,-36.621,-29.297,-33.691,-37.598,0.000
2859.000,-43.945,-32.715,-35.645,-29.785,0.000
2863.000,-35.645,-33.203,-38.574,-23.438,0.000
2867.000,-34.668,-31.738,-34.668,-31.250,0.000
2871.000,-37.598,-28.320,-31.250,-32.227,0.000
2875.000,-23.926,-30.762,-33.203,-24.902,0.000
2879.000,-25.391,-25.879,-33.203,-26.855,0.000
2883.000,-22.949,-28.320,-35.645,-32.227,0.000
2887.000,-34.668,-37.598,-41.504,-28.809,0.000
2891.000,-49.805,-29.785,-39.551,-15.137,0.000
2895.000,-36.621,-28.320,-37.109,-21.484,0.000
2898.000,-34.668,-32.227,-38.574,-37.109,0.000
2902.000,-29.785,-29.297,-40.527,-31.250,0.000
2906.000,-17.578,-30.273,-40.527,-22.949,0.000
2910.000,-25.391,-36.133,-39.551,-13.184,0.000
2914.000,-38.086,-35.156,-38.086,-15.625,0.000
2918.000,-36.621,-30.273,-34.668,-28.320,0.000
2922.000,-35.156,-31.250,-30.273,-30.273,0.000
2926.000,-28.809,-30.273,-29.785,-28.809,0.000
2930.000,-26.855,-28.320,-31.250,-34.180,0.000
2934.000,-37.598,-23.926,-34.180,-43.945,0.000
2938.000,-48.828,-24.414,-37.109,-44.434,0.000
2941.000,-40.039,-29.297,-37.109,-38.574,0.000
2945.000,-30.273,-31.250,-36.133,-30.273,0.000
2949.000,-41.016,-37.109,-33.691,-27.344,0.000
2953.000,-53.711,-35.645,-30.273,-23.926,0.000
2957.000,-49.805,-39.062,-33.203,-26.367,0.000
2961.000,-39.551,-45.898,-32.715,-26.855,0.000
2965.000,-32.715,-41.016,-25.391,-22.949,0.000
2969.000,-40.527,-39.062,-25.391,-27.344,0.000
2973.000,-42.969,-39.062,-27.344,-29.297,0.000
2977.000,-26.855,-39.551,-26.855,-25.879,0.000
2981.000,-19.043,-43.457,-31.738,-22.461,0.000
2984.000,-25.391,-36.621,-31.738,-32.715,0.000
2988.000,-35.645,-32.715,-29.785,-42.480,0.000
2992.000,-50.293,-36.133,-31.250,-29.297,0.000
2996.000,-51.758,-29.297,-31.250,-26.367,0.000
3000.000,-50.781,-25.879,-33.203,-35.156,0.000
3004.000,-47.363,-24.414,-32.227,-30.762,0.000
3008.000,-39.062,-19.043,-30.762,-11.230,0.000
3012.000,-38.574,-20.020,-32.227,-13.672,0.000
3016.000,-39.551,-20.020,-28.320,-21.484,0.000
3020.000,-37.109,-23.926,-30.273,-31.738,0.000
3023.000,-40.039,-34.180,-35.156,-43.457,0.000
3027.000,-41.016,-32.715,-31.250,-30.762,0.000
3031.000,-41.016,-23.926,-26.367,-25.391,0.000
3035.000,-39.551,-20.996,-31.738,-41.504,0.000
3039.000,-37.109,-25.391,-36.621,-43.945,0.000
3043.000,-40.039,-25.879,-34.180,-31.250,0.000
3047.000,-32.715,-27.344,-35.645,-30.273,0.000
3051.000,-12.695,-23.926,-38.574,-41.504,0.000
3055.000,3.418,-24.414,-37.598,-43.457,0.000
3059.000,-3.906,-28.809,-36.621,-24.414,0.000
3063.000,-29.297,-22.461,-34.668,-6.836,0.000
3066.000,-41.504,-17.578,-35.645,-19.531,0.000
3070.000,-52.734,-20.508,-37.109,-33.691,0.000
3074.000,-53.223,-21.484,-36.621,-29.785,0.000
3078.000,-34.180,-20.020,-38.086,-17.090,0.000
3082.000,-21.973,-22.461,-35.156,-12.207,0.000
3086.000,-20.020,-23.438,-34.180,-9.766,0.000
3090.000,-39.062,-27.344,-33.691,1.465,0.000
3094.000,-44.434,-24.902,-30.762,14.648,0.000
3098.000,-39.062,-19.531,-30.273,14.648,0.000
3102.000,-37.598,-19.043,-30.762,-9.277,0.000
3106.000,-23.926,-13.672,-38.086,-6.836,0.000
3109.000,-15.625,-16.602,-41.992,5.371,0.000
3113.000,0.977,-18.555,-38.574,1.953,0.000
3117.000,-3.418,-14.160,-37.109,-20.996,0.000
3121.000,-7.324,-12.695,-39.062,-27.832,0.000
3125.000,5.371,-10.254,-36.621,0.000,0.000
3129.000,7.324,-9.277,-35.156,0.000,0.000
3133.000,7.324,-8.301,-36.621,-14.648,0.000
3137.000,13.672,-4.395,-34.180,-10.742,0.000
3141.000,19.043,1.953,-31.738,3.906,0.000
3145.000,21.484,-1.465,-34.180,11.230,0.000
3148.000,28.809,-1.953,-35.645,9.766,0.000
3152.000,57.617,3.418,-28.320,17.578,0.000
3156.000,70.312,2.441,-26.367,28.809,0.000
3160.000,46.875,-3.906,-28.320,40.527,0.000
3164.000,23.926,-5.371,-25.391,33.203,0.000
3168.000,22.949,-4.395,-32.715,17.578,0.000
3172.000,43.945,-8.789,-33.203,27.344,0.000
3176.000,51.270,-8.301,-26.367,56.641,0.000
3180.000,30.273,-8.301,-29.297,65.918,0.000
3184.000,8.789,-10.254,-31.738,52.734,0.000
3188.000,12.207,-9.766,-28.320,44.434,0.000
3191.000,20.020,-17.578,-30.762,52.246,0.000
3195.000,27.832,-15.137,-27.832,65.430,0.000
3199.000,38.574,-8.301,-27.832,56.152,0.000
3203.000,39.551,-9.277,-27.832,54.688,0.000
3207.000,34.180,-12.695,-26.367,50.293,0.000
3211.000,42.480,-10.742,-32.227,32.227,0.000
3215.000,43.457,-7.324,-34.180,18.555,0.000
3219.000,41.992,-15.137,-34.668,16.113,0.000
3223.000,42.480,-8.789,-34.668,24.902,0.000
3227.000,30.273,-5.859,-31.738,22.949,0.000
3231.000,37.109,-8.789,-28.320,18.066,0.000
3234.000,54.199,-6.348,-27.832,20.996,0.000
3238.000,48.340,-7.812,-30.762,23.926,0.000
3242.000,38.086,-14.160,-33.203,34.180,0.000
3246.000,46.875,-16.113,-27.344,38.574,0.000
3250.000,62.988,-9.277,-19.043,30.762,0.000
3254.000,59.082,-11.719,-27.832,30.273,0.000
3258.000,22.461,-17.090,-32.715,35.156,0.000
3262.000,1.465,-19.531,-28.320,44.434,0.000
3266.000,20.020,-16.602,-27.344,49.805,0.000
3270.000,38.574,-8.789,-26.367,33.203,0.000
3273.000,30.273,-7.812,-25.391,18.066,0.000
3277.000,25.879,-14.648,-28.320,23.926,0.000
3281.000,-3.418,-16.602,-31.250,28.320,0.000
3285.000,-32.715,-17.090,-28.320,6.348,0.000
3289.000,-19.043,-22.461,-25.879,-3.418,0.000
3293.000,-5.859,-20.508,-31.250,11.230,0.000
3297.000,2.930,-15.137,-31.738,7.812,0.000
3301.000,-0.488,-19.043,-31.250,-6.348,0.000
3305.000,6.348,-19.043,-28.809,-7.812,0.000
3309.000,17.090,-16.602,-27.832,-0.977,0.000
3313.000,-11.230,-28.320,-32.715,-3.418,0.000
3316.000,-29.297,-35.156,-32.227,-20.996,0.000
3320.000,-26.367,-30.273,-32.715,-26.367,0.000
3324.000,-33.203,-28.809,-30.273,-19.043,0.000
3328.000,-43.945,-26.367,-26.855,-18.066,0.000
3332.000,-37.598,-23.438,-30.273,-28.809,0.000
3336.000,-20.996,-30.762,-31.250,-39.551,0.000
3340.000,-7.812,-32.715,-27.832,-42.969,0.000
3344.000,-11.230,-30.762,-26.367,-37.109,0.000
3348.000,-18.555,-29.297,-25.391,-35.156,0.000
3352.000,-29.785,-32.227,-24.902,-42.480,0.000
3356.000,-49.316,-37.109,-29.785,-35.645,0.000
3359.000,-57.617,-35.156,-35.645,-44.922,0.000
3363.000,-64.453,-40.527,-32.227,-53.711,0.000
3367.000,-56.641,-40.527,-27.344,-45.898,0.000
3371.000,-54.688,-36.133,-28.320,-46.387,0.000
