timestamp,TP9,AF7,AF8,TP10,Right AUX
1673805644.128,-22.461,-20.996,-22.461,-22.461,0.000
1673805644.132,-11.230,-7.812,-13.672,-31.738,0.000
1673805644.136,-2.441,-6.836,-12.695,-27.344,0.000
1673805644.140,-4.395,-20.996,-3.906,-17.578,0.000
1673805644.144,-23.926,-21.973,-8.789,-20.020,0.000
1673805644.148,-35.156,-28.809,-17.090,-18.066,0.000
1673805644.152,-21.973,-24.414,-20.020,-20.020,0.000
1673805644.155,-4.883,-13.184,-16.602,-12.695,0.000
1673805644.159,-20.508,-19.043,-20.996,-11.230,0.000
1673805644.163,-44.922,-25.879,-30.273,-14.160,0.000
1673805644.167,-30.762,-26.855,-26.367,-15.625,0.000
1673805644.171,-14.648,-24.414,-27.832,-19.043,0.000
1673805644.175,-18.555,-32.715,-39.062,-19.043,0.000
1673805644.179,-15.137,-25.391,-34.668,-20.996,0.000
1673805644.183,-22.949,-7.812,-29.297,-18.555,0.000
1673805644.187,-44.434,-7.812,-27.344,-13.672,0.000
1673805644.191,-42.969,-28.809,-23.926,-3.906,0.000
1673805644.195,-31.738,-32.715,-28.320,-7.324,0.000
1673805644.198,-22.461,-23.926,-28.320,-21.484,0.000
1673805644.202,-27.344,-26.855,-24.902,-20.996,0.000
1673805644.206,-40.527,-26.855,-24.902,-32.715,0.000
1673805644.210,-36.621,-19.531,-25.391,-35.645,0.000
1673805644.214,-16.602,-27.344,-33.691,-23.438,0.000
1673805644.218,-13.184,-36.621,-34.180,-23.926,0.000
1673805644.222,-32.227,-34.180,-26.855,-20.508,0.000
1673805644.226,-37.598,-25.879,-30.762,-13.672,0.000
1673805644.230,-34.180,-19.043,-29.297,-20.508,0.000
1673805644.234,-35.645,-24.902,-24.902,-23.926,0.000
1673805644.237,-33.691,-28.320,-27.344,-21.484,0.000
1673805644.241,-13.672,-19.043,-26.855,-30.273,0.000
1673805644.245,8.789,-10.254,-20.996,-25.879,0.000
1673805644.249,1.953,-23.926,-24.414,-32.715,0.000
1673805644.253,-13.672,-41.016,-35.156,-45.410,0.000
1673805644.257,2.441,-33.691,-41.992,-25.879,0.000
1673805644.261,-10.742,-21.484,-38.574,-21.484,0.000
1673805644.265,-43.457,-30.273,-28.809,-25.391,0.000
1673805644.269,-26.367,-25.391,-28.809,-19.043,0.000
1673805644.273,-21.973,-23.926,-25.391,-13.184,0.000
1673805644.277,-34.180,-34.668,-20.996,-16.113,0.000
1673805644.280,-42.969,-35.156,-24.414,-20.020,0.000
1673805644.284,-51.758,-36.621,-37.598,-17.090,0.000
1673805644.288,-58.105,-37.598,-39.062,-12.695,0.000
1673805644.292,-59.570,-33.691,-29.297,-3.418,0.000
1673805644.296,-44.922,-35.156,-34.180,-5.859,0.000
1673805644.300,-32.227,-33.203,-35.645,-5.859,0.000
1673805644.304,-27.344,-26.855,-28.320,-1.465,0.000
1673805644.308,-29.297,-19.043,-22.949,-18.555,0.000
1673805644.312,-32.715,-19.043,-19.043,-26.855,0.000
1673805644.316,-36.621,-30.273,-21.484,-29.785,0.000
1673805644.320,-41.992,-34.180,-37.598,-30.762,0.000
1673805644.323,-19.531,-33.691,-30.273,-23.926,0.000
1673805644.327,-2.441,-26.855,-17.090,-19.043,0.000
1673805644.331,-16.113,-34.180,-13.184,-8.789,0.000
1673805644.335,-35.156,-38.086,-13.672,6.836,0.000
1673805644.339,-44.922,-29.297,-22.949,0.488,0.000
1673805644.343,-24.902,-25.879,-22.949,-2.930,0.000
1673805644.347,-9.766,-28.320,-22.949,-4.883,0.000
1673805644.351,-2.441,-30.273,-22.461,-12.207,0.000
1673805644.355,-6.836,-30.762,-25.391,-13.184,0.000
1673805644.359,-14.160,-29.297,-39.062,-23.926,0.000
1673805644.362,-28.320,-31.738,-35.156,-28.320,0.000
1673805644.366,-41.016,-30.762,-25.391,-23.438,0.000
1673805644.370,-35.645,-29.297,-30.273,-20.020,0.000
1673805644.374,-34.668,-29.785,-30.762,-23.926,0.000
1673805644.378,-34.180,-30.273,-29.785,-27.344,0.000
1673805644.382,-25.879,-30.762,-36.133,-31.738,0.000
1673805644.386,-6.348,-38.574,-39.062,-22.949,0.000
1673805644.390,-6.348,-31.250,-32.715,-11.719,0.000
1673805644.394,-18.555,-6.836,-16.602,3.418,0.000
1673805644.398,-34.180,-15.137,-14.648,8.789,0.000
1673805644.402,-40.527,-24.902,-29.785,-13.672,0.000
1673805644.405,-30.273,-24.902,-41.016,-15.137,0.000
1673805644.409,-23.926,-28.809,-36.133,-5.371,0.000
1673805644.413,-18.066,-20.996,-33.691,-29.785,0.000
1673805644.417,-26.855,-21.484,-29.785,-29.785,0.000
1673805644.421,-48.828,-29.785,-20.020,-12.695,0.000
1673805644.425,-40.039,-39.062,-30.762,-21.973,0.000
1673805644.429,-32.715,-40.527,-34.180,-29.785,0.000
1673805644.433,-29.785,-26.367,-24.902,-23.438,0.000
1673805644.437,-57.129,-28.320,-19.531,-13.184,0.000
1673805644.441,-72.266,-33.203,-24.414,-11.719,0.000
1673805644.444,-48.828,-38.574,-31.738,-16.113,0.000
1673805644.448,-40.039,-46.387,-31.738,-26.855,0.000
1673805644.452,-40.039,-43.945,-24.414,-23.926,0.000
1673805644.456,-36.621,-42.480,-20.508,-18.066,0.000
1673805644.460,-39.062,-35.156,-22.949,-24.902,0.000
1673805644.464,-34.668,-29.785,-25.391,-31.250,0.000
1673805644.468,-23.438,-35.156,-30.273,-28.320,0.000
1673805644.472,-38.574,-38.086,-28.320,-27.344,0.000
1673805644.476,-46.875,-41.504,-21.973,-24.414,0.000
1673805644.480,-38.574,-39.551,-28.320,-27.344,0.000
1673805644.484,-31.250,-30.273,-39.062,-23.926,0.000
1673805644.487,-36.621,-35.645,-41.992,-7.812,0.000
1673805644.491,-41.504,-38.086,-47.852,-16.113,0.000
1673805644.495,-31.250,-33.691,-56.152,-24.414,0.000
1673805644.499,-25.391,-34.668,-46.387,-28.809,0.000
1673805644.503,-17.578,-29.297,-29.785,-32.227,0.000
1673805644.507,-3.418,-36.133,-29.785,-29.785,0.000
1673805644.511,10.254,-36.621,-36.621,-26.855,0.000
1673805644.515,2.930,-32.715,-28.809,-26.367,0.000
1673805644.519,-46.875,-36.133,-26.855,-24.414,0.000
1673805644.523,-67.383,-39.551,-33.203,-27.344,0.000
1673805644.527,-41.992,-28.320,-26.855,-23.926,0.000
1673805644.530,-26.855,-20.508,-43.457,-24.414,0.000
1673805644.534,-11.230,-23.438,-54.199,-26.367,0.000
1673805644.538,-14.160,-31.738,-38.574,-18.066,0.000
1673805644.542,-38.086,-35.156,-36.133,-12.207,0.000
1673805644.546,-49.805,-23.926,-32.227,-12.207,0.000
1673805644.550,-45.410,-22.461,-36.621,-12.695,0.000
1673805644.554,-41.504,-20.508,-39.062,-14.648,0.000
1673805644.558,-37.598,-16.602,-34.668,-20.508,0.000
1673805644.562,-31.250,-17.090,-35.156,-20.508,0.000
1673805644.566,-21.484,-16.113,-37.598,-22.461,0.000
1673805644.569,-24.902,-27.344,-39.062,-22.461,0.000
1673805644.573,-28.809,-30.762,-33.203,-12.207,0.000
1673805644.577,-30.273,-20.020,-35.645,-11.719,0.000
1673805644.581,-31.250,-24.902,-39.551,-19.043,0.000
1673805644.585,-24.414,-30.762,-39.062,-24.414,0.000
1673805644.589,-20.996,-30.762,-42.969,-27.344,0.000
1673805644.593,-10.742,-24.902,-29.297,-26.367,0.000
1673805644.597,-12.695,-26.855,-27.832,-37.109,0.000
1673805644.601,-18.066,-42.480,-32.715,-43.945,0.000
1673805644.605,-33.691,-52.734,-30.273,-42.480,0.000
1673805644.609,-40.039,-41.992,-35.645,-41.992,0.000
1673805644.612,-42.480,-32.715,-36.133,-39.551,0.000
1673805644.616,-31.738,-33.691,-25.879,-34.180,0.000
1673805644.620,-18.555,-36.621,-19.531,-23.438,0.000
1673805644.624,-30.762,-36.621,-21.484,-23.926,0.000
1673805644.628,-52.246,-46.875,-15.625,-28.809,0.000
1673805644.632,-67.871,-51.270,-25.391,-29.297,0.000
1673805644.636,-75.195,-31.250,-37.109,-32.715,0.000
1673805644.640,-62.988,-25.391,-28.320,-27.344,0.000
1673805644.644,-42.969,-30.273,-32.227,-29.785,0.000
1673805644.648,-31.738,-34.180,-38.574,-29.297,0.000
1673805644.652,-43.945,-41.504,-37.109,-24.902,0.000
1673805644.655,-45.410,-38.086,-36.133,-31.250,0.000
1673805644.659,-36.621,-27.344,-31.738,-24.902,0.000
1673805644.663,-41.504,-37.598,-30.273,-14.648,0.000
1673805644.667,-42.480,-42.480,-33.203,-21.973,0.000
1673805644.671,-30.273,-33.203,-33.203,-34.668,0.000
1673805644.675,-35.645,-42.969,-34.180,-27.344,0.000
1673805644.679,-40.039,-46.387,-32.227,-21.484,0.000
1673805644.683,-31.738,-31.738,-32.227,-27.832,0.000
1673805644.687,-20.508,-20.020,-31.738,-20.508,0.000
1673805644.691,-12.207,-18.066,-33.691,-18.066,0.000
1673805644.694,-8.789,-32.715,-32.715,-30.273,0.000
1673805644.698,-7.812,-37.598,-30.762,-29.297,0.000
1673805644.702,-10.254,-21.484,-29.785,-24.902,0.000
1673805644.706,-14.648,-22.949,-20.020,-29.785,0.000
1673805644.710,-22.949,-30.762,-15.137,-33.203,0.000
1673805644.714,-42.969,-28.320,-17.090,-21.973,0.000
1673805644.718,-43.457,-36.621,-19.043,-18.066,0.000
1673805644.722,-12.207,-30.762,-19.531,-16.113,0.000
1673805644.726,-8.301,-31.250,-27.344,-16.113,0.000
1673805644.730,-30.273,-44.922,-35.156,-37.109,0.000
1673805644.734,-14.648,-40.039,-31.250,-42.969,0.000
1673805644.737,-11.230,-33.691,-34.668,-31.250,0.000
1673805644.741,-24.414,-35.156,-32.715,-21.484,0.000
1673805644.745,-31.738,-36.621,-29.785,-22.461,0.000
1673805644.749,-56.152,-34.668,-39.062,-25.391,0.000
1673805644.753,-45.898,-36.621,-36.133,-25.879,0.000
1673805644.757,-29.297,-30.762,-38.086,-25.879,0.000
1673805644.761,-38.574,-38.574,-36.133,-29.297,0.000
1673805644.765,-41.992,-38.086,-20.020,-20.508,0.000
1673805644.769,-33.203,-20.996,-20.996,-17.090,0.000
1673805644.773,-37.598,-40.039,-33.691,-16.113,0.000
1673805644.777,-51.270,-50.781,-34.180,-19.043,0.000
1673805644.780,-45.898,-31.250,-29.297,-21.484,0.000
1673805644.784,-33.691,-23.438,-32.227,-23.438,0.000
1673805644.788,-37.109,-27.344,-32.227,-21.973,0.000
1673805644.792,-35.156,-32.715,-31.738,-26.367,0.000
1673805644.796,-20.508,-33.691,-30.273,-33.203,0.000
1673805644.800,-10.742,-32.227,-26.367,-23.926,0.000
1673805644.804,-17.578,-32.715,-32.227,-14.160,0.000
1673805644.808,-18.555,-29.297,-35.156,-10.742,0.000
1673805644.812,-16.113,-23.438,-23.438,-15.625,0.000
1673805644.816,-17.090,-22.461,-20.996,-20.020,0.000
1673805644.819,-6.836,-17.578,-24.902,-19.531,0.000
1673805644.823,-9.766,-14.160,-28.320,-17.090,0.000
1673805644.827,-8.301,-24.902,-27.344,-16.602,0.000
1673805644.831,-5.371,-31.250,-23.926,-16.113,0.000
1673805644.835,-2.930,-31.738,-22.461,-14.160,0.000
1673805644.839,-1.465,-20.508,-23.438,-16.113,0.000
1673805644.843,-11.719,-26.367,-27.832,-25.391,0.000
1673805644.847,-27.344,-18.066,-24.902,-27.344,0.000
1673805644.851,-41.992,-4.395,-25.391,-33.203,0.000
1673805644.855,-50.293,-21.484,-31.738,-25.879,0.000
1673805644.859,-47.852,-29.297,-23.438,-14.648,0.000
1673805644.862,-36.621,-26.855,-22.949,-10.742,0.000
1673805644.866,-43.457,-28.320,-38.574,-16.113,0.000
1673805644.870,-50.293,-23.438,-37.598,-27.832,0.000
1673805644.874,-31.738,-25.879,-19.531,-14.648,0.000
1673805644.878,-29.297,-23.926,-16.113,-13.672,0.000
1673805644.882,-40.039,-16.602,-26.367,-27.832,0.000
1673805644.886,-33.203,-24.414,-29.785,-26.855,0.000
1673805644.890,-38.574,-30.762,-29.785,-20.508,0.000
1673805644.894,-41.504,-28.320,-20.508,-13.672,0.000
1673805644.898,-28.809,-32.227,-25.391,-0.977,0.000
1673805644.902,-14.648,-31.250,-20.508,4.395,0.000
1673805644.905,-0.977,-24.902,-9.766,1.465,0.000
1673805644.909,-20.996,-22.949,-16.602,-16.113,0.000
1673805644.913,-36.133,-27.832,-22.949,-31.738,0.000
1673805644.917,-22.461,-27.344,-25.879,-36.621,0.000
1673805644.921,-10.742,-28.809,-23.926,-29.785,0.000
1673805644.925,-18.066,-31.738,-32.227,-37.598,0.000
1673805644.929,-23.926,-28.809,-38.574,-32.715,0.000
1673805644.933,-8.789,-29.785,-41.504,-16.113,0.000
1673805644.937,-10.742,-21.973,-44.922,-16.113,0.000
1673805644.941,-49.316,-25.879,-44.434,-17.578,0.000
1673805644.944,-58.105,-31.738,-35.645,-3.906,0.000
1673805644.948,-47.363,-32.715,-26.367,-0.488,0.000
1673805644.952,-57.617,-36.133,-25.879,-7.812,0.000
1673805644.956,-64.941,-36.621,-30.762,-14.648,0.000
1673805644.960,-48.828,-29.785,-35.156,-15.625,0.000
1673805644.964,-51.758,-31.738,-33.203,-13.184,0.000
1673805644.968,-56.152,-34.180,-30.273,-18.066,0.000
1673805644.972,-45.410,-37.598,-27.832,-16.113,0.000
1673805644.976,-42.480,-28.809,-23.438,-13.672,0.000
1673805644.980,-37.109,-31.250,-20.508,-4.883,0.000
1673805644.984,-34.668,-36.621,-23.926,-4.883,0.000
1673805644.987,-20.508,-35.156,-23.926,-13.184,0.000
1673805644.991,-10.742,-41.992,-31.250,-13.672,0.000
1673805644.995,-25.879,-29.297,-36.133,-27.344,0.000
1673805644.999,-34.180,-16.113,-23.926,-41.504,0.000
1673805645.003,-35.645,-25.879,-23.438,-35.156,0.000
1673805645.007,-40.527,-22.949,-27.344,-25.879,0.000
1673805645.011,-49.805,-20.020,-27.344,-10.742,0.000
1673805645.015,-63.965,-24.414,-31.738,-18.066,0.000
1673805645.019,-52.246,-24.414,-30.762,-23.926,0.000
1673805645.023,-39.062,-20.996,-34.180,-19.043,0.000
1673805645.027,-40.039,-32.227,-29.785,-29.297,0.000
1673805645.030,-32.227,-35.645,-26.855,-31.250,0.000
1673805645.034,-22.949,-30.762,-32.715,-15.137,0.000
1673805645.038,-25.391,-24.902,-38.574,-23.438,0.000
1673805645.042,-25.879,-21.484,-31.738,-23.438,0.000
1673805645.046,-17.578,-31.738,-23.926,-10.742,0.000
1673805645.050,-30.762,-34.180,-22.949,-12.207,0.000
1673805645.054,-50.293,-22.461,-23.438,-2.441,0.000
1673805645.058,-50.293,-20.996,-29.297,0.977,0.000
1673805645.062,-30.762,-41.992,-33.691,-4.883,0.000
1673805645.066,-11.230,-53.711,-29.297,-9.766,0.000
1673805645.069,-5.859,-31.250,-31.250,-7.324,0.000
1673805645.073,-13.672,-21.484,-45.898,-13.184,0.000
1673805645.077,-37.598,-34.668,-46.875,-26.367,0.000
1673805645.081,-40.527,-28.809,-21.484,-25.391,0.000
1673805645.085,-33.203,-16.602,-15.137,-21.973,0.000
1673805645.089,-45.410,-27.832,-33.203,-35.156,0.000
1673805645.093,-55.664,-35.156,-35.156,-41.992,0.000
1673805645.097,-53.223,-36.621,-38.086,-36.133,0.000
1673805645.101,-55.176,-38.574,-32.227,-30.762,0.000
1673805645.105,-61.523,-39.551,-22.949,-31.738,0.000
1673805645.109,-66.895,-42.969,-32.227,-28.809,0.000
1673805645.112,-49.316,-32.227,-41.992,-25.391,0.000
1673805645.116,-42.969,-24.414,-26.855,-20.508,0.000
1673805645.120,-46.875,-36.133,-20.020,-18.066,0.000
1673805645.124,-31.738,-41.504,-18.066,-14.648,0.000
1673805645.128,-16.113,-34.668,-23.926,-20.996,0.000
1673805645.132,3.418,-18.555,-33.203,-26.855,0.000
1673805645.136,-17.578,-21.973,-29.785,-22.949,0.000
1673805645.140,-50.781,-26.855,-29.297,-13.672,0.000
1673805645.144,-53.223,-34.180,-31.250,-3.906,0.000
1673805645.148,-44.434,-36.621,-32.227,-8.789,0.000
1673805645.152,-30.273,-29.785,-31.738,-20.020,0.000
1673805645.155,-24.414,-31.738,-31.738,-19.531,0.000
1673805645.159,-32.715,-28.320,-22.949,-21.484,0.000
1673805645.163,-40.527,-30.273,-22.461,-17.090,0.000
1673805645.167,-38.574,-35.156,-35.156,-21.973,0.000
1673805645.171,-35.645,-33.691,-25.391,-32.715,0.000
1673805645.175,-24.414,-30.273,-14.648,-30.762,0.000
1673805645.179,-25.879,-35.156,-23.438,-27.344,0.000
1673805645.183,-42.969,-40.527,-28.320,-22.461,0.000
1673805645.187,-41.504,-36.133,-26.855,-27.832,0.000
1673805645.191,-35.156,-27.832,-25.879,-34.668,0.000
1673805645.194,-24.902,-32.227,-28.809,-39.551,0.000
1673805645.198,-16.113,-37.109,-33.203,-40.039,0.000
1673805645.202,-18.555,-30.273,-28.809,-25.879,0.000
1673805645.206,-25.879,-34.180,-29.297,-16.113,0.000
1673805645.210,-28.320,-30.762,-46.387,-25.879,0.000
1673805645.214,-40.039,-23.926,-37.598,-26.367,0.000
1673805645.218,-24.414,-36.133,-14.160,-10.254,0.000
1673805645.222,-2.441,-43.945,-10.742,-9.766,0.000
1673805645.226,-16.113,-24.414,-11.719,-6.348,0.000
1673805645.230,-24.414,-22.461,-11.230,-1.953,0.000
1673805645.234,-20.996,-29.297,-16.602,-5.371,0.000
1673805645.237,-12.695,-18.066,-23.926,2.441,0.000
1673805645.241,-7.324,-22.949,-20.996,3.418,0.000
1673805645.245,-9.277,-21.484,-22.461,0.488,0.000
1673805645.249,-6.836,-13.184,-28.320,-5.371,0.000
1673805645.253,-0.488,-16.602,-23.438,-13.672,0.000
1673805645.257,-7.812,-23.926,-29.785,-12.207,0.000
1673805645.261,-20.996,-24.902,-41.016,-22.949,0.000
1673805645.265,-27.344,-30.273,-32.715,-23.438,0.000
1673805645.269,-26.855,-35.645,-32.715,-28.320,0.000
1673805645.273,-20.020,-17.578,-35.156,-39.062,0.000
1673805645.277,-16.113,-17.090,-29.785,-33.203,0.000
1673805645.280,-20.996,-17.090,-36.621,-27.832,0.000
1673805645.284,-29.297,-4.395,-43.457,-24.414,0.000
1673805645.288,-24.902,-12.695,-35.156,-10.742,0.000
1673805645.292,-13.672,-25.391,-27.832,-7.324,0.000
1673805645.296,-8.789,-27.832,-30.273,-7.812,0.000
1673805645.300,-3.906,-27.832,-30.762,-7.324,0.000
1673805645.304,-4.883,-41.504,-25.391,-15.625,0.000
1673805645.308,-21.973,-47.363,-20.020,-18.555,0.000
1673805645.312,-30.762,-33.691,-20.020,-9.277,0.000
1673805645.316,-12.695,-26.367,-24.414,-9.277,0.000
1673805645.319,-17.578,-15.625,-22.949,-23.438,0.000
1673805645.323,-34.668,-20.020,-21.973,-22.949,0.000
1673805645.327,-24.902,-35.645,-20.996,-0.488,0.000
1673805645.331,-24.414,-33.203,-27.344,-3.418,0.000
1673805645.335,-19.531,-30.762,-37.598,-16.113,0.000
1673805645.339,-19.043,-39.062,-36.621,-20.020,0.000
1673805645.343,-47.363,-32.227,-35.645,-23.926,0.000
1673805645.347,-66.895,-36.621,-52.246,-31.250,0.000
1673805645.351,-59.570,-49.805,-46.387,-37.598,0.000
1673805645.355,-44.922,-37.109,-25.879,-33.203,0.000
1673805645.359,-55.664,-32.715,-28.320,-39.551,0.000
1673805645.362,-58.594,-39.551,-37.598,-30.273,0.000
1673805645.366,-54.199,-36.621,-41.016,-20.996,0.000
1673805645.370,-46.387,-39.062,-34.668,-29.785,0.000
1673805645.374,-35.645,-37.598,-25.879,-32.227,0.000
1673805645.378,-35.645,-25.391,-23.926,-36.621,0.000
1673805645.382,-41.992,-27.832,-35.645,-51.758,0.000
1673805645.386,-54.688,-43.457,-42.480,-52.734,0.000
1673805645.390,-58.594,-45.898,-49.316,-48.340,0.000
1673805645.394,-43.457,-36.133,-46.387,-43.457,0.000
1673805645.398,-41.504,-46.387,-26.855,-28.320,0.000
1673805645.402,-37.598,-41.504,-18.066,-21.484,0.000
1673805645.405,-25.879,-43.457,-21.484,-20.996,0.000
1673805645.409,-16.113,-50.293,-29.297,-20.996,0.000
1673805645.413,-32.227,-43.945,-29.785,-26.367,0.000
1673805645.417,-44.434,-43.945,-25.879,-30.762,0.000
1673805645.421,-36.133,-35.156,-25.879,-16.113,0.000
1673805645.425,-27.832,-30.762,-34.180,-12.207,0.000
1673805645.429,-35.156,-28.320,-34.180,-14.648,0.000
1673805645.433,-62.988,-27.344,-22.461,-8.301,0.000
1673805645.437,-70.312,-28.320,-24.902,-8.301,0.000
1673805645.441,-43.945,-31.738,-24.414,-10.254,0.000
1673805645.444,-31.250,-37.598,-22.461,-17.090,0.000
1673805645.448,-32.715,-40.039,-27.832,-27.832,0.000
1673805645.452,-24.414,-43.457,-23.438,-23.926,0.000
1673805645.456,-25.879,-40.039,-22.461,-20.508,0.000
1673805645.460,-34.180,-32.227,-31.738,-13.184,0.000
1673805645.464,-26.367,-23.438,-29.297,-10.742,0.000
1673805645.468,-17.578,-15.137,-24.902,-7.812,0.000
1673805645.472,-14.648,-14.648,-24.902,-8.789,0.000
1673805645.476,-7.324,-26.367,-30.762,-11.719,0.000
1673805645.480,-3.418,-25.879,-46.387,-15.625,0.000
1673805645.484,5.859,-24.902,-39.062,-19.531,0.000
1673805645.487,-10.742,-28.320,-25.391,-20.508,0.000
1673805645.491,-25.391,-19.531,-23.438,-13.184,0.000
1673805645.495,-18.066,-24.902,-15.137,-10.742,0.000
1673805645.499,-8.789,-33.691,-17.578,-19.043,0.000
1673805645.503,-22.461,-30.762,-33.691,-27.832,0.000
1673805645.507,-35.645,-29.297,-38.574,-30.762,0.000
1673805645.511,-32.715,-26.855,-29.297,-25.391,0.000
1673805645.515,-20.996,-25.391,-24.414,-29.297,0.000
1673805645.519,-22.949,-23.926,-20.508,-34.668,0.000
1673805645.523,-50.293,-14.160,-29.297,-28.809,0.000
1673805645.527,-53.223,-19.043,-38.086,-30.762,0.000
1673805645.530,-39.062,-25.391,-38.574,-30.273,0.000
1673805645.534,-26.367,-28.320,-33.203,-19.043,0.000
1673805645.538,-33.203,-37.598,-31.250,-22.949,0.000
1673805645.542,-42.480,-43.945,-30.273,-35.156,0.000
1673805645.546,-36.133,-30.273,-25.879,-20.508,0.000
1673805645.550,-39.062,-29.785,-36.621,-12.695,0.000
1673805645.554,-46.875,-33.203,-43.457,-16.602,0.000
1673805645.558,-51.758,-28.320,-36.621,-16.113,0.000
1673805645.562,-50.293,-23.438,-26.855,-17.090,0.000
1673805645.566,-20.996,-22.949,-18.555,-15.137,0.000
1673805645.569,-3.418,-31.250,-19.531,-21.973,0.000
1673805645.573,-18.066,-22.949,-25.391,-19.043,0.000
1673805645.577,-23.438,-18.066,-28.809,-4.395,0.000
1673805645.581,-11.230,-29.297,-28.320,-4.883,0.000
1673805645.585,-5.371,-33.691,-27.344,-8.301,0.000
1673805645.589,-19.043,-36.621,-26.855,-9.277,0.000
1673805645.593,-20.020,-40.527,-27.344,-15.137,0.000
1673805645.597,-2.441,-24.414,-23.926,-15.625,0.000
1673805645.601,8.789,-19.043,-18.066,-9.766,0.000
1673805645.605,5.859,-30.762,-23.438,-11.230,0.000
1673805645.609,-15.137,-19.531,-23.438,-4.883,0.000
1673805645.612,-37.109,-20.020,-17.578,3.418,0.000
1673805645.616,-44.922,-29.297,-18.555,-0.488,0.000
1673805645.620,-39.551,-24.902,-20.996,-2.441,0.000
1673805645.624,-34.668,-33.691,-28.320,-8.789,0.000
1673805645.628,-31.738,-29.297,-31.250,-13.672,0.000
1673805645.632,-18.066,-2.441,-22.461,-12.207,0.000
1673805645.636,-10.254,-9.766,-19.531,-12.695,0.000
1673805645.640,-36.621,-20.996,-28.809,-12.207,0.000
1673805645.644,-52.734,-19.531,-29.297,-9.766,0.000
1673805645.648,-43.945,-21.973,-27.344,-13.672,0.000
1673805645.651,-33.691,-20.508,-26.855,-14.648,0.000
1673805645.655,-20.996,-30.273,-29.785,-3.906,0.000
1673805645.659,-23.438,-29.785,-30.762,-9.277,0.000
1673805645.663,-20.996,-24.902,-27.344,-16.113,0.000
1673805645.667,-12.695,-23.926,-35.156,-23.926,0.000
1673805645.671,-27.832,-25.879,-42.480,-35.156,0.000
1673805645.675,-39.062,-24.902,-33.691,-26.367,0.000
1673805645.679,-37.598,-18.066,-25.879,-17.578,0.000
1673805645.683,-30.762,-32.715,-29.297,-24.414,0.000
1673805645.687,-24.414,-41.016,-30.762,-26.367,0.000
1673805645.691,-38.574,-42.969,-31.738,-31.250,0.000
1673805645.694,-55.176,-44.922,-33.203,-38.574,0.000
1673805645.698,-52.734,-39.062,-28.809,-32.715,0.000
1673805645.702,-51.758,-42.969,-23.438,-27.344,0.000
1673805645.706,-45.898,-42.969,-21.484,-37.109,0.000
1673805645.710,-32.227,-47.852,-26.367,-39.062,0.000
1673805645.714,-40.527,-39.551,-28.320,-27.832,0.000
1673805645.718,-50.781,-19.531,-24.902,-30.273,0.000
1673805645.722,-42.969,-15.625,-21.973,-30.273,0.000
1673805645.726,-30.762,-20.020,-22.461,-12.207,0.000
1673805645.730,-33.203,-18.066,-20.020,-7.812,0.000
1673805645.734,-35.645,-28.320,-23.926,-13.672,0.000
1673805645.737,-24.902,-43.945,-35.156,-17.578,0.000
1673805645.741,-30.273,-38.086,-37.109,-15.137,0.000
1673805645.745,-22.461,-30.273,-20.996,-2.930,0.000
1673805645.749,-15.137,-32.227,-13.672,-0.977,0.000
1673805645.753,-24.902,-33.203,-20.996,-3.418,0.000
1673805645.757,-17.090,-33.691,-22.949,-6.836,0.000
1673805645.761,-10.742,-27.832,-24.902,-19.531,0.000
1673805645.765,-5.371,-13.184,-31.738,-24.902,0.000
1673805645.769,2.930,-19.531,-29.297,-22.461,0.000
1673805645.773,2.441,-28.809,-30.762,-6.836,0.000
1673805645.776,-1.953,-26.855,-34.180,8.301,0.000
1673805645.780,-39.551,-21.973,-27.832,0.000,0.000
1673805645.784,-50.781,-27.832,-29.297,-3.906,0.000
1673805645.788,-31.250,-26.855,-25.879,-3.906,0.000
1673805645.792,-25.391,-15.137,-17.090,3.906,0.000
1673805645.796,-9.766,-20.508,-26.855,3.418,0.000
1673805645.800,2.930,-17.578,-37.109,-3.418,0.000
1673805645.804,-4.883,-23.926,-31.250,-1.953,0.000
1673805645.808,-19.043,-26.367,-30.273,-0.977,0.000
1673805645.812,-20.996,-20.996,-25.879,0.000,0.000
1673805645.816,-17.090,-27.344,-30.273,-0.488,0.000
1673805645.819,-26.367,-20.020,-59.570,-15.137,0.000
1673805645.823,-19.043,-20.508,-45.410,-9.766,0.000
1673805645.827,-10.742,-37.109,-18.066,-7.324,0.000
1673805645.831,-19.531,-40.039,-24.414,-18.066,0.000
1673805645.835,-15.625,-38.574,-30.273,-8.789,0.000
1673805645.839,-9.277,-25.879,-33.203,-2.930,0.000
1673805645.843,-20.020,-23.438,-28.320,-14.648,0.000
1673805645.847,-40.039,-29.785,-20.996,-20.020,0.000
1673805645.851,-33.203,-33.203,-22.949,-14.648,0.000
1673805645.855,-20.508,-44.434,-25.879,-9.766,0.000
1673805645.859,-20.996,-35.645,-18.555,-12.207,0.000
1673805645.862,-20.020,-19.531,-21.484,-11.719,0.000
1673805645.866,-14.160,-20.020,-34.668,-8.301,0.000
1673805645.870,-5.371,-21.973,-34.180,-13.672,0.000
1673805645.874,-27.344,-35.156,-22.949,-18.555,0.000
1673805645.878,-42.480,-35.156,-17.090,-18.066,0.000
1673805645.882,-17.578,-24.902,-16.602,-13.672,0.000
1673805645.886,-16.113,-24.902,-20.508,-12.695,0.000
1673805645.890,-26.855,-19.531,-24.414,-7.812,0.000
1673805645.894,-17.578,-20.996,-23.926,-9.766,0.000
1673805645.898,-3.418,-31.738,-19.531,-10.742,0.000
1673805645.901,-2.441,-26.367,-22.461,-11.230,0.000
1673805645.905,-27.832,-17.578,-31.250,-0.488,0.000
1673805645.909,-29.785,-26.367,-35.156,14.160,0.000
1673805645.913,-14.648,-38.574,-23.926,6.348,0.000
1673805645.917,-13.184,-36.133,-14.648,-12.695,0.000
1673805645.921,-21.484,-29.785,-14.648,-25.391,0.000
1673805645.925,-28.809,-29.297,-15.625,-20.020,0.000
1673805645.929,-19.043,-20.996,-15.137,-12.695,0.000
1673805645.933,-8.301,-23.926,-18.066,-12.207,0.000
1673805645.937,-17.578,-28.809,-24.902,-11.230,0.000
1673805645.941,-34.668,-28.809,-19.043,-7.812,0.000
1673805645.944,-31.250,-37.109,-16.602,-8.789,0.000
1673805645.948,-8.301,-34.180,-15.625,-4.883,0.000
1673805645.952,-20.020,-34.180,-11.230,0.488,0.000
1673805645.956,-57.617,-36.621,-18.555,5.371,0.000
1673805645.960,-60.547,-35.156,-27.344,-1.953,0.000
1673805645.964,-35.645,-34.180,-25.879,-10.254,0.000
1673805645.968,-23.438,-25.879,-15.625,-8.301,0.000
1673805645.972,-20.508,-29.785,-12.207,-5.859,0.000
1673805645.976,-15.625,-41.504,-22.949,-4.395,0.000
1673805645.980,-20.996,-33.691,-16.113,-7.324,0.000
1673805645.984,-28.320,-29.297,-12.207,-2.930,0.000
1673805645.987,-19.043,-37.598,-16.113,-6.348,0.000
1673805645.991,-7.812,-41.992,-18.066,-12.695,0.000
1673805645.995,-14.648,-44.922,-25.879,-9.766,0.000
1673805645.999,-24.902,-23.438,-24.414,-3.906,0.000
1673805646.003,-34.668,-12.695,-27.344,-0.977,0.000
1673805646.007,-45.410,-30.762,-25.879,-8.789,0.000
1673805646.011,-42.480,-43.457,-19.043,-21.973,0.000
1673805646.015,-31.250,-37.109,-23.926,-23.438,0.000
1673805646.019,-22.461,-24.902,-20.996,-31.250,0.000
1673805646.023,-24.902,-36.133,-12.207,-39.551,0.000
1673805646.026,-36.133,-36.621,-16.113,-39.062,0.000
1673805646.030,-30.762,-24.414,-19.531,-40.039,0.000
1673805646.034,-40.527,-22.949,-33.691,-37.598,0.000
1673805646.038,-61.035,-35.645,-41.016,-32.227,0.000
1673805646.042,-59.082,-41.992,-29.785,-32.227,0.000
1673805646.046,-53.223,-38.086,-29.297,-36.621,0.000
1673805646.050,-51.270,-31.250,-35.645,-32.227,0.000
1673805646.054,-48.340,-30.762,-38.086,-34.180,0.000
1673805646.058,-42.480,-29.297,-47.363,-29.785,0.000
1673805646.062,-31.738,-29.297,-32.715,-6.836,0.000
1673805646.066,-43.457,-25.879,-20.020,-11.719,0.000
1673805646.069,-45.898,-23.926,-28.320,-20.020,0.000
1673805646.073,-25.879,-26.367,-34.180,-6.836,0.000
1673805646.077,-24.414,-36.621,-29.785,-4.395,0.000
1673805646.081,-25.391,-42.969,-37.109,-12.207,0.000
1673805646.085,-21.973,-40.527,-38.574,-9.766,0.000
1673805646.089,-28.320,-27.344,-33.691,-7.324,0.000
1673805646.093,-35.156,-20.020,-35.645,-8.301,0.000
1673805646.097,-37.109,-20.508,-22.461,-14.160,0.000
1673805646.101,-38.086,-17.578,-21.973,-23.926,0.000
1673805646.105,-41.016,-15.625,-26.855,-32.227,0.000
1673805646.109,-37.109,-20.508,-28.320,-26.367,0.000
1673805646.112,-33.203,-35.156,-34.180,-27.344,0.000
1673805646.116,-37.109,-27.344,-34.180,-35.156,0.000
1673805646.120,-41.992,-15.137,-37.109,-22.461,0.000
1673805646.124,-41.992,-32.227,-41.504,-35.156,0.000
1673805646.128,-44.434,-41.504,-30.273,-46.875,0.000
1673805646.132,-46.387,-32.227,-27.344,-27.344,0.000
1673805646.136,-39.062,-32.715,-43.945,-19.531,0.000
1673805646.140,-42.969,-43.945,-31.250,-24.902,0.000
1673805646.144,-33.691,-44.434,-14.648,-29.785,0.000
1673805646.148,-19.043,-31.738,-21.484,-22.461,0.000
1673805646.151,-27.832,-32.715,-22.949,-9.766,0.000
1673805646.155,-48.828,-27.832,-27.344,-1.953,0.000
1673805646.159,-39.551,-25.391,-34.180,-10.742,0.000
1673805646.163,-33.203,-37.598,-31.250,-39.062,0.000
1673805646.167,-42.480,-39.551,-21.973,-44.922,0.000
1673805646.171,-45.410,-47.363,-20.020,-37.598,0.000
1673805646.175,-54.688,-46.875,-30.762,-39.062,0.000
1673805646.179,-41.992,-36.621,-27.832,-33.203,0.000
1673805646.183,-30.762,-29.785,-31.250,-26.367,0.000
1673805646.187,-24.414,-32.715,-40.039,-22.461,0.000
1673805646.191,-11.719,-45.410,-30.762,-27.344,0.000
1673805646.194,-25.879,-41.016,-29.785,-22.949,0.000
1673805646.198,-55.664,-28.320,-37.598,-20.996,0.000
1673805646.202,-47.852,-25.391,-34.668,-21.484,0.000
1673805646.206,-33.691,-22.461,-26.367,-18.066,0.000
1673805646.210,-34.668,-26.855,-31.738,-27.832,0.000
1673805646.214,-27.832,-28.320,-41.016,-28.320,0.000
1673805646.218,-26.855,-25.391,-40.039,-23.438,0.000
1673805646.222,-23.926,-26.367,-36.133,-16.113,0.000
1673805646.226,-10.254,-30.273,-27.832,-7.324,0.000
1673805646.230,-5.859,-25.879,-21.973,-10.254,0.000
1673805646.234,-32.715,-10.742,-29.297,-19.043,0.000
1673805646.237,-29.297,-17.090,-33.203,-12.207,0.000
1673805646.241,-14.160,-24.414,-28.809,-13.184,0.000
1673805646.245,-28.320,-20.996,-44.922,-18.555,0.000
1673805646.249,-39.062,-35.645,-53.223,-19.531,0.000
1673805646.253,-32.227,-44.434,-24.902,-30.273,0.000
1673805646.257,-35.156,-35.645,-16.602,-35.645,0.000
1673805646.261,-29.297,-25.879,-25.391,-20.996,0.000
1673805646.265,-16.113,-23.438,-25.879,-8.789,0.000
1673805646.269,-10.742,-28.320,-27.832,-16.113,0.000
1673805646.273,-19.043,-33.691,-28.320,-20.020,0.000
1673805646.276,-41.504,-28.809,-26.855,-35.156,0.000
1673805646.280,-32.715,-19.531,-26.367,-35.156,0.000
1673805646.284,-27.344,-18.555,-25.391,-31.250,0.000
1673805646.288,-40.039,-26.367,-20.508,-37.109,0.000
1673805646.292,-59.570,-31.738,-24.414,-30.762,0.000
1673805646.296,-55.176,-20.996,-27.832,-20.996,0.000
1673805646.300,-49.316,-22.949,-27.344,-15.625,0.000
1673805646.304,-39.551,-30.273,-41.992,-19.531,0.000
1673805646.308,-37.109,-33.203,-37.109,-25.879,0.000
1673805646.312,-40.039,-33.203,-26.855,-26.367,0.000
1673805646.316,-37.109,-30.762,-25.391,-19.043,0.000
1673805646.319,-34.668,-31.250,-27.344,-25.391,0.000
1673805646.323,-48.828,-25.879,-36.133,-37.598,0.000
1673805646.327,-71.777,-17.578,-36.621,-29.297,0.000
1673805646.331,-62.500,-24.414,-27.344,-14.160,0.000
1673805646.335,-36.133,-36.133,-28.809,-1.465,0.000
1673805646.339,-26.855,-27.344,-34.668,-1.953,0.000
1673805646.343,-22.461,-18.066,-39.062,-20.020,0.000
1673805646.347,-19.043,-23.926,-38.574,-29.785,0.000
1673805646.351,-14.160,-32.227,-31.250,-31.250,0.000
1673805646.355,-10.742,-38.574,-30.762,-38.574,0.000
1673805646.359,-19.043,-48.340,-36.621,-31.250,0.000
1673805646.362,-21.484,-40.527,-46.875,-21.973,0.000
1673805646.366,-35.156,-22.949,-45.410,-32.227,0.000
1673805646.370,-54.199,-28.809,-32.227,-31.738,0.000
1673805646.374,-44.922,-21.484,-26.367,-27.832,0.000
1673805646.378,-34.180,-18.066,-22.461,-32.227,0.000
1673805646.382,-40.527,-26.367,-26.367,-33.203,0.000
1673805646.386,-51.758,-32.715,-32.715,-25.879,0.000
1673805646.390,-56.152,-35.156,-33.203,-22.949,0.000
1673805646.394,-44.434,-36.133,-43.945,-29.297,0.000
1673805646.398,-40.527,-37.109,-45.898,-33.203,0.000
1673805646.401,-29.785,-27.832,-39.551,-38.086,0.000
1673805646.405,-14.648,-18.555,-29.785,-31.738,0.000
1673805646.409,-41.992,-29.297,-31.738,-29.785,0.000
1673805646.413,-45.898,-28.320,-40.039,-45.898,0.000
1673805646.417,-34.180,-26.855,-37.109,-41.016,0.000
1673805646.421,-47.852,-22.949,-37.598,-20.020,0.000
1673805646.425,-41.992,-21.484,-40.527,-9.277,0.000
1673805646.429,-33.203,-25.391,-35.156,-13.184,0.000
1673805646.433,-33.203,-13.672,-26.855,-15.625,0.000
1673805646.437,-33.203,-10.742,-25.879,-18.066,0.000
1673805646.441,-25.879,-11.719,-29.297,-22.461,0.000
1673805646.444,-18.066,-16.602,-32.227,-20.020,0.000
1673805646.448,-11.719,-29.785,-30.762,-17.090,0.000
1673805646.452,-8.789,-26.367,-28.320,-14.648,0.000
1673805646.456,-3.906,-12.695,-23.438,-19.043,0.000
1673805646.460,-11.719,-9.277,-31.738,-30.762,0.000
1673805646.464,-13.672,-17.578,-34.668,-23.926,0.000
1673805646.468,-9.277,-19.043,-12.207,-15.137,0.000
1673805646.472,-14.648,-19.043,-4.883,-17.578,0.000
1673805646.476,-26.367,-18.066,-23.926,-17.578,0.000
1673805646.480,-34.668,-11.230,-28.320,-12.695,0.000
1673805646.484,-29.297,-10.254,-21.973,-7.812,0.000
1673805646.487,-26.855,-18.555,-22.461,-8.301,0.000
1673805646.491,-18.555,-32.715,-21.973,-18.555,0.000
1673805646.495,-19.531,-27.832,-26.855,-20.508,0.000
1673805646.499,-26.367,-10.742,-22.461,-11.230,0.000
1673805646.503,-40.527,-28.320,-15.137,-4.395,0.000
1673805646.507,-29.297,-39.062,-18.555,-3.418,0.000
1673805646.511,-16.602,-18.555,-20.508,-6.836,0.000
1673805646.515,-14.648,-16.113,-27.832,-10.254,0.000
1673805646.519,-10.742,-29.297,-25.391,-17.090,0.000
1673805646.523,-8.789,-21.973,-21.973,-13.672,0.000
1673805646.526,-12.207,-27.832,-35.645,-24.414,0.000
1673805646.530,-13.672,-31.250,-34.668,-34.180,0.000
1673805646.534,-33.691,-23.926,-32.227,-23.438,0.000
1673805646.538,-41.992,-22.949,-34.180,-22.461,0.000
1673805646.542,-36.621,-29.785,-22.949,-20.996,0.000
1673805646.546,-37.598,-26.855,-18.066,-23.926,0.000
1673805646.550,-37.109,-23.926,-24.414,-24.902,0.000
1673805646.554,-37.598,-32.227,-36.133,-21.973,0.000
1673805646.558,-31.250,-34.668,-31.738,-22.461,0.000
1673805646.562,-38.574,-27.344,-32.715,-22.949,0.000
1673805646.566,-27.344,-36.621,-48.340,-25.391,0.000
1673805646.569,-17.578,-44.922,-28.809,-28.809,0.000
1673805646.573,-30.762,-20.996,-14.160,-23.438,0.000
1673805646.577,-32.715,-13.184,-20.508,-20.508,0.000
1673805646.581,-23.926,-23.926,-12.207,-20.020,0.000
1673805646.585,-15.137,-24.414,-9.766,-11.230,0.000
1673805646.589,-23.438,-24.902,-20.508,-6.348,0.000
1673805646.593,-21.484,-37.109,-39.551,-9.766,0.000
1673805646.597,-23.438,-35.156,-35.156,-5.859,0.000
1673805646.601,-37.598,-35.645,-15.625,-2.441,0.000
1673805646.605,-37.109,-33.691,-20.508,-13.672,0.000
1673805646.609,-31.738,-21.973,-24.414,-23.926,0.000
1673805646.612,-23.438,-25.391,-34.668,-21.973,0.000
1673805646.616,-13.184,-25.879,-28.320,-12.207,0.000
1673805646.620,-22.461,-12.695,-4.395,-10.742,0.000
1673805646.624,-27.832,-15.625,-3.906,-9.766,0.000
1673805646.628,-31.738,-31.738,-21.484,-5.859,0.000
1673805646.632,-25.879,-35.645,-29.785,-4.883,0.000
1673805646.636,-20.020,-23.438,-30.273,-2.930,0.000
1673805646.640,-7.812,-19.043,-24.902,-1.465,0.000
1673805646.644,-13.184,-25.879,-23.438,-3.906,0.000
1673805646.648,-28.320,-39.062,-29.785,-10.254,0.000
1673805646.651,-29.785,-33.203,-39.551,-23.438,0.000
1673805646.655,-32.227,-29.297,-48.340,-18.066,0.000
1673805646.659,-32.715,-27.344,-27.832,-2.930,0.000
1673805646.663,-35.156,-20.996,-18.555,-13.672,0.000
1673805646.667,-19.043,-22.461,-27.832,-21.484,0.000
1673805646.671,-15.625,-25.879,-31.738,-19.043,0.000
1673805646.675,-36.621,-21.484,-29.785,-21.484,0.000
1673805646.679,-42.969,-23.926,-20.020,-8.789,0.000
1673805646.683,-37.109,-35.156,-23.926,-12.207,0.000
1673805646.687,-41.504,-40.527,-36.621,-21.484,0.000
1673805646.691,-45.898,-41.504,-32.227,-15.137,0.000
1673805646.694,-57.129,-35.156,-35.645,-19.043,0.000
1673805646.698,-52.734,-29.297,-48.828,-29.297,0.000
1673805646.702,-35.156,-34.180,-35.645,-21.484,0.000
1673805646.706,-25.391,-29.785,-31.250,-32.227,0.000
1673805646.710,-33.691,-22.461,-39.062,-33.691,0.000
1673805646.714,-40.039,-27.832,-40.039,-24.414,0.000
1673805646.718,-37.598,-30.273,-30.762,-35.156,0.000
1673805646.722,-41.016,-22.949,-21.484,-41.992,0.000
1673805646.726,-48.340,-38.086,-36.621,-44.434,0.000
1673805646.730,-61.523,-56.152,-48.828,-43.457,0.000
1673805646.734,-68.359,-35.156,-40.039,-33.203,0.000
1673805646.737,-52.246,-11.230,-25.879,-17.578,0.000
1673805646.741,-45.410,-27.344,-34.668,-35.156,0.000
1673805646.745,-33.203,-36.621,-55.176,-49.316,0.000
1673805646.749,-30.273,-36.133,-51.758,-34.180,0.000
1673805646.753,-34.668,-36.621,-37.109,-21.484,0.000
1673805646.757,-43.457,-24.414,-30.762,-17.578,0.000
1673805646.761,-43.457,-27.832,-36.621,-14.160,0.000
1673805646.765,-30.273,-23.926,-41.016,-2.441,0.000
1673805646.769,-25.391,-21.484,-32.715,5.371,0.000
1673805646.773,-30.762,-34.668,-24.902,5.859,0.000
1673805646.776,-41.504,-41.016,-27.344,-6.836,0.000
1673805646.780,-35.645,-33.691,-44.434,-12.695,0.000
1673805646.784,-13.672,-27.832,-42.969,-12.695,0.000
1673805646.788,-15.137,-40.039,-35.645,-23.926,0.000
1673805646.792,-29.785,-39.062,-30.273,-30.762,0.000
1673805646.796,-36.133,-32.227,-13.184,-24.414,0.000
1673805646.800,-46.387,-39.062,-25.391,-22.949,0.000
1673805646.804,-49.316,-40.527,-28.809,-24.902,0.000
1673805646.808,-34.180,-43.945,-27.344,-25.879,0.000
1673805646.812,-37.598,-31.250,-27.344,-19.531,0.000
1673805646.816,-46.387,-20.020,-25.391,-26.367,0.000
1673805646.819,-53.711,-23.438,-27.832,-37.598,0.000
1673805646.823,-44.434,-21.484,-20.508,-29.297,0.000
1673805646.827,-39.062,-23.926,-18.555,-15.137,0.000
1673805646.831,-44.922,-34.180,-26.855,-12.695,0.000
1673805646.835,-27.344,-33.203,-30.273,-14.648,0.000
1673805646.839,-24.414,-27.344,-29.785,-4.395,0.000
1673805646.843,-39.062,-48.340,-27.832,-10.254,0.000
1673805646.847,-46.387,-51.758,-24.902,-20.996,0.000
1673805646.851,-26.367,-26.367,-33.203,-22.949,0.000
1673805646.855,-14.160,-20.508,-31.738,-20.020,0.000
1673805646.858,-17.090,-24.414,-28.809,-13.672,0.000
1673805646.862,-3.906,-34.668,-34.180,-17.578,0.000
1673805646.866,-29.297,-33.691,-13.184,-29.297,0.000
1673805646.870,-40.527,-29.785,-2.441,-17.578,0.000
1673805646.874,-16.602,-41.992,-17.578,0.000,0.000
1673805646.878,-20.996,-28.809,-26.855,-1.465,0.000
1673805646.882,-12.695,-8.789,-24.902,-9.766,0.000
1673805646.886,-26.367,-28.320,-41.016,-23.926,0.000
1673805646.890,-36.621,-42.480,-46.387,-35.156,0.000
1673805646.894,-33.203,-19.531,-33.691,-41.016,0.000
1673805646.898,-34.668,-27.344,-27.344,-40.527,0.000
1673805646.901,-24.414,-33.203,-26.855,-31.250,0.000
1673805646.905,-25.391,-23.438,-36.621,-38.086,0.000
1673805646.909,-32.227,-27.344,-53.711,-39.551,0.000
1673805646.913,-21.973,-34.668,-41.992,-27.832,0.000
1673805646.917,-0.488,-20.996,-19.531,-19.043,0.000
1673805646.921,-24.902,-18.555,-29.785,-19.043,0.000
1673805646.925,-57.129,-23.926,-40.039,-23.926,0.000
1673805646.929,-52.246,-22.461,-34.180,-20.996,0.000
1673805646.933,-30.273,-17.090,-23.926,-13.184,0.000
1673805646.937,-7.324,-24.414,-19.531,-12.207,0.000
1673805646.941,-20.996,-27.344,-25.879,-17.578,0.000
1673805646.944,-27.344,-9.766,-33.203,-9.766,0.000
1673805646.948,-8.301,-14.160,-27.344,-0.488,0.000
1673805646.952,-8.301,-27.832,-29.297,0.000,0.000
1673805646.956,-14.160,-22.461,-36.621,7.812,0.000
1673805646.960,-15.625,-17.090,-29.785,13.672,0.000
1673805646.964,-26.855,-28.809,-30.273,2.930,0.000
1673805646.968,-21.484,-31.250,-29.785,-8.301,0.000
1673805646.972,-14.648,-22.949,-20.996,-8.789,0.000
1673805646.976,-33.203,-33.691,-21.973,-13.184,0.000
1673805646.980,-37.598,-31.250,-24.414,-13.672,0.000
1673805646.983,-18.555,-23.438,-20.020,-1.953,0.000
1673805646.987,-10.742,-25.391,-23.438,-4.883,0.000
1673805646.991,-19.043,-21.973,-29.297,-15.625,0.000
1673805646.995,-33.203,-19.043,-30.273,-16.113,0.000
1673805646.999,-19.531,-20.508,-31.250,-14.648,0.000
1673805647.003,-13.184,-25.879,-28.320,-19.043,0.000
1673805647.007,-11.719,-25.391,-29.785,-14.160,0.000
1673805647.011,-13.184,-24.902,-32.715,-24.414,0.000
1673805647.015,-6.836,-24.414,-37.598,-26.367,0.000
1673805647.019,-1.465,-31.250,-32.227,-23.438,0.000
1673805647.023,-30.273,-44.922,-21.484,-30.273,0.000
1673805647.026,-51.758,-41.992,-16.113,-17.578,0.000
1673805647.030,-44.434,-35.645,-19.043,-14.160,0.000
1673805647.034,-32.715,-28.809,-23.926,-10.254,0.000
1673805647.038,-38.086,-33.203,-25.391,-7.812,0.000
1673805647.042,-37.598,-31.738,-29.297,-16.113,0.000
1673805647.046,-32.227,-19.043,-30.273,-13.184,0.000
1673805647.050,-35.645,-20.508,-26.367,-9.277,0.000
1673805647.054,-51.758,-26.367,-39.551,-10.254,0.000
1673805647.058,-47.363,-19.043,-41.992,-5.371,0.000
1673805647.062,-36.133,-20.020,-17.578,-6.836,0.000
1673805647.066,-31.738,-41.016,-15.137,-20.020,0.000
1673805647.069,-36.621,-42.969,-33.691,-25.879,0.000
1673805647.073,-45.410,-33.203,-37.109,-23.926,0.000
1673805647.077,-53.223,-32.715,-31.738,-20.508,0.000
1673805647.081,-56.641,-54.688,-40.039,-9.766,0.000
1673805647.085,-45.410,-58.594,-39.551,-18.555,0.000
1673805647.089,-39.062,-33.203,-28.809,-28.809,0.000
1673805647.093,-40.039,-21.973,-22.461,-29.297,0.000
1673805647.097,-41.992,-24.414,-20.020,-30.762,0.000
1673805647.101,-39.062,-28.320,-26.367,-29.785,0.000
1673805647.105,-36.621,-31.738,-41.504,-34.180,0.000
1673805647.108,-44.434,-33.691,-43.457,-33.691,0.000
1673805647.112,-26.367,-31.738,-28.320,-28.320,0.000
1673805647.116,-13.184,-33.203,-30.762,-28.320,0.000
1673805647.120,-31.250,-25.879,-36.133,-20.020,0.000
1673805647.124,-50.293,-27.832,-31.250,-11.230,0.000
1673805647.128,-35.645,-48.828,-27.832,-9.766,0.000
1673805647.132,-17.578,-38.086,-20.020,-7.812,0.000
1673805647.136,-11.230,-24.414,-17.090,-6.348,0.000
1673805647.140,-10.254,-33.203,-25.879,0.000,0.000
1673805647.144,-36.133,-35.645,-31.738,-3.906,0.000
1673805647.148,-37.109,-33.691,-39.062,-3.906,0.000
1673805647.151,-16.113,-33.691,-36.621,-1.465,0.000
1673805647.155,-13.184,-33.203,-16.113,-2.930,0.000
1673805647.159,-21.973,-22.949,-10.254,-2.441,0.000
1673805647.163,-35.156,-22.461,-16.602,-4.883,0.000
1673805647.167,-40.527,-28.809,-32.227,-16.602,0.000
1673805647.171,-33.691,-24.902,-43.945,-18.066,0.000
1673805647.175,-37.109,-40.527,-33.203,-20.996,0.000
1673805647.179,-32.227,-54.199,-24.902,-23.926,0.000
1673805647.183,-30.762,-21.973,-22.461,-18.555,0.000
1673805647.187,-49.805,-9.766,-17.578,-23.926,0.000
1673805647.191,-41.992,-20.508,-14.160,-35.156,0.000
1673805647.194,-28.320,-22.461,-17.090,-47.852,0.000
1673805647.198,-28.809,-19.531,-23.438,-44.922,0.000
1673805647.202,-37.598,-18.555,-28.320,-32.715,0.000
1673805647.206,-49.805,-20.996,-28.809,-41.992,0.000
1673805647.210,-42.969,-20.508,-32.227,-42.969,0.000
1673805647.214,-26.367,-23.926,-38.574,-35.156,0.000
1673805647.218,-24.414,-35.156,-29.297,-33.691,0.000
1673805647.222,-34.180,-39.551,-25.879,-25.879,0.000
1673805647.226,-34.180,-46.875,-32.227,-19.531,0.000
1673805647.230,-35.156,-44.434,-35.645,-22.461,0.000
1673805647.233,-41.016,-25.391,-33.691,-30.762,0.000
1673805647.237,-49.316,-10.254,-20.020,-28.320,0.000
1673805647.241,-48.340,-10.254,-16.602,-18.066,0.000
1673805647.245,-45.410,-26.855,-19.531,-10.742,0.000
1673805647.249,-51.758,-36.621,-27.344,-10.742,0.000
1673805647.253,-40.527,-27.832,-24.902,-21.973,0.000
1673805647.257,-25.391,-20.996,-20.020,-23.926,0.000
1673805647.261,-32.715,-25.879,-26.367,-10.742,0.000
1673805647.265,-32.227,-26.855,-34.180,-13.184,0.000
1673805647.269,-27.344,-27.344,-34.668,-15.137,0.000
1673805647.273,-20.996,-37.598,-37.109,-15.137,0.000
1673805647.276,-24.902,-35.645,-33.203,-22.461,0.000
1673805647.280,-36.621,-24.414,-35.645,-7.812,0.000
1673805647.284,-21.484,-39.062,-42.480,4.883,0.000
1673805647.288,-9.766,-45.898,-25.879,5.859,0.000
1673805647.292,-16.602,-30.273,-20.508,-3.418,0.000
1673805647.296,-21.484,-21.484,-17.578,-28.809,0.000
1673805647.300,-23.926,-21.484,-13.184,-31.250,0.000
1673805647.304,-40.527,-25.879,-20.508,-29.785,0.000
1673805647.308,-49.805,-36.133,-24.414,-24.414,0.000
1673805647.312,-27.832,-34.668,-25.391,-13.184,0.000
1673805647.316,-32.227,-25.879,-21.973,-21.484,0.000
1673805647.319,-36.133,-33.691,-30.762,-34.180,0.000
1673805647.323,-36.621,-35.645,-42.969,-23.438,0.000
1673805647.327,-44.434,-24.902,-27.832,-16.602,0.000
1673805647.331,-41.016,-17.578,-18.555,-14.648,0.000
1673805647.335,-26.855,-12.695,-21.484,-10.254,0.000
1673805647.339,-23.438,-31.738,-33.203,-16.602,0.000
1673805647.343,-38.574,-49.805,-34.668,-20.020,0.000
1673805647.347,-44.434,-30.762,-26.855,-20.020,0.000
1673805647.351,-35.156,-13.672,-30.273,-19.043,0.000
1673805647.355,-37.109,-24.414,-38.574,-26.855,0.000
1673805647.358,-51.270,-31.250,-33.691,-33.203,0.000
1673805647.362,-41.992,-31.250,-38.086,-35.156,0.000
1673805647.366,-29.785,-45.410,-40.527,-28.320,0.000
1673805647.370,-38.574,-33.691,-24.902,-17.578,0.000
1673805647.374,-46.387,-9.277,-26.855,-14.160,0.000
1673805647.378,-47.852,-14.160,-30.762,-17.578,0.000
1673805647.382,-28.320,-19.043,-26.855,-17.090,0.000
1673805647.386,-30.273,-22.949,-30.762,-15.137,0.000
1673805647.390,-48.340,-23.438,-31.738,-4.883,0.000
1673805647.394,-41.504,-22.949,-27.344,-0.977,0.000
1673805647.398,-32.715,-26.367,-29.297,-1.465,0.000
1673805647.401,-47.363,-27.832,-30.273,-11.230,0.000
1673805647.405,-54.688,-26.367,-30.762,-18.066,0.000
1673805647.409,-48.828,-31.250,-25.879,-19.531,0.000
1673805647.413,-44.922,-45.410,-15.625,-28.320,0.000
1673805647.417,-37.109,-51.758,-30.273,-18.066,0.000
1673805647.421,-26.367,-28.320,-28.320,-16.113,0.000
1673805647.425,-25.391,-13.672,-18.066,-31.738,0.000
1673805647.429,-37.109,-20.508,-25.391,-39.062,0.000
1673805647.433,-46.875,-22.461,-38.574,-32.715,0.000
1673805647.437,-43.945,-28.320,-44.434,-18.555,0.000
1673805647.441,-41.016,-39.062,-27.344,-8.789,0.000
1673805647.444,-51.270,-38.574,-20.508,-17.578,0.000
1673805647.448,-36.133,-38.086,-24.902,-25.391,0.000
1673805647.452,-10.742,-41.504,-35.156,-19.043,0.000
1673805647.456,-22.461,-31.738,-35.156,-15.625,0.000
1673805647.460,-31.738,-32.715,-17.578,-19.043,0.000
1673805647.464,-22.949,-32.715,-17.090,-17.578,0.000
1673805647.468,-33.203,-18.555,-25.879,-6.348,0.000
1673805647.472,-43.457,-20.020,-29.297,-2.930,0.000
1673805647.476,-32.227,-21.484,-29.297,-6.836,0.000
1673805647.480,-28.809,-28.809,-26.855,-8.789,0.000
1673805647.483,-38.086,-30.762,-24.902,-11.230,0.000
1673805647.487,-44.434,-23.438,-26.367,4.883,0.000
1673805647.491,-45.410,-32.715,-36.133,11.719,0.000
1673805647.495,-39.062,-49.805,-35.645,2.930,0.000
1673805647.499,-28.809,-41.504,-31.250,7.812,0.000
1673805647.503,-25.391,-19.043,-18.555,0.977,0.000
1673805647.507,-25.391,-20.996,-16.113,-26.367,0.000
1673805647.511,-24.902,-30.273,-18.066,-33.691,0.000
1673805647.515,-18.066,-35.156,-22.949,-20.020,0.000
1673805647.519,-23.438,-33.203,-29.785,-12.695,0.000
1673805647.523,-31.738,-32.715,-27.344,-20.508,0.000
1673805647.526,-19.043,-31.738,-22.949,-21.973,0.000
1673805647.530,-16.113,-45.898,-27.832,-20.020,0.000
1673805647.534,-14.160,-48.828,-36.621,-27.344,0.000
1673805647.538,-37.598,-23.438,-36.621,-23.438,0.000
1673805647.542,-30.762,-10.742,-28.320,-13.672,0.000
1673805647.546,-1.953,-16.602,-24.414,-7.812,0.000
1673805647.550,-20.508,-20.508,-30.273,-10.254,0.000
1673805647.554,-31.738,-19.531,-43.457,-18.555,0.000
1673805647.558,-25.391,-12.695,-40.039,-14.648,0.000
1673805647.562,-36.133,-12.695,-20.020,-8.789,0.000
1673805647.566,-40.039,-12.207,-16.113,-3.906,0.000
1673805647.569,-50.293,-23.926,-29.785,0.000,0.000
1673805647.573,-50.781,-44.434,-40.039,5.371,0.000
1673805647.577,-29.785,-32.715,-25.879,12.207,0.000
1673805647.581,-17.090,-33.203,-12.207,5.371,0.000
1673805647.585,-22.949,-36.621,-14.648,-2.930,0.000
1673805647.589,-35.645,-20.020,-20.996,-9.766,0.000
1673805647.593,-30.762,-15.137,-24.902,-19.531,0.000
1673805647.597,-21.484,-28.809,-23.926,-4.883,0.000
1673805647.601,-11.719,-34.668,-24.414,2.930,0.000
1673805647.605,-15.137,-11.719,-25.879,-9.277,0.000
1673805647.608,-19.043,-15.625,-40.039,-21.973,0.000
1673805647.612,-25.391,-30.762,-37.109,-25.879,0.000
1673805647.616,-31.738,-26.367,-26.855,-27.832,0.000
1673805647.620,-25.391,-23.926,-33.691,-37.109,0.000
1673805647.624,-22.461,-27.344,-27.832,-34.668,0.000
1673805647.628,-29.297,-28.809,-21.973,-33.203,0.000
1673805647.632,-51.758,-20.020,-25.879,-25.879,0.000
1673805647.636,-49.316,-26.855,-19.531,-10.742,0.000
1673805647.640,-33.203,-26.855,-26.367,-6.836,0.000
1673805647.644,-43.457,-23.926,-26.855,-11.719,0.000
1673805647.648,-38.574,-30.273,-14.648,-8.789,0.000
1673805647.651,-25.391,-33.691,-20.996,-9.277,0.000
1673805647.655,-29.297,-43.457,-20.508,-26.367,0.000
1673805647.659,-20.508,-40.039,-20.996,-32.227,0.000
1673805647.663,0.000,-30.762,-26.855,-24.414,0.000
1673805647.667,-1.953,-22.949,-20.996,-7.324,0.000
1673805647.671,-15.137,-23.926,-22.949,-13.672,0.000
1673805647.675,-21.973,-24.902,-34.180,-16.113,0.000
1673805647.679,-26.367,-27.832,-34.180,1.953,0.000
1673805647.683,-34.180,-20.020,-24.902,0.000,0.000
1673805647.687,-22.949,-21.973,-15.625,-11.230,0.000
1673805647.691,-9.277,-31.250,-12.207,-20.996,0.000
1673805647.694,-6.348,-24.902,-19.531,-25.879,0.000
1673805647.698,-10.254,-20.996,-23.438,-24.902,0.000
1673805647.702,-32.227,-29.785,-30.762,-29.297,0.000
1673805647.706,-46.387,-44.922,-36.133,-38.086,0.000
1673805647.710,-47.363,-36.621,-31.250,-30.762,0.000
1673805647.714,-41.992,-25.879,-23.926,-18.066,0.000
1673805647.718,-48.340,-27.344,-22.461,-17.578,0.000
1673805647.722,-47.852,-28.809,-24.414,-9.766,0.000
1673805647.726,-36.133,-29.297,-23.438,-4.883,0.000
1673805647.730,-31.250,-41.504,-28.320,-18.066,0.000
1673805647.733,-16.602,-48.828,-27.832,-30.762,0.000
1673805647.737,-18.555,-29.785,-42.969,-21.484,0.000
1673805647.741,-24.902,-19.043,-58.594,-17.578,0.000
1673805647.745,-17.090,-22.949,-28.320,-12.207,0.000
1673805647.749,-20.020,-19.043,-8.789,-8.789,0.000
1673805647.753,-19.043,-28.809,-16.602,-15.137,0.000
1673805647.757,-17.578,-37.109,-20.020,-17.578,0.000
1673805647.761,-9.766,-33.691,-26.367,-22.949,0.000
1673805647.765,-21.484,-32.227,-31.250,-21.973,0.000
1673805647.769,-38.086,-41.992,-22.949,-10.254,0.000
1673805647.773,-33.203,-39.551,-20.996,-3.906,0.000
1673805647.776,-44.922,-21.973,-30.273,-16.602,0.000
1673805647.780,-42.480,-30.273,-36.621,-16.602,0.000
1673805647.784,-36.133,-31.738,-28.320,-12.695,0.000
1673805647.788,-42.969,-30.762,-24.902,-21.484,0.000
1673805647.792,-48.828,-31.738,-30.762,-29.297,0.000
1673805647.796,-50.293,-29.297,-24.902,-20.020,0.000
1673805647.800,-35.645,-31.738,-13.672,-8.789,0.000
1673805647.804,-30.762,-31.738,-19.531,-22.949,0.000
1673805647.808,-33.203,-38.086,-36.133,-33.691,0.000
1673805647.812,-43.945,-35.156,-34.180,-33.691,0.000
1673805647.816,-48.340,-17.090,-25.391,-28.809,0.000
1673805647.819,-26.855,-19.043,-32.227,-22.461,0.000
1673805647.823,-36.133,-24.902,-22.461,-14.648,0.000
1673805647.827,-57.129,-33.203,-21.484,-19.531,0.000
1673805647.831,-43.457,-38.086,-28.320,-23.926,0.000
1673805647.835,-42.969,-26.367,-31.250,-18.066,0.000
1673805647.839,-52.246,-22.461,-31.738,-16.113,0.000
1673805647.843,-33.203,-28.809,-27.832,-24.414,0.000
1673805647.847,-33.203,-36.621,-22.949,-33.203,0.000
1673805647.851,-23.926,-38.086,-24.414,-33.691,0.000
1673805647.855,-15.625,-29.297,-30.273,-35.645,0.000
1673805647.858,-7.812,-20.996,-32.227,-26.855,0.000
1673805647.862,-3.906,-23.438,-29.297,-12.695,0.000
1673805647.866,-41.504,-33.691,-26.855,-14.160,0.000
1673805647.870,-51.270,-31.738,-36.133,-26.855,0.000
1673805647.874,-42.480,-22.949,-38.086,-31.738,0.000
1673805647.878,-41.016,-27.344,-33.691,-21.484,0.000
1673805647.882,-40.039,-24.902,-34.668,-6.836,0.000
1673805647.886,-32.715,-22.949,-27.832,-7.812,0.000
1673805647.890,-32.715,-32.227,-14.648,-12.207,0.000
1673805647.894,-27.832,-33.203,-11.719,-16.602,0.000
1673805647.898,-20.996,-33.691,-20.508,-12.207,0.000
1673805647.901,-40.527,-36.621,-33.203,-12.207,0.000
1673805647.905,-52.246,-29.785,-33.203,-11.230,0.000
1673805647.909,-50.293,-19.531,-28.320,-8.789,0.000
1673805647.913,-32.715,-21.973,-30.762,-12.695,0.000
1673805647.917,-40.527,-20.020,-29.785,-14.160,0.000
1673805647.921,-45.410,-24.902,-22.949,-18.066,0.000
1673805647.925,-40.039,-41.016,-23.926,-10.254,0.000
1673805647.929,-39.551,-48.828,-35.645,0.000,0.000
1673805647.933,-40.039,-46.387,-39.062,-5.859,0.000
1673805647.937,-38.574,-32.227,-35.156,-24.902,0.000
1673805647.941,-42.480,-33.691,-35.156,-28.809,0.000
1673805647.944,-60.059,-35.156,-29.297,-28.809,0.000
1673805647.948,-51.270,-21.484,-24.414,-26.855,0.000
1673805647.952,-30.273,-15.137,-25.879,-20.020,0.000
1673805647.956,-22.949,-31.250,-36.133,-31.738,0.000
1673805647.960,-32.715,-39.551,-43.945,-43.457,0.000
1673805647.964,-23.926,-32.715,-40.039,-37.598,0.000
1673805647.968,-24.414,-35.645,-37.598,-27.832,0.000
1673805647.972,-41.016,-27.832,-35.156,-26.855,0.000
1673805647.976,-31.250,-27.832,-39.551,-28.320,0.000
1673805647.980,-20.508,-32.715,-37.598,-16.113,0.000
1673805647.983,-14.648,-29.297,-35.156,-15.137,0.000
1673805647.987,-20.508,-32.715,-32.227,-24.414,0.000
1673805647.991,-24.414,-28.809,-26.367,-14.648,0.000
1673805647.995,-4.883,-31.738,-17.578,-5.371,0.000
1673805647.999,-27.832,-43.457,-17.578,-12.695,0.000
1673805648.003,-41.504,-40.039,-28.320,-17.090,0.000
1673805648.007,-31.250,-32.227,-25.879,-13.672,0.000
1673805648.011,-33.203,-22.461,-12.695,-1.465,0.000
1673805648.015,-32.227,-19.043,-18.066,1.465,0.000
1673805648.019,-48.340,-16.602,-30.273,-11.719,0.000
1673805648.023,-43.457,-30.762,-28.809,-5.859,0.000
1673805648.026,-16.602,-34.668,-31.250,-3.418,0.000
1673805648.030,-1.953,-21.973,-25.879,-7.812,0.000
1673805648.034,-14.160,-18.066,-20.996,-13.184,0.000
1673805648.038,-30.273,-21.973,-25.879,-10.742,0.000
1673805648.042,-30.273,-27.344,-27.344,-2.441,0.000
1673805648.046,-24.414,-24.414,-32.715,-2.441,0.000
1673805648.050,-23.438,-32.227,-35.156,-15.625,0.000
1673805648.054,-24.902,-42.969,-32.227,-31.738,0.000
1673805648.058,-33.691,-28.809,-37.598,-26.367,0.000
1673805648.062,-29.785,-26.855,-46.387,-20.508,0.000
1673805648.065,-26.367,-41.016,-35.156,-26.855,0.000
1673805648.069,-15.137,-23.438,-23.438,-22.461,0.000
1673805648.073,-7.324,-15.625,-22.461,-30.273,0.000
1673805648.077,-2.441,-21.484,-19.043,-34.180,0.000
1673805648.081,-11.719,-18.555,-20.020,-11.230,0.000
1673805648.085,-24.414,-17.578,-28.809,-9.766,0.000
1673805648.089,-26.855,-20.508,-37.109,-20.996,0.000
1673805648.093,-32.227,-24.414,-34.668,-27.344,0.000
1673805648.097,-31.250,-34.668,-34.668,-20.996,0.000
1673805648.101,-40.527,-33.203,-31.250,-13.184,0.000
1673805648.105,-40.039,-29.297,-26.367,-22.461,0.000
1673805648.108,-39.062,-35.156,-27.344,-20.996,0.000
1673805648.112,-38.574,-30.762,-20.508,-2.930,0.000
1673805648.116,-29.297,-31.250,-23.926,-2.930,0.000
1673805648.120,-22.949,-34.668,-31.250,-12.207,0.000
1673805648.124,-15.137,-24.902,-29.297,-9.277,0.000
1673805648.128,-22.461,-13.184,-34.180,-7.812,0.000
1673805648.132,-49.805,-16.113,-31.738,-8.301,0.000
1673805648.136,-46.387,-26.855,-22.949,-8.301,0.000
1673805648.140,-34.668,-31.738,-31.250,-16.113,0.000
1673805648.144,-38.086,-29.297,-44.922,-18.555,0.000
1673805648.148,-29.785,-33.691,-38.086,-9.766,0.000
1673805648.151,-38.086,-25.879,-29.785,-0.977,0.000
1673805648.155,-52.734,-23.926,-29.297,-3.906,0.000
1673805648.159,-34.668,-31.738,-28.320,-18.066,0.000
1673805648.163,-43.457,-23.926,-25.391,-26.367,0.000
1673805648.167,-42.969,-20.508,-20.996,-26.367,0.000
1673805648.171,-27.832,-20.996,-28.809,-33.691,0.000
1673805648.175,-21.973,-22.949,-43.457,-33.691,0.000
1673805648.179,-17.578,-22.949,-36.621,-16.602,0.000
1673805648.183,-21.973,-28.809,-21.484,-9.766,0.000
1673805648.187,-22.461,-35.156,-32.715,-5.371,0.000
1673805648.190,-28.809,-26.367,-40.039,-6.836,0.000
1673805648.194,-41.992,-23.438,-30.762,-23.926,0.000
1673805648.198,-39.551,-26.855,-20.020,-20.996,0.000
1673805648.202,-18.066,-26.367,-17.578,-16.602,0.000
1673805648.206,-8.789,-18.555,-26.855,-17.090,0.000
1673805648.210,-18.066,-5.859,-36.133,-10.742,0.000
1673805648.214,-24.902,-21.973,-42.480,-10.742,0.000
1673805648.218,-28.320,-34.668,-42.969,-16.113,0.000
1673805648.222,-32.715,-28.320,-31.738,-11.719,0.000
1673805648.226,-21.973,-13.184,-19.043,-5.859,0.000
1673805648.230,-21.484,-18.555,-23.926,-2.930,0.000
1673805648.233,-31.738,-22.461,-32.715,-1.953,0.000
1673805648.237,-28.809,-13.184,-26.367,-6.836,0.000
1673805648.241,-27.344,-22.461,-29.297,-20.996,0.000
1673805648.245,-31.738,-41.016,-38.574,-26.855,0.000
1673805648.249,-24.414,-30.273,-37.598,-19.043,0.000
1673805648.253,-24.414,-13.672,-29.785,-13.672,0.000
1673805648.257,-44.434,-20.020,-29.297,-12.695,0.000
1673805648.261,-38.086,-35.645,-46.387,-14.648,0.000
1673805648.265,-16.602,-27.344,-42.969,-26.855,0.000
1673805648.269,-5.371,-19.531,-19.043,-31.250,0.000
1673805648.273,5.371,-19.043,-21.484,-19.531,0.000
1673805648.276,10.742,-14.160,-32.227,-9.277,0.000
1673805648.280,-5.371,-9.766,-15.625,1.953,0.000
1673805648.284,-31.250,-14.648,-15.137,-9.277,0.000
1673805648.288,-43.457,-24.414,-22.949,-11.230,0.000
1673805648.292,-42.480,-28.320,-20.508,-1.953,0.000
1673805648.296,-40.527,-23.926,-19.531,-6.836,0.000
