timestamp,TP9,AF7,AF8,TP10,Right AUX
0.000,-5.371,-20.508,-26.855,-8.789,0.000
4.000,-20.508,-31.250,-32.227,-2.930,0.000
8.000,-41.016,-32.715,-30.762,1.953,0.000
12.000,-44.434,-27.344,-28.809,-4.395,0.000
16.000,-36.133,-22.461,-30.762,-5.859,0.000
20.000,-25.391,-22.461,-26.367,-2.930,0.000
23.000,-20.508,-27.832,-25.879,-20.020,0.000
27.000,-19.043,-23.926,-26.855,-30.273,0.000
31.000,-29.785,-18.066,-22.949,-16.113,0.000
35.000,-33.691,-20.996,-20.020,-18.555,0.000
39.000,-28.809,-27.832,-23.438,-31.738,0.000
43.000,-25.391,-30.273,-24.414,-23.926,0.000
47.000,-30.273,-26.367,-23.438,-15.137,0.000
51.000,-42.969,-22.949,-25.391,-17.578,0.000
55.000,-39.551,-29.785,-24.414,-24.414,0.000
59.000,-25.391,-30.762,-26.855,-20.996,0.000
62.000,-29.785,-26.855,-27.832,-17.578,0.000
66.000,-35.645,-31.250,-22.461,-20.508,0.000
70.000,-30.762,-32.715,-25.391,-20.996,0.000
74.000,-33.691,-29.785,-24.902,-21.973,0.000
78.000,-39.551,-30.762,-30.273,-27.344,0.000
82.000,-26.367,-35.156,-32.715,-26.367,0.000
86.000,-22.949,-33.203,-27.832,-15.137,0.000
90.000,-29.297,-25.391,-31.250,-21.973,0.000
94.000,-32.227,-20.508,-30.762,-32.715,0.000
98.000,-37.598,-19.531,-27.344,-33.203,0.000
102.000,-28.320,-22.949,-31.250,-40.527,0.000
105.000,-20.020,-29.297,-40.039,-49.805,0.000
109.000,-22.949,-33.691,-40.039,-42.969,0.000
113.000,-32.715,-32.715,-37.598,-42.480,0.000
117.000,-52.246,-33.203,-40.527,-41.016,0.000
121.000,-63.965,-31.250,-39.062,-37.598,0.000
125.000,-60.059,-28.809,-35.156,-34.668,0.000
129.000,-46.875,-35.645,-35.645,-25.391,0.000
133.000,-43.945,-37.109,-36.621,-26.855,0.000
137.000,-55.664,-31.250,-34.668,-28.809,0.000
141.000,-53.223,-35.156,-30.762,-37.598,0.000
145.000,-51.270,-38.574,-28.809,-37.598,0.000
148.000,-55.176,-38.086,-27.832,-19.531,0.000
152.000,-42.480,-31.250,-26.855,-6.836,0.000
156.000,-34.668,-27.832,-29.297,-11.230,0.000
160.000,-33.691,-30.273,-31.738,-13.672,0.000
164.000,-21.484,-29.297,-29.785,-7.812,0.000
168.000,-19.531,-30.273,-27.344,-6.836,0.000
172.000,-17.578,-34.668,-27.344,-13.184,0.000
176.000,-18.555,-36.133,-24.902,-12.695,0.000
180.000,-27.344,-39.062,-23.926,-8.789,0.000
184.000,-18.066,-34.668,-27.832,-14.160,0.000
187.000,-27.344,-26.367,-27.344,-26.855,0.000
191.000,-36.133,-27.344,-27.832,-25.879,0.000
195.000,-35.645,-29.785,-30.273,-26.855,0.000
199.000,-40.039,-33.691,-28.320,-35.156,0.000
203.000,-30.762,-29.785,-25.879,-31.250,0.000
207.000,-28.320,-19.531,-23.438,-27.832,0.000
211.000,-27.832,-17.578,-27.832,-36.133,0.000
215.000,-24.414,-20.508,-30.762,-42.969,0.000
219.000,-29.785,-23.438,-25.391,-26.855,0.000
223.000,-28.320,-24.414,-27.832,-16.113,0.000
227.000,-27.344,-29.297,-31.250,-17.090,0.000
230.000,-36.133,-32.227,-26.855,-15.137,0.000
234.000,-29.297,-34.668,-22.461,-14.160,0.000
238.000,-16.602,-37.598,-24.902,-20.996,0.000
242.000,-24.414,-30.273,-24.414,-19.043,0.000
246.000,-38.574,-27.344,-20.508,-1.953,0.000
250.000,-51.758,-32.715,-23.438,-1.465,0.000
254.000,-48.340,-35.156,-30.273,-27.832,0.000
258.000,-33.203,-35.645,-29.785,-37.598,0.000
262.000,-29.785,-34.668,-27.832,-28.320,0.000
266.000,-28.809,-30.762,-29.297,-29.785,0.000
270.000,-19.043,-28.809,-26.367,-18.555,0.000
273.000,-24.902,-30.762,-28.809,-20.020,0.000
277.000,-36.133,-37.109,-32.715,-34.180,0.000
281.000,-25.391,-36.621,-28.809,-35.645,0.000
285.000,-25.879,-25.879,-25.879,-29.785,0.000
289.000,-34.180,-23.926,-25.391,-19.531,0.000
293.000,-30.762,-27.344,-24.902,-14.160,0.000
297.000,-31.250,-20.996,-28.809,-17.578,0.000
301.000,-36.133,-21.973,-31.250,-16.602,0.000
305.000,-27.832,-27.344,-30.273,-20.020,0.000
309.000,-15.625,-33.203,-33.203,-24.902,0.000
312.000,-20.508,-33.691,-32.227,-20.508,0.000
316.000,-40.039,-26.855,-25.879,-14.160,0.000
320.000,-38.574,-30.273,-26.367,-21.973,0.000
324.000,-35.645,-38.574,-27.344,-29.297,0.000
328.000,-31.738,-33.203,-24.902,-27.344,0.000
332.000,-21.484,-29.297,-25.391,-26.855,0.000
336.000,-36.621,-23.438,-24.902,-24.414,0.000
340.000,-36.133,-19.043,-18.555,-20.508,0.000
344.000,-38.086,-21.973,-14.648,-15.625,0.000
348.000,-41.992,-21.973,-20.020,-16.113,0.000
352.000,-34.180,-24.414,-26.855,-17.578,0.000
355.000,-36.133,-28.809,-31.250,-30.273,0.000
359.000,-30.273,-31.250,-29.297,-24.902,0.000
363.000,-38.574,-34.180,-30.762,-14.160,0.000
367.000,-41.992,-32.715,-34.668,-27.832,0.000
371.000,-21.484,-27.832,-30.273,-29.297,0.000
375.000,-11.719,-26.855,-30.273,-21.973,0.000
379.000,-25.391,-29.297,-30.762,-25.879,0.000
383.000,-34.668,-31.738,-22.949,-27.344,0.000
387.000,-21.973,-29.785,-22.461,-22.949,0.000
391.000,-5.859,-26.367,-26.855,-28.320,0.000
395.000,-5.859,-29.297,-30.273,-26.855,0.000
398.000,-27.344,-31.738,-32.715,-20.996,0.000
402.000,-45.410,-24.414,-32.715,-21.484,0.000
406.000,-46.875,-22.461,-37.109,-20.020,0.000
410.000,-37.598,-24.902,-38.574,-21.484,0.000
414.000,-32.227,-28.320,-31.738,-20.508,0.000
418.000,-20.996,-24.902,-34.668,-19.043,0.000
422.000,-20.020,-24.414,-35.645,-28.320,0.000
426.000,-15.137,-34.668,-31.738,-35.645,0.000
430.000,-12.695,-28.809,-33.691,-35.645,0.000
434.000,-23.438,-21.484,-33.691,-22.949,0.000
437.000,-24.902,-23.926,-34.668,-22.461,0.000
441.000,-26.367,-27.344,-36.133,-34.668,0.000
445.000,-44.922,-26.855,-36.133,-28.809,0.000
449.000,-62.988,-23.438,-29.785,-9.277,0.000
453.000,-63.965,-25.879,-28.809,-10.742,0.000
457.000,-60.059,-32.715,-32.715,-29.297,0.000
461.000,-57.129,-31.250,-28.320,-23.926,0.000
465.000,-42.969,-30.762,-29.297,-11.719,0.000
469.000,-24.414,-36.133,-34.180,-17.578,0.000
473.000,-12.207,-28.320,-37.109,-28.809,0.000
477.000,-8.789,-23.438,-35.645,-25.879,0.000
480.000,-21.973,-25.391,-30.273,-15.625,0.000
484.000,-41.016,-30.273,-24.414,-12.207,0.000
488.000,-46.387,-41.992,-31.250,-12.207,0.000
492.000,-27.344,-37.598,-34.668,-8.301,0.000
496.000,-31.738,-31.738,-27.832,-6.348,0.000
500.000,-47.852,-39.062,-25.391,-4.883,0.000
504.000,-40.527,-30.273,-27.344,-4.883,0.000
508.000,-28.809,-22.949,-27.344,-21.484,0.000
512.000,-37.109,-29.297,-26.855,-32.227,0.000
516.000,-45.898,-31.738,-26.367,-22.461,0.000
520.000,-42.480,-29.785,-23.438,-28.320,0.000
523.000,-46.387,-27.344,-30.762,-34.668,0.000
527.000,-41.504,-21.973,-31.250,-30.273,0.000
531.000,-29.297,-14.648,-28.809,-33.203,0.000
535.000,-31.738,-20.020,-32.227,-32.227,0.000
539.000,-30.273,-28.320,-35.645,-32.227,0.000
543.000,-18.555,-19.043,-38.086,-22.461,0.000
547.000,-11.719,-11.719,-36.621,-22.949,0.000
551.000,-17.090,-18.555,-35.645,-40.039,0.000
555.000,-20.996,-16.602,-35.156,-45.410,0.000
559.000,-24.902,-15.137,-33.203,-48.340,0.000
562.000,-35.156,-19.531,-29.297,-33.691,0.000
566.000,-32.227,-20.020,-26.855,-20.508,0.000
570.000,-35.156,-17.578,-26.855,-31.250,0.000
574.000,-32.227,-25.391,-28.320,-38.086,0.000
578.000,-20.996,-28.809,-26.855,-26.855,0.000
582.000,-16.602,-31.738,-24.902,-25.391,0.000
586.000,-16.113,-32.715,-25.879,-30.762,0.000
590.000,-33.203,-27.832,-24.902,-20.020,0.000
594.000,-44.922,-33.691,-28.809,-20.996,0.000
598.000,-37.109,-36.133,-35.156,-25.391,0.000
602.000,-36.621,-31.738,-28.809,-17.578,0.000
605.000,-34.180,-39.062,-26.367,-13.672,0.000
609.000,-37.109,-45.410,-23.438,-23.926,0.000
613.000,-35.645,-31.250,-28.320,-30.273,0.000
617.000,-22.949,-34.180,-34.668,-36.133,0.000
621.000,-14.648,-40.527,-32.227,-38.086,0.000
625.000,-28.809,-28.809,-34.668,-26.367,0.000
629.000,-51.270,-29.785,-33.691,-27.832,0.000
633.000,-55.176,-38.086,-25.391,-19.043,0.000
637.000,-36.621,-35.645,-26.855,-18.066,0.000
641.000,-25.879,-26.855,-30.273,-34.668,0.000
645.000,-26.367,-25.391,-27.832,-30.762,0.000
648.000,-19.531,-29.297,-29.785,-21.484,0.000
652.000,-21.484,-30.273,-32.227,-24.414,0.000
656.000,-23.926,-28.809,-27.832,-29.785,0.000
660.000,-28.809,-30.762,-27.832,-33.691,0.000
664.000,-26.367,-34.668,-32.715,-27.344,0.000
668.000,-29.785,-32.227,-27.344,-14.648,0.000
672.000,-33.691,-28.809,-25.391,-14.648,0.000
676.000,-22.461,-33.691,-28.320,-19.043,0.000
680.000,-22.949,-38.086,-25.879,-30.762,0.000
684.000,-32.227,-35.156,-28.809,-46.387,0.000
687.000,-27.344,-33.691,-28.320,-40.527,0.000
691.000,-20.508,-26.367,-25.879,-30.273,0.000
695.000,-34.668,-27.344,-31.250,-40.039,0.000
699.000,-33.203,-26.367,-28.320,-40.039,0.000
703.000,-25.879,-24.414,-26.367,-29.785,0.000
707.000,-29.785,-22.461,-28.320,-25.879,0.000
711.000,-30.273,-21.973,-25.391,-28.320,0.000
715.000,-34.668,-33.203,-28.809,-39.062,0.000
719.000,-31.250,-30.273,-25.879,-40.039,0.000
723.000,-24.902,-29.785,-24.414,-47.363,0.000
727.000,-28.320,-32.715,-32.227,-51.758,0.000
730.000,-35.645,-22.461,-33.691,-35.156,0.000
734.000,-25.391,-20.020,-35.156,-30.762,0.000
738.000,-29.785,-33.691,-40.039,-38.574,0.000
742.000,-39.062,-29.297,-40.527,-36.133,0.000
746.000,-34.668,-19.043,-37.109,-37.598,0.000
750.000,-37.109,-22.461,-31.738,-54.688,0.000
754.000,-39.551,-28.320,-31.738,-53.223,0.000
758.000,-29.297,-29.785,-38.086,-35.156,0.000
762.000,-23.926,-27.344,-32.227,-20.020,0.000
766.000,-28.809,-25.879,-27.832,-13.672,0.000
770.000,-10.254,-27.832,-32.715,-24.414,0.000
773.000,-13.184,-21.973,-31.738,-25.391,0.000
777.000,-39.551,-17.090,-27.832,-12.695,0.000
781.000,-43.457,-25.391,-30.273,-15.137,0.000
785.000,-42.969,-31.738,-32.227,-27.344,0.000
789.000,-39.551,-25.391,-25.879,-26.367,0.000
793.000,-33.203,-20.996,-22.461,-26.855,0.000
797.000,-19.531,-20.020,-22.949,-22.949,0.000
801.000,-41.504,-17.578,-25.391,-12.207,0.000
805.000,-57.129,-20.508,-25.879,-21.484,0.000
809.000,-39.062,-23.926,-29.297,-15.625,0.000
812.000,-38.086,-25.879,-33.691,-7.812,0.000
816.000,-47.363,-25.391,-32.227,-20.508,0.000
820.000,-49.805,-29.785,-34.668,-33.203,0.000
824.000,-32.227,-34.668,-33.691,-27.344,0.000
828.000,-27.344,-28.320,-29.297,-23.926,0.000
832.000,-42.480,-25.391,-25.391,-28.320,0.000
836.000,-39.062,-26.855,-23.926,-27.832,0.000
840.000,-29.785,-24.902,-28.320,-33.203,0.000
844.000,-19.531,-20.996,-26.367,-25.879,0.000
848.000,-31.738,-31.738,-28.320,-21.973,0.000
852.000,-41.504,-42.480,-28.809,-27.832,0.000
855.000,-41.504,-32.715,-23.926,-26.367,0.000
859.000,-39.551,-26.367,-28.320,-29.785,0.000
863.000,-37.598,-30.273,-29.297,-32.227,0.000
867.000,-43.945,-28.320,-25.879,-32.227,0.000
871.000,-42.480,-27.344,-24.902,-29.297,0.000
875.000,-41.992,-28.809,-24.414,-39.062,0.000
879.000,-34.668,-28.320,-23.926,-44.922,0.000
883.000,-25.391,-27.832,-25.391,-31.738,0.000
887.000,-37.109,-27.344,-25.879,-36.621,0.000
891.000,-47.852,-34.668,-30.762,-46.387,0.000
895.000,-49.316,-29.297,-35.645,-43.457,0.000
898.000,-45.410,-23.438,-34.180,-36.133,0.000
902.000,-44.434,-34.668,-36.133,-41.016,0.000
906.000,-45.898,-28.809,-34.180,-42.969,0.000
910.000,-44.922,-23.926,-35.645,-34.180,0.000
914.000,-53.223,-26.367,-37.598,-19.043,0.000
918.000,-52.246,-25.391,-34.180,-20.996,0.000
922.000,-31.738,-27.832,-34.180,-28.809,0.000
926.000,-20.508,-28.320,-32.715,-33.691,0.000
930.000,-34.668,-34.668,-36.133,-23.926,0.000
934.000,-40.527,-34.180,-33.691,-12.695,0.000
937.000,-41.016,-31.738,-25.879,-21.973,0.000
941.000,-37.598,-31.250,-28.809,-20.508,0.000
945.000,-33.691,-22.461,-28.809,-15.137,0.000
949.000,-33.691,-27.344,-25.879,-20.508,0.000
953.000,-33.691,-41.504,-33.203,-19.043,0.000
957.000,-35.156,-33.203,-35.156,-9.277,0.000
961.000,-40.527,-28.320,-29.785,-11.719,0.000
965.000,-39.062,-30.273,-31.738,-27.832,0.000
969.000,-34.668,-30.762,-35.156,-32.227,0.000
973.000,-41.016,-34.180,-32.715,-20.020,0.000
977.000,-55.176,-33.203,-30.273,-18.066,0.000
980.000,-46.387,-28.320,-24.902,-27.344,0.000
984.000,-40.039,-17.578,-19.043,-19.531,0.000
988.000,-53.223,-12.207,-20.996,-12.207,0.000
992.000,-56.152,-17.578,-22.461,-26.367,0.000
996.000,-52.734,-17.578,-23.926,-42.480,0.000
1000.000,-40.039,-16.113,-26.855,-37.109,0.000
1004.000,-29.297,-25.391,-27.344,-23.438,0.000
1008.000,-31.250,-32.715,-27.832,-22.949,0.000
1012.000,-26.855,-27.344,-25.391,-25.391,0.000
1016.000,-19.531,-23.438,-26.367,-23.438,0.000
1020.000,-19.531,-26.855,-24.902,-14.648,0.000
1023.000,-22.949,-28.809,-27.832,-20.996,0.000
1027.000,-21.973,-28.809,-36.621,-29.785,0.000
1031.000,-4.395,-25.391,-34.668,-26.367,0.000
1035.000,-12.695,-25.391,-34.180,-29.785,0.000
1039.000,-25.391,-30.762,-37.109,-35.156,0.000
1043.000,-17.578,-34.668,-33.203,-39.062,0.000
1047.000,-29.785,-30.762,-23.926,-38.086,0.000
1051.000,-44.434,-29.297,-26.855,-34.180,0.000
1055.000,-45.410,-33.691,-33.691,-31.738,0.000
1059.000,-37.109,-30.273,-27.832,-33.203,0.000
1062.000,-37.109,-34.668,-24.902,-25.879,0.000
1066.000,-42.969,-34.180,-31.250,-12.207,0.000
1070.000,-38.574,-27.832,-35.156,-30.273,0.000
1074.000,-30.762,-25.879,-35.156,-50.293,0.000
1078.000,-30.273,-20.508,-33.203,-49.805,0.000
1082.000,-29.785,-23.438,-30.273,-38.574,0.000
1086.000,-38.086,-25.879,-27.832,-31.738,0.000
1090.000,-42.480,-35.645,-31.250,-33.691,0.000
1094.000,-32.227,-44.434,-30.273,-30.762,0.000
1098.000,-24.414,-36.621,-30.273,-20.020,0.000
1102.000,-25.879,-31.250,-31.250,-13.672,0.000
1105.000,-31.250,-30.273,-30.762,-15.625,0.000
1109.000,-34.180,-40.039,-34.180,-20.020,0.000
1113.000,-27.344,-34.180,-31.738,-9.766,0.000
1117.000,-21.484,-24.414,-32.227,-9.277,0.000
1121.000,-41.504,-29.785,-29.297,-13.184,0.000
1125.000,-31.250,-30.762,-29.785,-22.949,0.000
1129.000,-19.043,-30.273,-34.180,-28.320,0.000
1133.000,-25.879,-27.344,-31.738,-15.625,0.000
1137.000,-34.180,-27.832,-29.297,-20.508,0.000
1141.000,-46.875,-25.879,-30.762,-24.902,0.000
1145.000,-42.969,-25.391,-30.762,-32.715,0.000
1148.000,-28.320,-24.414,-27.832,-30.273,0.000
1152.000,-20.508,-16.602,-29.297,-20.020,0.000
1156.000,-32.715,-20.508,-30.762,-22.949,0.000
1160.000,-40.039,-28.320,-27.344,-21.973,0.000
1164.000,-39.062,-26.367,-27.832,-18.066,0.000
1168.000,-30.273,-28.809,-30.762,-22.461,0.000
1172.000,-36.621,-29.785,-31.250,-26.367,0.000
1176.000,-36.133,-19.043,-32.715,-21.484,0.000
1180.000,-15.625,-17.090,-27.344,-22.949,0.000
1184.000,-13.184,-25.879,-26.367,-17.578,0.000
1187.000,-27.832,-29.297,-27.344,-17.090,0.000
1191.000,-36.133,-26.367,-24.902,-17.578,0.000
1195.000,-31.738,-25.879,-24.414,-4.883,0.000
1199.000,-13.672,-30.762,-24.414,0.977,0.000
1203.000,-9.766,-29.785,-26.855,-5.371,0.000
1207.000,-19.043,-27.344,-22.949,-9.766,0.000
1211.000,-10.254,-32.227,-21.973,-11.719,0.000
1215.000,0.488,-34.668,-22.461,-9.766,0.000
1219.000,-15.137,-31.250,-21.973,0.000,0.000
1223.000,-30.273,-24.902,-24.414,-19.043,0.000
1227.000,-20.996,-24.414,-19.043,-33.691,0.000
1230.000,-22.949,-28.809,-16.602,-27.832,0.000
1234.000,-37.598,-30.762,-19.043,-27.344,0.000
1238.000,-35.645,-28.809,-21.484,-31.250,0.000
1242.000,-29.785,-23.926,-25.879,-39.062,0.000
1246.000,-21.973,-23.438,-25.879,-28.320,0.000
1250.000,-10.742,-27.832,-24.902,-18.066,0.000
1254.000,-17.090,-31.738,-21.973,-27.344,0.000
1258.000,-30.273,-24.414,-18.555,-22.949,0.000
1262.000,-35.645,-19.531,-16.113,-16.113,0.000
1266.000,-29.785,-26.855,-18.555,-14.160,0.000
1270.000,-15.137,-20.996,-17.578,-13.672,0.000
1273.000,-7.324,-13.184,-15.625,-9.277,0.000
1277.000,-10.254,-16.602,-20.508,-3.418,0.000
1281.000,-15.625,-20.020,-30.273,-13.184,0.000
1285.000,-23.438,-27.344,-37.598,-16.602,0.000
1289.000,-26.367,-29.785,-39.551,-8.789,0.000
1293.000,-32.227,-27.344,-36.133,-14.160,0.000
1297.000,-34.668,-25.391,-34.180,-20.508,0.000
1301.000,-29.297,-26.855,-36.133,-18.555,0.000
1305.000,-17.090,-31.250,-34.668,-27.832,0.000
1309.000,-3.906,-27.832,-37.109,-20.508,0.000
1312.000,-19.531,-21.484,-38.574,-21.973,0.000
1316.000,-42.480,-20.020,-40.039,-37.109,0.000
1320.000,-42.969,-21.973,-42.969,-34.180,0.000
1324.000,-35.156,-27.344,-39.062,-39.551,0.000
1328.000,-46.875,-34.668,-30.273,-31.250,0.000
1332.000,-47.363,-38.574,-26.855,-24.902,0.000
1336.000,-36.133,-39.551,-29.785,-34.668,0.000
1340.000,-35.645,-34.668,-33.203,-34.668,0.000
1344.000,-45.898,-29.297,-33.203,-31.250,0.000
1348.000,-51.758,-39.062,-35.156,-31.738,0.000
1352.000,-41.504,-44.434,-37.109,-28.320,0.000
1355.000,-26.367,-39.551,-32.227,-25.391,0.000
1359.000,-23.438,-35.645,-32.227,-28.320,0.000
1363.000,-31.250,-38.574,-32.227,-28.809,0.000
1367.000,-34.668,-37.598,-33.203,-24.902,0.000
1371.000,-31.738,-34.668,-33.691,-26.367,0.000
1375.000,-15.625,-39.062,-30.762,-36.133,0.000
1379.000,-9.277,-39.062,-34.180,-37.109,0.000
1383.000,-35.645,-34.180,-36.621,-21.973,0.000
1387.000,-45.410,-33.691,-34.668,-17.090,0.000
1391.000,-38.574,-36.621,-35.645,-25.879,0.000
1395.000,-27.344,-36.621,-39.551,-26.367,0.000
1398.000,-42.480,-36.621,-40.039,-13.672,0.000
1402.000,-55.176,-34.180,-38.086,-16.602,0.000
1406.000,-34.668,-41.992,-36.133,-26.855,0.000
1410.000,-22.949,-41.016,-32.715,-16.113,0.000
1414.000,-21.484,-25.879,-35.645,-10.742,0.000
1418.000,-17.090,-25.879,-34.668,-17.090,0.000
1422.000,-27.832,-34.668,-30.762,-20.996,0.000
1426.000,-36.621,-38.086,-31.738,-30.762,0.000
1430.000,-29.785,-32.227,-36.621,-34.180,0.000
1434.000,-26.367,-29.785,-34.180,-23.926,0.000
1437.000,-21.973,-35.156,-30.762,-19.043,0.000
1441.000,-11.230,-34.180,-34.180,-15.137,0.000
1445.000,-11.230,-34.180,-34.668,-10.742,0.000
1449.000,-19.043,-43.457,-36.133,-23.926,0.000
1453.000,-14.160,-40.527,-34.668,-21.973,0.000
1457.000,-16.113,-32.715,-33.691,-7.812,0.000
1461.000,-6.836,-29.297,-34.180,-6.836,0.000
1465.000,-11.719,-28.809,-29.785,-6.348,0.000
1469.000,-24.902,-24.902,-30.273,-7.324,0.000
1473.000,-19.043,-25.391,-29.297,-11.230,0.000
1477.000,-13.184,-22.949,-33.203,-18.555,0.000
1480.000,-14.160,-20.020,-34.180,-15.137,0.000
1484.000,-16.602,-17.578,-33.203,-5.371,0.000
1488.000,-19.531,-17.578,-31.738,-5.371,0.000
1492.000,-25.391,-21.973,-28.809,-7.812,0.000
1496.000,-13.184,-31.250,-34.180,-11.719,0.000
1500.000,-24.902,-36.133,-37.109,-13.672,0.000
1504.000,-31.250,-25.879,-36.133,-18.066,0.000
1508.000,-7.324,-20.508,-37.109,-23.926,0.000
1512.000,-3.418,-13.672,-35.156,-16.113,0.000
1516.000,-27.832,-15.625,-38.086,-15.625,0.000
1520.000,-43.945,-22.949,-38.574,-19.531,0.000
1523.000,-40.039,-30.762,-37.598,-33.203,0.000
1527.000,-25.879,-37.598,-38.574,-33.203,0.000
1531.000,-17.578,-26.367,-32.715,-17.090,0.000
1535.000,-18.066,-20.996,-32.715,-34.180,0.000
1539.000,-16.113,-23.926,-37.598,-45.898,0.000
1543.000,-14.160,-23.926,-34.668,-41.016,0.000
1547.000,-17.090,-29.297,-34.180,-40.527,0.000
1551.000,-21.484,-26.855,-35.156,-42.480,0.000
1555.000,-34.180,-26.367,-40.039,-45.410,0.000
1559.000,-39.551,-22.461,-39.551,-46.387,0.000
1562.000,-35.156,-12.207,-29.785,-45.898,0.000
1566.000,-30.762,-14.160,-31.738,-39.551,0.000
1570.000,-30.273,-30.762,-36.621,-38.574,0.000
1574.000,-40.527,-27.344,-34.180,-34.668,0.000
1578.000,-39.062,-15.137,-36.133,-30.273,0.000
1582.000,-29.785,-20.020,-46.875,-27.344,0.000
1586.000,-25.879,-20.508,-39.551,-15.137,0.000
1590.000,-34.668,-11.719,-24.414,-13.184,0.000
1594.000,-41.016,-12.207,-23.438,-11.230,0.000
1598.000,-25.879,-17.578,-22.461,0.000,0.000
1602.000,-19.043,-17.578,-18.555,8.301,0.000
1605.000,-12.695,-18.066,-20.508,-0.977,0.000
1609.000,-8.789,-21.484,-17.578,-0.977,0.000
1613.000,-10.742,-23.926,-15.625,8.301,0.000
1617.000,-8.301,-23.438,-24.902,10.254,0.000
1621.000,-12.695,-21.973,-27.344,11.719,0.000
1625.000,-16.113,-22.461,-24.414,-3.418,0.000
1629.000,-20.020,-22.949,-25.391,-14.160,0.000
1633.000,-18.066,-29.785,-24.414,-8.789,0.000
1637.000,-19.531,-30.762,-22.949,-17.578,0.000
1641.000,-26.367,-22.949,-23.926,-27.344,0.000
1645.000,-31.738,-32.715,-26.855,-25.879,0.000
1648.000,-21.484,-28.809,-27.832,-28.320,0.000
1652.000,-18.066,-21.484,-24.902,-25.879,0.000
1656.000,-20.996,-21.973,-28.809,-26.855,0.000
1660.000,-13.184,-22.461,-35.645,-34.668,0.000
1664.000,-17.090,-29.785,-36.133,-23.926,0.000
1668.000,-25.879,-36.621,-35.156,-21.484,0.000
1672.000,-25.879,-32.715,-34.180,-38.086,0.000
1676.000,-31.738,-28.809,-34.668,-43.457,0.000
1680.000,-34.668,-21.973,-37.109,-45.898,0.000
1684.000,-26.367,-16.113,-35.645,-39.062,0.000
1687.000,-16.113,-22.949,-28.809,-22.461,0.000
1691.000,-23.438,-32.715,-29.297,-16.602,0.000
1695.000,-37.598,-31.738,-32.227,-18.066,0.000
1699.000,-31.738,-27.832,-33.203,-16.113,0.000
1703.000,-22.461,-21.973,-28.320,-3.906,0.000
1707.000,-20.020,-23.438,-29.297,-5.859,0.000
1711.000,-9.277,-29.297,-28.320,1.465,0.000
1715.000,-26.855,-22.949,-21.484,14.160,0.000
1719.000,-45.410,-22.461,-21.484,13.184,0.000
1723.000,-31.250,-24.902,-20.996,8.789,0.000
1727.000,-34.668,-25.391,-19.043,-6.348,0.000
1730.000,-39.551,-29.785,-26.367,-12.695,0.000
1734.000,-38.574,-34.180,-33.691,-16.113,0.000
1738.000,-48.340,-29.785,-32.227,-28.320,0.000
1742.000,-50.781,-26.855,-34.180,-29.785,0.000
1746.000,-64.941,-38.574,-36.133,-44.922,0.000
1750.000,-60.547,-41.992,-36.621,-59.082,0.000
1754.000,-56.641,-34.668,-33.691,-63.965,0.000
1758.000,-58.105,-28.320,-28.320,-61.035,0.000
1762.000,-53.711,-24.902,-27.344,-63.477,0.000
1766.000,-64.941,-24.414,-29.297,-61.523,0.000
1770.000,-61.035,-27.832,-26.367,-57.617,0.000
1773.000,-50.293,-27.344,-27.344,-59.082,0.000
1777.000,-44.922,-27.344,-28.809,-54.199,0.000
1781.000,-47.852,-31.738,-26.367,-42.480,0.000
1785.000,-49.316,-31.250,-28.809,-29.785,0.000
1789.000,-40.527,-24.414,-27.832,-25.879,0.000
1793.000,-25.879,-19.043,-27.344,-25.391,0.000
1797.000,-20.508,-19.043,-28.320,-8.789,0.000
1801.000,-28.320,-20.020,-27.832,0.977,0.000
1805.000,-25.391,-21.973,-30.762,-13.672,0.000
1809.000,-11.230,-19.531,-30.762,-20.508,0.000
1812.000,-8.789,-20.020,-27.344,-10.254,0.000
1816.000,-20.020,-20.020,-25.879,-3.418,0.000
1820.000,-28.809,-29.785,-22.949,-1.465,0.000
1824.000,-18.066,-35.156,-17.578,-0.488,0.000
1828.000,-12.207,-22.461,-21.484,-11.230,0.000
1832.000,-16.602,-21.973,-29.785,-12.207,0.000
1836.000,-24.414,-26.855,-26.855,-13.184,0.000
1840.000,-23.926,-20.020,-20.508,-19.043,0.000
1844.000,-16.113,-19.043,-17.090,-29.297,0.000
1848.000,-16.602,-19.531,-21.484,-19.043,0.000
1852.000,-16.113,-21.973,-23.438,-2.930,0.000
1855.000,-17.090,-25.879,-25.391,-16.602,0.000
1859.000,-35.645,-19.043,-36.621,-22.461,0.000
1863.000,-49.316,-26.367,-48.340,-21.973,0.000
1867.000,-45.898,-32.227,-31.738,-24.902,0.000
1871.000,-41.016,-20.996,-19.531,-33.203,0.000
1875.000,-36.621,-18.555,-28.320,-34.180,0.000
1879.000,-33.203,-23.926,-30.273,-28.320,0.000
1883.000,-34.668,-22.949,-35.156,-29.785,0.000
1887.000,-36.133,-23.438,-39.551,-33.691,0.000
1891.000,-35.156,-28.320,-42.969,-47.852,0.000
1895.000,-43.945,-30.273,-42.480,-46.875,0.000
1898.000,-51.758,-27.344,-40.527,-41.992,0.000
1902.000,-60.547,-35.156,-40.527,-43.945,0.000
1906.000,-62.500,-33.203,-39.551,-37.109,0.000
1910.000,-57.617,-33.691,-38.086,-38.086,0.000
1914.000,-55.664,-43.945,-33.203,-38.574,0.000
1918.000,-50.781,-37.109,-33.203,-29.297,0.000
1922.000,-46.387,-24.414,-34.668,-39.062,0.000
1926.000,-49.805,-34.180,-34.668,-53.223,0.000
1930.000,-51.270,-52.734,-34.180,-48.340,0.000
1934.000,-47.852,-36.621,-33.691,-43.457,0.000
1937.000,-45.410,-27.832,-34.180,-41.016,0.000
1941.000,-40.039,-34.180,-35.645,-36.133,0.000
1945.000,-45.898,-29.785,-28.320,-25.879,0.000
1949.000,-46.387,-24.902,-26.855,-19.043,0.000
1953.000,-51.758,-28.320,-34.180,-24.902,0.000
1957.000,-44.922,-29.785,-39.551,-23.926,0.000
1961.000,-28.809,-24.414,-41.016,-14.160,0.000
1965.000,-34.180,-26.367,-33.691,-8.301,0.000
1969.000,-35.156,-36.621,-31.250,-7.812,0.000
1973.000,-30.273,-35.156,-38.086,-23.926,0.000
1977.000,-22.949,-29.785,-34.180,-32.715,0.000
1980.000,-18.066,-30.762,-26.855,-30.762,0.000
1984.000,-24.902,-33.691,-24.902,-19.043,0.000
1988.000,-33.691,-42.969,-23.438,-11.719,0.000
1992.000,-35.156,-35.156,-22.461,-4.883,0.000
1996.000,-41.016,-29.785,-21.484,-4.395,0.000
2000.000,-37.109,-33.203,-23.926,-16.602,0.000
2004.000,-30.273,-25.391,-24.414,-21.973,0.000
2008.000,-34.180,-25.391,-23.438,-33.203,0.000
2012.000,-37.109,-28.320,-27.344,-38.574,0.000
2016.000,-26.367,-22.461,-27.832,-32.715,0.000
2020.000,-30.762,-28.320,-30.762,-25.391,0.000
2023.000,-41.504,-20.020,-30.273,-40.039,0.000
2027.000,-45.898,-13.184,-27.832,-59.082,0.000
2031.000,-53.711,-21.973,-33.691,-48.828,0.000
2035.000,-44.922,-24.902,-37.109,-47.852,0.000
2039.000,-39.062,-25.391,-31.738,-49.805,0.000
2043.000,-31.738,-20.996,-33.203,-42.480,0.000
2047.000,-21.973,-22.461,-34.180,-53.223,0.000
2051.000,-36.621,-27.344,-30.762,-49.316,0.000
2055.000,-53.711,-23.926,-33.691,-31.738,0.000
2059.000,-41.016,-19.043,-33.691,-25.879,0.000
2062.000,-34.668,-24.902,-30.762,-27.344,0.000
2066.000,-27.832,-28.809,-32.227,-21.973,0.000
2070.000,-23.926,-22.949,-31.250,-19.043,0.000
2074.000,-40.039,-25.391,-29.785,-31.250,0.000
2078.000,-53.711,-34.180,-32.715,-39.551,0.000
2082.000,-56.641,-36.133,-38.574,-40.039,0.000
2086.000,-59.570,-31.250,-41.992,-30.762,0.000
2090.000,-43.945,-25.879,-38.086,-28.320,0.000
2094.000,-26.855,-31.738,-30.762,-30.762,0.000
2098.000,-30.762,-38.574,-30.273,-27.832,0.000
2102.000,-42.969,-38.086,-37.109,-21.484,0.000
2105.000,-48.828,-32.227,-39.062,-27.344,0.000
2109.000,-33.203,-29.785,-37.598,-42.969,0.000
2113.000,-35.645,-32.715,-35.156,-42.969,0.000
2117.000,-49.805,-34.180,-32.715,-23.438,0.000
2121.000,-40.039,-33.203,-36.621,-17.090,0.000
2125.000,-31.738,-35.156,-35.156,-12.695,0.000
2129.000,-16.113,-36.621,-30.273,-4.883,0.000
2133.000,-7.324,-22.949,-24.414,-3.418,0.000
2137.000,-19.531,-16.602,-21.484,-1.465,0.000
2141.000,-18.555,-20.020,-25.879,-3.418,0.000
2145.000,-8.789,-25.391,-25.879,3.418,0.000
2148.000,-18.066,-23.926,-22.949,3.906,0.000
2152.000,-25.879,-23.438,-25.879,-15.137,0.000
2156.000,-20.020,-25.879,-29.297,-14.648,0.000
2160.000,-24.902,-21.973,-32.715,-8.301,0.000
2164.000,-30.762,-24.414,-33.691,-12.695,0.000
2168.000,-23.438,-29.297,-30.762,-16.113,0.000
2172.000,-23.926,-20.508,-39.062,-19.531,0.000
2176.000,-34.180,-20.508,-38.574,-20.020,0.000
2180.000,-45.410,-32.715,-35.645,-21.973,0.000
2184.000,-52.734,-25.879,-41.992,-31.250,0.000
2187.000,-47.852,-20.020,-37.598,-30.762,0.000
2191.000,-30.762,-19.531,-39.551,-34.668,0.000
2195.000,-33.203,-20.508,-44.434,-43.945,0.000
2199.000,-33.203,-23.438,-42.969,-39.551,0.000
2203.000,-29.297,-27.832,-47.852,-39.551,0.000
2207.000,-49.805,-25.391,-44.434,-42.969,0.000
2211.000,-53.711,-21.484,-38.086,-37.598,0.000
2215.000,-38.086,-24.902,-34.180,-40.039,0.000
2219.000,-37.598,-28.809,-31.738,-45.410,0.000
2223.000,-41.992,-29.785,-34.180,-38.086,0.000
2227.000,-45.898,-34.180,-36.621,-45.898,0.000
2230.000,-52.246,-30.273,-39.551,-45.898,0.000
2234.000,-43.945,-30.762,-41.504,-26.367,0.000
2238.000,-26.855,-28.809,-40.039,-24.414,0.000
2242.000,-9.766,-28.320,-37.598,-40.527,0.000
2246.000,-6.836,-30.273,-34.668,-41.016,0.000
2250.000,-23.438,-25.391,-27.344,-28.809,0.000
2254.000,-39.062,-24.414,-22.461,-20.996,0.000
2258.000,-31.738,-33.691,-21.973,-20.508,0.000
2262.000,-30.273,-38.574,-20.508,-36.621,0.000
2266.000,-26.855,-28.320,-18.555,-50.293,0.000
2270.000,-13.184,-27.832,-14.160,-50.781,0.000
2273.000,-36.133,-34.668,-15.625,-54.688,0.000
2277.000,-48.340,-31.738,-18.066,-44.922,0.000
2281.000,-35.645,-32.715,-14.648,-35.645,0.000
2285.000,-38.086,-35.645,-20.996,-32.715,0.000
2289.000,-47.852,-31.250,-24.414,-40.039,0.000
2293.000,-47.852,-27.832,-19.043,-41.504,0.000
2297.000,-44.434,-35.156,-22.461,-30.762,0.000
2301.000,-53.711,-41.992,-31.738,-37.598,0.000
2305.000,-46.387,-35.645,-28.320,-42.480,0.000
2309.000,-35.156,-34.668,-29.785,-37.109,0.000
2312.000,-38.086,-41.016,-35.156,-30.762,0.000
2316.000,-37.109,-44.434,-30.273,-21.484,0.000
2320.000,-37.109,-36.133,-26.367,-21.973,0.000
2324.000,-31.250,-32.715,-26.855,-20.020,0.000
2328.000,-16.602,-27.832,-28.320,-12.695,0.000
2332.000,-11.230,-16.113,-22.461,-10.742,0.000
2336.000,-15.625,-21.484,-24.414,-11.719,0.000
2340.000,-20.996,-31.250,-33.691,-11.719,0.000
2344.000,-21.973,-28.320,-35.645,-18.066,0.000
2348.000,-18.555,-26.855,-35.156,-33.203,0.000
2352.000,-31.738,-31.250,-29.785,-33.691,0.000
2355.000,-35.156,-32.227,-30.273,-33.691,0.000
2359.000,-21.484,-30.762,-33.203,-36.621,0.000
2363.000,-23.438,-30.762,-30.762,-31.250,0.000
2367.000,-25.391,-31.250,-32.715,-27.344,0.000
2371.000,-44.434,-34.180,-33.691,-34.180,0.000
2375.000,-56.641,-37.598,-39.551,-49.805,0.000
2379.000,-51.758,-29.785,-39.551,-48.828,0.000
2383.000,-52.734,-22.949,-31.250,-41.016,0.000
2387.000,-52.246,-22.949,-34.180,-39.062,0.000
2391.000,-44.922,-21.973,-29.297,-35.645,0.000
2395.000,-42.969,-17.578,-24.902,-29.297,0.000
2398.000,-41.504,-17.090,-26.855,-20.020,0.000
2402.000,-34.668,-28.809,-29.297,-12.695,0.000
2406.000,-34.180,-38.086,-38.086,-17.578,0.000
2410.000,-20.996,-32.715,-41.992,-23.438,0.000
2414.000,-4.395,-25.391,-31.250,-12.207,0.000
2418.000,-15.625,-24.414,-27.344,-15.137,0.000
2422.000,-37.109,-25.391,-29.785,-19.531,0.000
2426.000,-19.043,-30.273,-27.344,-7.324,0.000
2430.000,-11.719,-29.297,-28.809,-12.695,0.000
2434.000,-22.949,-30.762,-34.668,-25.391,0.000
2437.000,-20.020,-28.809,-34.180,-29.785,0.000
2441.000,-37.598,-28.809,-37.109,-27.344,0.000
2445.000,-55.176,-35.156,-37.598,-36.621,0.000
2449.000,-39.062,-36.133,-36.133,-38.574,0.000
2453.000,-18.555,-35.156,-35.156,-28.809,0.000
2457.000,-27.832,-31.738,-30.762,-30.762,0.000
2461.000,-53.711,-26.367,-31.738,-25.879,0.000
2465.000,-57.129,-24.902,-31.250,-21.484,0.000
2469.000,-49.805,-27.832,-31.250,-23.926,0.000
2473.000,-33.691,-24.902,-28.809,-27.344,0.000
2477.000,-41.504,-27.344,-27.832,-30.762,0.000
2480.000,-53.711,-32.227,-30.273,-27.344,0.000
2484.000,-37.109,-29.297,-28.320,-29.785,0.000
2488.000,-23.438,-27.344,-26.855,-29.297,0.000
2492.000,-30.273,-32.715,-25.391,-25.391,0.000
2496.000,-42.480,-32.715,-28.809,-25.391,0.000
2500.000,-39.551,-27.832,-28.320,-19.043,0.000
2504.000,-34.180,-35.645,-24.414,-20.508,0.000
2508.000,-17.578,-41.016,-23.926,-23.438,0.000
2512.000,-6.836,-33.203,-29.785,-26.367,0.000
2516.000,-12.695,-27.344,-26.367,-19.531,0.000
2520.000,-17.090,-26.855,-25.391,-13.672,0.000
2523.000,-20.020,-29.297,-29.785,-14.160,0.000
2527.000,-31.738,-29.297,-29.297,-12.695,0.000
2531.000,-36.133,-30.762,-31.738,-15.137,0.000
2535.000,-36.621,-28.320,-33.203,-8.789,0.000
2539.000,-33.203,-33.691,-28.320,-25.391,0.000
2543.000,-19.531,-36.133,-28.320,-35.156,0.000
2547.000,-21.484,-30.762,-30.762,-32.715,0.000
2551.000,-28.809,-28.809,-28.809,-28.320,0.000
2555.000,-27.344,-25.879,-29.297,-29.785,0.000
2559.000,-25.391,-31.738,-28.809,-40.527,0.000
2562.000,-33.203,-38.086,-27.832,-30.273,0.000
2566.000,-41.016,-40.039,-30.273,-18.555,0.000
2570.000,-37.598,-43.945,-28.809,-35.156,0.000
2574.000,-33.691,-39.062,-22.461,-31.738,0.000
2578.000,-25.391,-24.902,-20.996,-15.625,0.000
2582.000,-28.809,-20.020,-25.879,-15.137,0.000
2586.000,-27.344,-21.484,-25.879,-12.695,0.000
2590.000,-24.414,-21.973,-22.461,-9.277,0.000
2594.000,-27.832,-18.555,-27.344,-8.789,0.000
2598.000,-22.949,-23.926,-29.785,-9.766,0.000
2602.000,-11.719,-29.785,-28.809,-13.672,0.000
2605.000,-6.348,-29.297,-33.203,-16.113,0.000
2609.000,-18.066,-30.762,-35.156,-11.230,0.000
2613.000,-22.461,-28.809,-38.574,-7.812,0.000
2617.000,-15.625,-29.785,-34.668,-8.301,0.000
2621.000,-22.949,-31.738,-28.809,-8.789,0.000
2625.000,-35.156,-23.926,-26.367,-15.137,0.000
2629.000,-36.621,-18.555,-32.715,-14.160,0.000
2633.000,-29.785,-20.996,-36.621,-11.230,0.000
2637.000,-35.156,-24.902,-38.086,-12.695,0.000
2641.000,-39.551,-27.832,-39.062,-15.625,0.000
2645.000,-31.738,-26.855,-37.598,-14.648,0.000
2648.000,-35.156,-30.273,-34.180,-18.555,0.000
2652.000,-39.062,-30.762,-32.227,-17.090,0.000
2656.000,-29.297,-27.832,-40.039,-21.484,0.000
2660.000,-23.438,-30.762,-37.598,-36.133,0.000
2664.000,-20.996,-29.297,-34.180,-24.902,0.000
2668.000,-20.020,-24.414,-35.156,-9.277,0.000
2672.000,-20.508,-24.414,-30.273,-14.648,0.000
2676.000,-23.926,-27.344,-32.715,-12.695,0.000
2680.000,-39.062,-20.020,-35.645,-8.789,0.000
2684.000,-31.738,-18.066,-33.203,-16.113,0.000
2687.000,-14.160,-19.531,-32.715,-22.949,0.000
2691.000,-12.207,-14.648,-30.273,-19.531,0.000
2695.000,-22.461,-15.137,-28.809,-24.414,0.000
2699.000,-34.180,-21.484,-30.762,-24.902,0.000
2703.000,-30.762,-23.926,-30.762,-25.391,0.000
2707.000,-29.785,-18.066,-30.273,-34.180,0.000
2711.000,-38.086,-20.996,-34.180,-42.480,0.000
2715.000,-40.039,-27.344,-32.715,-41.992,0.000
2719.000,-38.086,-28.809,-26.367,-38.574,0.000
2723.000,-37.598,-27.832,-28.320,-52.734,0.000
2727.000,-35.156,-23.926,-31.250,-60.059,0.000
2730.000,-41.016,-29.785,-31.738,-55.176,0.000
2734.000,-44.434,-26.855,-31.738,-50.293,0.000
2738.000,-37.109,-20.508,-28.809,-39.551,0.000
2742.000,-39.062,-24.902,-34.668,-51.270,0.000
2746.000,-42.969,-27.344,-35.156,-59.082,0.000
2750.000,-46.387,-33.203,-31.250,-50.781,0.000
2754.000,-43.457,-33.203,-31.250,-58.105,0.000
2758.000,-32.227,-28.809,-28.320,-54.688,0.000
2762.000,-43.945,-27.832,-30.273,-47.363,0.000
2766.000,-48.828,-25.391,-33.691,-42.969,0.000
2770.000,-37.109,-27.832,-36.133,-49.316,0.000
2773.000,-33.203,-28.320,-38.574,-52.734,0.000
2777.000,-30.762,-30.273,-36.621,-45.898,0.000
2781.000,-39.551,-32.715,-39.062,-34.180,0.000
2785.000,-39.551,-33.691,-37.598,-28.809,0.000
2789.000,-26.855,-35.645,-31.250,-29.785,0.000
2793.000,-28.320,-28.320,-27.832,-25.391,0.000
2797.000,-38.574,-28.809,-24.902,-20.996,0.000
2801.000,-36.621,-29.297,-22.949,-24.902,0.000
2805.000,-35.645,-25.391,-25.879,-31.250,0.000
2809.000,-43.945,-27.832,-23.926,-40.039,0.000
2812.000,-41.504,-26.367,-24.902,-41.016,0.000
2816.000,-38.574,-29.297,-31.250,-32.715,0.000
2820.000,-41.992,-36.133,-32.715,-30.762,0.000
2824.000,-25.391,-29.785,-30.762,-27.832,0.000
2828.000,-22.949,-27.344,-27.344,-29.297,0.000
2832.000,-26.367,-31.738,-23.926,-21.484,0.000
2836.000,-25.879,-28.809,-26.855,-5.859,0.000
2840.000,-34.180,-25.391,-31.738,-16.113,0.000
2844.000,-33.691,-24.902,-39.062,-24.414,0.000
2848.000,-25.879,-21.973,-38.086,-15.137,0.000
2852.000,-16.113,-22.949,-23.926,-10.254,0.000
2855.000,-16.113,-23.438,-26.367,-11.230,0.000
2859.000,-11.719,-21.484,-31.250,-18.555,0.000
2863.000,-5.371,-27.344,-24.414,-17.090,0.000
2867.000,-18.555,-26.367,-26.855,-10.254,0.000
2871.000,-23.438,-18.555,-28.809,-16.113,0.000
2875.000,-27.832,-16.602,-28.320,-16.602,0.000
2879.000,-42.969,-27.832,-32.227,-10.254,0.000
2883.000,-50.293,-36.133,-32.227,-16.113,0.000
2887.000,-49.316,-28.809,-30.273,-33.203,0.000
2891.000,-38.086,-22.461,-30.273,-42.969,0.000
2894.000,-26.855,-19.531,-34.180,-32.227,0.000
2898.000,-33.691,-21.973,-28.320,-25.879,0.000
2902.000,-37.109,-28.320,-25.879,-23.926,0.000
2906.000,-35.645,-27.832,-29.785,-28.809,0.000
2910.000,-38.086,-27.344,-40.039,-42.969,0.000
2914.000,-42.480,-29.785,-41.016,-35.156,0.000
2918.000,-52.734,-32.715,-36.133,-36.621,0.000
2922.000,-56.152,-40.039,-39.551,-59.570,0.000
2926.000,-54.199,-40.039,-41.504,-47.363,0.000
2930.000,-43.945,-29.297,-34.668,-24.414,0.000
2934.000,-41.504,-28.320,-28.320,-30.273,0.000
2937.000,-39.062,-29.785,-26.855,-35.645,0.000
2941.000,-24.414,-29.785,-34.180,-25.391,0.000
2945.000,-31.738,-36.621,-34.180,-32.227,0.000
2949.000,-33.203,-40.039,-34.180,-40.039,0.000
2953.000,-31.250,-33.691,-40.039,-34.668,0.000
2957.000,-52.734,-25.879,-27.344,-34.180,0.000
2961.000,-55.664,-30.762,-20.020,-31.738,0.000
2965.000,-52.734,-33.691,-26.367,-27.344,0.000
2969.000,-53.711,-30.273,-29.297,-29.297,0.000
2973.000,-65.430,-37.598,-29.785,-33.691,0.000
2977.000,-59.570,-41.016,-30.762,-44.434,0.000
2980.000,-44.922,-45.410,-33.203,-41.992,0.000
2984.000,-52.734,-35.645,-26.855,-19.043,0.000
2988.000,-51.758,-23.926,-27.832,-14.160,0.000
2992.000,-42.480,-35.156,-35.156,-31.738,0.000
2996.000,-33.203,-41.016,-28.809,-27.832,0.000
3000.000,-25.391,-30.273,-23.438,-27.832,0.000
3004.000,-21.973,-21.484,-28.320,-30.762,0.000
3008.000,-32.227,-26.855,-25.391,-28.809,0.000
3012.000,-42.480,-30.762,-24.902,-31.250,0.000
3016.000,-29.785,-37.598,-27.832,-27.344,0.000
3019.000,-30.273,-37.598,-20.996,-33.203,0.000
3023.000,-26.855,-31.250,-24.414,-32.715,0.000
3027.000,-14.648,-31.250,-25.879,-26.855,0.000
3031.000,-24.414,-35.156,-18.555,-26.855,0.000
3035.000,-41.992,-37.598,-23.438,-32.227,0.000
3039.000,-37.598,-29.785,-27.832,-35.645,0.000
3043.000,-16.113,-28.809,-24.902,-33.691,0.000
3047.000,-10.254,-31.738,-22.461,-29.297,0.000
3051.000,-25.879,-38.086,-24.902,-23.438,0.000
3055.000,-36.133,-37.598,-33.203,-24.902,0.000
3059.000,-35.645,-33.691,-37.598,-36.133,0.000
3062.000,-32.227,-33.691,-32.715,-33.691,0.000
3066.000,-30.273,-23.926,-32.715,-30.273,0.000
3070.000,-31.250,-28.320,-38.086,-38.574,0.000
3074.000,-29.785,-37.598,-38.574,-35.156,0.000
3078.000,-39.062,-26.367,-36.621,-35.645,0.000
3082.000,-54.688,-27.344,-35.156,-37.598,0.000
3086.000,-57.617,-29.785,-37.109,-38.086,0.000
3090.000,-60.059,-21.973,-36.621,-49.805,0.000
3094.000,-57.129,-23.926,-35.645,-57.129,0.000
3098.000,-49.805,-17.578,-37.109,-47.852,0.000
3102.000,-37.109,-19.531,-36.133,-32.715,0.000
3105.000,-26.855,-29.297,-40.527,-26.367,0.000
3109.000,-27.344,-17.578,-45.898,-39.062,0.000
3113.000,-30.273,-10.254,-39.551,-43.945,0.000
3117.000,-32.715,-14.160,-33.691,-31.250,0.000
3121.000,-34.668,-17.090,-31.738,-24.414,0.000
3125.000,-24.414,-20.508,-39.062,-27.832,0.000
3129.000,-17.578,-25.879,-44.922,-30.762,0.000
3133.000,-15.625,-29.297,-39.551,-25.391,0.000
3137.000,-8.301,-25.879,-33.203,-24.902,0.000
3141.000,-14.648,-25.391,-32.227,-28.320,0.000
3144.000,-35.156,-27.344,-32.715,-20.020,0.000
3148.000,-35.645,-27.832,-32.715,-15.137,0.000
3152.000,-33.691,-33.203,-30.762,-18.066,0.000
3156.000,-33.691,-33.691,-29.297,-23.438,0.000
3160.000,-28.809,-35.645,-30.762,-37.598,0.000
3164.000,-20.020,-27.832,-31.250,-20.508,0.000
3168.000,-20.020,-18.555,-24.414,-16.113,0.000
3172.000,-40.039,-24.414,-18.555,-39.062,0.000
3176.000,-48.828,-27.344,-23.926,-45.898,0.000
3180.000,-42.969,-25.391,-38.574,-44.922,0.000
3184.000,-42.480,-28.809,-34.180,-41.504,0.000
3187.000,-51.270,-28.809,-21.973,-40.039,0.000
3191.000,-45.898,-32.227,-27.832,-48.340,0.000
3195.000,-30.762,-35.156,-26.367,-45.410,0.000
3199.000,-38.574,-26.855,-20.508,-34.668,0.000
3203.000,-47.852,-18.066,-21.973,-37.598,0.000
3207.000,-38.574,-23.926,-23.438,-32.715,0.000
3211.000,-23.926,-25.391,-36.621,-29.785,0.000
3215.000,-25.391,-21.973,-48.828,-30.762,0.000
3219.000,-41.992,-22.949,-35.156,-30.762,0.000
3223.000,-34.180,-23.926,-25.391,-31.250,0.000
3227.000,-18.555,-22.949,-30.273,-11.230,0.000
3230.000,-17.090,-24.414,-36.133,0.977,0.000
3234.000,-18.555,-28.320,-27.344,-14.160,0.000
3238.000,-21.973,-26.367,-21.484,-35.645,0.000
3242.000,-22.461,-30.762,-31.250,-27.832,0.000
3246.000,-36.133,-31.250,-38.574,-21.973,0.000
3250.000,-56.152,-27.832,-37.598,-29.297,0.000
3254.000,-54.199,-28.809,-39.062,-33.691,0.000
3258.000,-41.504,-29.297,-40.527,-38.086,0.000
3262.000,-26.855,-27.832,-40.039,-30.273,0.000
3266.000,-38.086,-34.668,-32.715,-29.297,0.000
3269.000,-62.988,-37.109,-34.180,-31.250,0.000
3273.000,-56.641,-31.250,-41.016,-39.062,0.000
3277.000,-44.434,-23.926,-35.156,-43.945,0.000
3281.000,-47.852,-21.484,-34.180,-34.668,0.000
3285.000,-54.199,-28.809,-41.504,-43.457,0.000
3289.000,-51.758,-33.203,-41.504,-48.828,0.000
3293.000,-51.758,-30.273,-34.180,-46.875,0.000
3297.000,-53.711,-25.391,-25.391,-35.156,0.000
3301.000,-62.012,-33.203,-23.926,-20.020,0.000
3305.000,-55.176,-38.086,-26.367,-25.391,0.000
3309.000,-41.504,-28.809,-28.320,-27.832,0.000
3312.000,-41.016,-27.832,-31.250,-11.230,0.000
3316.000,-20.508,-29.297,-26.367,-10.254,0.000
3320.000,-4.395,-26.855,-28.320,-23.926,0.000
3324.000,-23.438,-27.832,-32.227,-23.926,0.000
3328.000,-25.391,-26.367,-28.809,-16.113,0.000
3332.000,-25.879,-16.113,-28.809,-14.648,0.000
3336.000,-31.250,-10.254,-28.809,-10.254,0.000
3340.000,-23.438,-14.160,-25.391,0.000,0.000
3344.000,-14.160,-20.508,-26.855,-0.977,0.000
3348.000,-8.301,-13.184,-26.855,-12.207,0.000
3352.000,-22.949,-7.812,-31.250,-11.230,0.000
3355.000,-26.855,-17.578,-31.250,-10.254,0.000
3359.000,-14.160,-22.949,-19.043,-19.531,0.000
3363.000,-25.391,-23.438,-23.438,-20.996,0.000
3367.000,-31.250,-25.391,-38.086,-30.273,0.000
3371.000,-19.531,-18.555,-41.016,-44.922,0.000
