timestamp,TP9,AF7,AF8,TP10,Right AUX
1673806177.768,-9.766,-17.090,-17.090,-3.906,0.000
1673806177.771,-12.695,-13.184,-16.602,0.000,0.000
1673806177.775,-15.625,-8.301,-13.672,-4.395,0.000
1673806177.779,-15.625,-14.648,-12.207,-7.812,0.000
1673806177.783,-9.277,-21.484,-16.113,2.441,0.000
1673806177.787,1.465,-19.531,-15.625,8.301,0.000
1673806177.791,2.441,-14.160,-15.625,-10.742,0.000
1673806177.795,-5.859,-14.648,-20.508,-17.090,0.000
1673806177.799,-20.508,-14.648,-17.578,-6.836,0.000
1673806177.803,-14.648,-12.207,-13.672,4.395,0.000
1673806177.807,-1.953,-16.602,-16.113,2.930,0.000
1673806177.811,-13.184,-15.625,-12.695,-3.906,0.000
1673806177.814,-16.113,-12.695,-7.324,-0.977,0.000
1673806177.818,-7.324,-10.254,-9.766,4.883,0.000
1673806177.822,-16.113,-11.719,-14.648,8.789,0.000
1673806177.826,-19.043,-20.508,-12.695,2.441,0.000
1673806177.830,-10.254,-23.438,-9.766,-0.488,0.000
1673806177.834,-4.883,-13.672,-10.742,5.859,0.000
1673806177.838,-6.348,-7.324,-14.160,2.441,0.000
1673806177.842,-15.625,-14.160,-16.113,-1.953,0.000
1673806177.846,-8.789,-13.672,-13.672,5.859,0.000
1673806177.850,-7.812,-8.789,-14.160,12.695,0.000
1673806177.853,-12.207,-7.812,-14.160,13.672,0.000
1673806177.857,0.977,-3.418,-13.184,8.301,0.000
1673806177.861,-2.930,-6.348,-11.230,-3.906,0.000
1673806177.865,3.906,-15.625,-7.812,2.930,0.000
1673806177.869,2.930,-13.184,-12.207,9.766,0.000
1673806177.873,-3.418,-9.277,-18.066,-1.465,0.000
1673806177.877,15.137,-7.324,-15.625,-3.418,0.000
1673806177.881,29.785,-4.883,-13.672,1.465,0.000
1673806177.885,16.602,-7.324,-14.648,9.277,0.000
1673806177.889,-5.859,-7.324,-11.719,8.789,0.000
1673806177.893,-15.137,-7.812,-12.207,4.395,0.000
1673806177.896,-12.695,-15.625,-15.625,-1.953,0.000
1673806177.900,-24.414,-20.020,-20.508,-7.324,0.000
1673806177.904,-21.484,-17.090,-19.043,-7.324,0.000
1673806177.908,-0.977,-13.672,-20.020,-14.160,0.000
1673806177.912,-2.441,-14.160,-21.484,-13.184,0.000
1673806177.916,-11.719,-16.602,-20.508,-12.695,0.000
1673806177.920,-19.043,-22.949,-21.484,-11.719,0.000
1673806177.924,-32.715,-26.855,-23.438,-13.672,0.000
1673806177.928,-27.344,-19.043,-25.391,-12.695,0.000
1673806177.932,-14.160,-14.160,-23.438,-8.301,0.000
1673806177.936,-8.301,-15.625,-17.578,-5.371,0.000
1673806177.939,-12.207,-14.648,-14.648,0.977,0.000
1673806177.943,-20.020,-19.043,-18.066,-8.301,0.000
1673806177.947,-20.020,-24.414,-25.391,-13.184,0.000
1673806177.951,-11.719,-20.020,-25.391,-10.254,0.000
1673806177.955,-11.719,-20.020,-20.508,-11.230,0.000
1673806177.959,-7.812,-23.438,-23.926,-16.113,0.000
1673806177.963,-3.906,-20.020,-23.438,-12.695,0.000
1673806177.967,-20.020,-19.531,-19.043,-11.230,0.000
1673806177.971,-37.598,-20.020,-20.508,-11.719,0.000
1673806177.975,-30.273,-19.043,-22.949,-15.137,0.000
1673806177.978,-9.766,-16.602,-22.461,-15.137,0.000
1673806177.982,-1.953,-15.137,-19.531,-7.812,0.000
1673806177.986,-22.949,-19.531,-26.367,-10.254,0.000
1673806177.990,-26.855,-25.391,-27.832,-19.043,0.000
1673806177.994,-17.578,-25.879,-19.043,-24.414,0.000
1673806177.998,-22.949,-24.414,-17.578,-17.090,0.000
1673806178.002,-23.926,-23.926,-24.414,-11.230,0.000
1673806178.006,-28.320,-20.996,-26.855,-6.348,0.000
1673806178.010,-24.902,-27.344,-22.949,-11.719,0.000
1673806178.014,-30.762,-28.809,-22.461,-16.113,0.000
1673806178.018,-28.809,-20.996,-22.461,-14.648,0.000
1673806178.021,-19.531,-28.809,-20.508,-6.836,0.000
1673806178.025,-21.484,-32.715,-21.973,0.488,0.000
1673806178.029,-8.301,-18.066,-17.090,6.836,0.000
1673806178.033,-9.766,-10.742,-18.066,4.883,0.000
1673806178.037,-7.812,-15.137,-22.461,-2.441,0.000
1673806178.041,-4.883,-13.672,-25.391,-13.184,0.000
1673806178.045,-21.973,-11.230,-28.809,-12.695,0.000
1673806178.049,-13.184,-13.672,-31.250,-8.789,0.000
1673806178.053,-6.348,-16.113,-26.855,-8.301,0.000
1673806178.057,-24.902,-18.066,-21.973,-10.742,0.000
1673806178.061,-40.527,-18.555,-24.902,-13.672,0.000
1673806178.064,-34.180,-17.090,-24.414,-4.883,0.000
1673806178.068,-25.879,-21.973,-21.973,-2.930,0.000
1673806178.072,-21.973,-27.832,-27.344,-4.395,0.000
1673806178.076,-21.484,-27.832,-33.203,-16.113,0.000
1673806178.080,-15.625,-27.832,-32.227,-21.973,0.000
1673806178.084,-18.555,-26.367,-29.785,-8.301,0.000
1673806178.088,-23.438,-20.996,-27.344,-6.348,0.000
1673806178.092,-13.672,-21.484,-31.738,-15.625,0.000
1673806178.096,4.395,-16.113,-32.227,-10.742,0.000
1673806178.100,-9.277,-14.160,-27.832,2.930,0.000
1673806178.103,-39.062,-15.137,-24.414,3.418,0.000
1673806178.107,-15.137,-16.113,-26.367,-1.465,0.000
1673806178.111,4.395,-17.090,-24.414,-1.465,0.000
1673806178.115,-2.441,-21.484,-20.996,4.883,0.000
1673806178.119,-6.836,-26.367,-19.043,12.695,0.000
1673806178.123,-14.648,-19.043,-19.531,-1.465,0.000
1673806178.127,-23.926,-14.160,-24.902,-7.812,0.000
1673806178.131,-24.414,-11.230,-20.508,4.883,0.000
1673806178.135,-20.996,-15.625,-21.973,2.930,0.000
1673806178.139,-12.207,-23.438,-30.762,-17.090,0.000
1673806178.143,-7.812,-20.996,-32.227,-21.484,0.000
1673806178.146,6.836,-20.508,-30.762,-20.508,0.000
1673806178.150,-0.488,-23.438,-29.785,-21.973,0.000
1673806178.154,-27.344,-26.855,-28.320,-16.602,0.000
1673806178.158,-20.020,-26.367,-24.414,-21.484,0.000
1673806178.162,-23.438,-21.973,-23.438,-21.484,0.000
1673806178.166,-29.297,-26.367,-23.438,-18.066,0.000
1673806178.170,-22.461,-27.832,-26.855,-21.973,0.000
1673806178.174,-27.832,-31.738,-25.391,-26.367,0.000
1673806178.178,-31.738,-31.738,-26.367,-33.691,0.000
1673806178.182,-27.832,-22.461,-30.762,-38.574,0.000
1673806178.186,-18.555,-26.367,-30.762,-31.250,0.000
1673806178.189,-19.043,-31.738,-28.809,-27.832,0.000
1673806178.193,-29.785,-29.785,-24.414,-40.527,0.000
1673806178.197,-33.203,-30.273,-25.879,-39.551,0.000
1673806178.201,-37.598,-31.250,-34.668,-23.926,0.000
1673806178.205,-30.273,-27.832,-35.156,-17.578,0.000
1673806178.209,-8.789,-33.691,-31.738,-25.391,0.000
1673806178.213,0.000,-30.762,-30.762,-16.602,0.000
1673806178.217,-9.766,-24.902,-31.250,-10.742,0.000
1673806178.221,-21.973,-25.391,-28.809,-11.719,0.000
1673806178.225,-26.367,-25.879,-28.320,-11.230,0.000
1673806178.228,-26.855,-27.344,-26.855,-15.625,0.000
1673806178.232,-28.320,-29.785,-22.949,-6.348,0.000
1673806178.236,-28.320,-20.996,-19.531,0.000,0.000
1673806178.240,-25.879,-19.531,-18.066,-10.254,0.000
1673806178.244,-20.508,-26.367,-22.461,-20.020,0.000
1673806178.248,-20.020,-30.273,-23.926,-21.484,0.000
1673806178.252,-22.949,-24.902,-21.484,-11.719,0.000
1673806178.256,-25.879,-23.438,-20.020,-16.602,0.000
1673806178.260,-24.414,-30.273,-22.461,-33.691,0.000
1673806178.264,-15.625,-27.344,-25.391,-36.621,0.000
1673806178.268,-25.879,-24.902,-22.461,-22.949,0.000
1673806178.271,-48.828,-25.391,-27.344,-20.508,0.000
1673806178.275,-55.664,-25.879,-30.273,-26.367,0.000
1673806178.279,-44.434,-27.832,-27.344,-18.555,0.000
1673806178.283,-17.578,-23.926,-25.391,-14.648,0.000
1673806178.287,-9.277,-23.926,-26.367,-19.531,0.000
1673806178.291,-27.344,-25.391,-25.391,-18.066,0.000
1673806178.295,-35.156,-23.438,-22.461,-16.602,0.000
1673806178.299,-28.809,-20.508,-20.996,-15.137,0.000
1673806178.303,-16.113,-29.785,-24.414,-20.020,0.000
1673806178.307,-13.672,-28.320,-27.832,-21.484,0.000
1673806178.311,-10.742,-18.555,-22.949,-11.230,0.000
1673806178.314,-3.418,-15.137,-22.461,-6.836,0.000
1673806178.318,-20.996,-19.531,-24.414,-12.695,0.000
1673806178.322,-27.832,-24.414,-20.996,-18.066,0.000
1673806178.326,-25.391,-20.996,-19.531,-20.020,0.000
1673806178.330,-22.461,-28.809,-22.949,-21.973,0.000
1673806178.334,-22.949,-34.668,-28.320,-20.508,0.000
1673806178.338,-26.855,-28.809,-28.320,-23.438,0.000
1673806178.342,-10.254,-21.484,-21.973,-30.762,0.000
1673806178.346,-11.719,-27.344,-23.438,-34.668,0.000
1673806178.350,-31.738,-27.344,-19.531,-20.020,0.000
1673806178.353,-38.086,-20.020,-15.625,-6.836,0.000
1673806178.357,-35.156,-24.902,-16.602,-3.906,0.000
1673806178.361,-26.855,-21.973,-18.555,-10.742,0.000
1673806178.365,-22.949,-15.625,-20.508,-17.578,0.000
1673806178.369,-16.602,-20.996,-21.484,-13.672,0.000
1673806178.373,-9.277,-25.391,-27.832,-27.832,0.000
1673806178.377,0.488,-21.484,-23.926,-36.621,0.000
1673806178.381,-1.465,-20.508,-23.438,-24.414,0.000
1673806178.385,-22.461,-24.902,-25.879,-13.672,0.000
1673806178.389,-18.555,-25.391,-24.414,-10.742,0.000
1673806178.393,-5.859,-23.438,-29.297,-14.160,0.000
1673806178.396,-5.859,-20.020,-28.320,-12.695,0.000
1673806178.400,-8.789,-18.555,-23.438,-7.324,0.000
1673806178.404,-8.301,-20.020,-16.113,0.488,0.000
1673806178.408,-6.836,-20.996,-18.555,-9.766,0.000
1673806178.412,-6.836,-27.344,-25.391,-17.090,0.000
1673806178.416,-16.602,-24.902,-21.973,-10.742,0.000
1673806178.420,-24.902,-20.020,-19.043,-16.113,0.000
1673806178.424,-22.461,-15.137,-18.066,-23.438,0.000
1673806178.428,-20.020,-15.625,-18.555,-23.438,0.000
1673806178.432,-17.090,-23.926,-24.414,-20.020,0.000
1673806178.436,-17.090,-26.367,-23.438,-21.484,0.000
1673806178.439,-15.137,-27.344,-20.020,-24.902,0.000
1673806178.443,-6.348,-23.926,-24.414,-20.996,0.000
1673806178.447,-14.160,-16.113,-24.414,-7.324,0.000
1673806178.451,-25.879,-17.090,-17.578,-4.883,0.000
1673806178.455,-14.648,-22.461,-23.926,-14.648,0.000
1673806178.459,-12.207,-21.973,-28.320,-20.996,0.000
1673806178.463,-16.602,-16.602,-27.832,-29.785,0.000
1673806178.467,-12.695,-14.648,-28.320,-21.484,0.000
1673806178.471,-2.930,-17.578,-23.438,-7.812,0.000
1673806178.475,7.324,-12.695,-16.113,-5.371,0.000
1673806178.478,14.160,-10.254,-14.648,-1.465,0.000
1673806178.482,23.438,-17.090,-20.996,-5.371,0.000
1673806178.486,8.789,-22.949,-24.902,-9.277,0.000
1673806178.490,-8.789,-20.508,-22.461,-1.953,0.000
1673806178.494,-5.859,-20.996,-23.438,1.465,0.000
1673806178.498,-7.812,-21.973,-21.484,-3.906,0.000
1673806178.502,-3.906,-12.207,-16.602,3.418,0.000
1673806178.506,3.418,-6.836,-20.508,5.371,0.000
1673806178.510,5.859,-10.742,-20.020,-3.418,0.000
1673806178.514,2.930,-15.137,-18.066,0.488,0.000
1673806178.518,-4.883,-15.625,-19.043,1.465,0.000
1673806178.521,-5.859,-12.695,-14.648,2.441,0.000
1673806178.525,6.836,-9.766,-16.602,3.418,0.000
1673806178.529,5.371,-9.277,-21.484,0.977,0.000
1673806178.533,-1.465,-12.207,-13.672,13.184,0.000
1673806178.537,4.395,-12.695,-5.371,20.020,0.000
1673806178.541,1.465,-5.371,-5.371,17.578,0.000
1673806178.545,-3.418,-7.812,-3.906,13.672,0.000
1673806178.549,-4.883,-14.648,-1.465,15.625,0.000
1673806178.553,-5.859,-12.207,0.000,22.461,0.000
1673806178.557,3.906,-6.836,-0.977,10.254,0.000
1673806178.561,8.789,-10.742,-6.836,-6.348,0.000
1673806178.564,-0.977,-14.160,-6.348,-4.883,0.000
1673806178.568,-9.277,-8.789,-1.465,6.348,0.000
1673806178.572,-20.020,-3.906,2.930,9.277,0.000
1673806178.576,-20.508,-2.441,1.465,2.441,0.000
1673806178.580,-17.578,-7.324,-1.953,8.789,0.000
1673806178.584,-5.859,-2.930,0.488,11.719,0.000
1673806178.588,5.371,2.930,-2.930,6.348,0.000
1673806178.592,11.719,-1.953,-9.766,8.301,0.000
1673806178.596,18.555,-8.789,-11.719,5.371,0.000
1673806178.600,7.812,-9.766,-12.207,10.254,0.000
1673806178.603,-5.371,-5.859,-7.324,12.695,0.000
1673806178.607,-9.277,-12.207,-6.836,2.441,0.000
1673806178.611,-7.324,-9.766,-9.766,3.906,0.000
1673806178.615,-1.465,-3.418,-17.090,-2.441,0.000
1673806178.619,0.977,-6.348,-22.461,-15.625,0.000
1673806178.623,-3.418,-8.301,-20.508,-13.672,0.000
1673806178.627,-10.742,-11.230,-23.438,-10.254,0.000
1673806178.631,-7.324,-11.230,-24.414,-7.324,0.000
1673806178.635,-7.812,-9.277,-21.484,-6.348,0.000
1673806178.639,-22.461,-8.301,-15.625,2.930,0.000
1673806178.643,-9.766,-6.348,-14.160,4.883,0.000
1673806178.646,3.418,-10.254,-19.531,-4.883,0.000
1673806178.650,-5.859,-12.207,-16.602,-6.348,0.000
1673806178.654,-7.324,-6.836,-13.184,-14.648,0.000
1673806178.658,2.930,-0.977,-14.160,-10.742,0.000
1673806178.662,-0.488,-5.371,-14.648,-10.742,0.000
1673806178.666,-5.859,-10.254,-18.066,-5.371,0.000
1673806178.670,-7.812,-8.301,-18.555,0.977,0.000
1673806178.674,-2.441,-15.625,-18.066,-3.418,0.000
1673806178.678,10.742,-22.949,-22.949,-7.324,0.000
1673806178.682,13.672,-16.602,-27.344,-9.766,0.000
1673806178.686,-8.301,-11.719,-27.344,-5.371,0.000
1673806178.689,-31.250,-15.625,-29.297,-3.906,0.000
1673806178.693,-19.531,-13.672,-20.996,-11.230,0.000
1673806178.697,-8.301,-18.555,-16.113,-19.043,0.000
1673806178.701,-6.348,-21.973,-20.996,-17.578,0.000
1673806178.705,-9.766,-20.020,-18.555,-13.184,0.000
1673806178.709,-29.785,-25.391,-15.137,-23.438,0.000
1673806178.713,-30.273,-28.320,-13.672,-27.832,0.000
1673806178.717,-22.461,-27.344,-19.043,-16.113,0.000
1673806178.721,-19.531,-16.602,-25.391,-15.137,0.000
1673806178.725,-27.344,-9.277,-21.484,-18.066,0.000
1673806178.728,-33.691,-14.648,-23.438,-20.508,0.000
1673806178.732,-26.367,-18.555,-25.879,-25.879,0.000
1673806178.736,-19.531,-20.020,-24.902,-25.879,0.000
1673806178.740,-20.020,-21.484,-23.926,-24.414,0.000
1673806178.744,-14.160,-19.531,-20.020,-19.043,0.000
1673806178.748,-3.906,-17.090,-17.578,-11.719,0.000
1673806178.752,-12.695,-18.555,-21.484,-9.277,0.000
1673806178.756,-14.160,-16.113,-21.973,-13.672,0.000
1673806178.760,-5.371,-17.090,-18.555,-15.137,0.000
1673806178.764,7.324,-18.555,-19.531,-12.207,0.000
1673806178.768,1.465,-16.113,-20.508,-11.230,0.000
1673806178.771,-17.578,-19.043,-22.461,-12.207,0.000
1673806178.775,-18.555,-16.602,-21.484,-6.836,0.000
1673806178.779,-19.531,-18.066,-21.484,0.977,0.000
1673806178.783,-15.137,-21.973,-23.438,-9.277,0.000
1673806178.787,-19.043,-17.578,-22.461,-23.438,0.000
1673806178.791,-25.391,-16.602,-20.996,-21.484,0.000
1673806178.795,-17.578,-16.602,-23.926,-25.391,0.000
1673806178.799,-18.066,-19.531,-22.949,-29.297,0.000
1673806178.803,-2.441,-20.020,-19.531,-24.414,0.000
1673806178.807,-3.418,-20.020,-21.484,-26.367,0.000
1673806178.811,-22.949,-29.297,-23.926,-30.273,0.000
1673806178.814,-18.555,-33.203,-27.344,-29.785,0.000
1673806178.818,-12.695,-29.785,-21.973,-23.438,0.000
1673806178.822,-18.555,-35.156,-25.391,-19.531,0.000
1673806178.826,-21.484,-32.227,-31.738,-23.926,0.000
1673806178.830,-17.090,-22.949,-29.785,-24.902,0.000
1673806178.834,-3.418,-26.367,-28.809,-23.438,0.000
1673806178.838,-1.465,-24.902,-24.414,-17.090,0.000
1673806178.842,-13.672,-21.973,-23.438,-18.066,0.000
1673806178.846,-21.484,-23.438,-24.902,-23.438,0.000
1673806178.850,-20.020,-20.508,-28.809,-18.555,0.000
1673806178.853,-16.113,-18.066,-26.367,-10.742,0.000
1673806178.857,-7.324,-18.555,-23.926,-9.277,0.000
1673806178.861,10.254,-14.160,-26.367,-11.230,0.000
1673806178.865,18.555,-12.207,-24.414,-6.836,0.000
1673806178.869,1.953,-19.043,-23.438,-4.883,0.000
1673806178.873,-14.648,-16.602,-24.414,-4.395,0.000
1673806178.877,-9.277,-16.113,-17.090,-7.812,0.000
1673806178.881,-2.930,-20.020,-11.719,-3.418,0.000
1673806178.885,0.000,-20.020,-14.160,-4.883,0.000
1673806178.889,7.812,-17.578,-19.043,-17.090,0.000
1673806178.893,9.766,-14.648,-19.531,-17.578,0.000
1673806178.896,3.418,-21.973,-15.625,-8.301,0.000
1673806178.900,-9.277,-23.926,-16.602,-7.324,0.000
1673806178.904,-18.066,-22.461,-18.555,-11.230,0.000
1673806178.908,-6.348,-18.555,-15.625,-12.695,0.000
1673806178.912,12.207,-9.766,-17.090,-20.996,0.000
1673806178.916,20.020,-9.766,-18.066,-13.184,0.000
1673806178.920,24.902,-14.648,-20.996,-4.883,0.000
1673806178.924,11.230,-18.066,-24.414,-20.508,0.000
1673806178.928,-6.836,-20.996,-23.926,-22.949,0.000
1673806178.932,-10.254,-25.391,-29.297,-9.766,0.000
1673806178.935,-11.230,-23.438,-28.320,0.977,0.000
1673806178.939,-12.695,-21.484,-26.367,-0.488,0.000
1673806178.943,-10.254,-21.973,-28.320,-8.301,0.000
1673806178.947,-3.906,-24.414,-30.762,-6.348,0.000
1673806178.951,5.371,-27.344,-30.762,-6.348,0.000
1673806178.955,-1.465,-22.949,-28.320,-9.766,0.000
1673806178.959,-16.602,-26.367,-35.645,-21.484,0.000
1673806178.963,-36.133,-38.086,-38.086,-23.438,0.000
1673806178.967,-33.691,-41.504,-36.133,-13.184,0.000
1673806178.971,-24.414,-41.016,-28.320,-13.184,0.000
1673806178.975,-26.367,-39.062,-23.926,-13.672,0.000
1673806178.978,-27.832,-31.250,-28.809,-25.391,0.000
1673806178.982,-34.668,-29.297,-28.809,-26.855,0.000
1673806178.986,-41.992,-28.320,-21.484,-12.207,0.000
1673806178.990,-35.645,-26.367,-21.484,-14.160,0.000
1673806178.994,-33.691,-32.227,-27.344,-22.949,0.000
1673806178.998,-26.367,-31.250,-29.297,-18.555,0.000
1673806179.002,-15.625,-26.855,-28.809,-21.484,0.000
1673806179.006,-20.508,-28.320,-27.832,-28.809,0.000
1673806179.010,-17.578,-26.367,-25.879,-22.949,0.000
1673806179.014,-7.812,-23.926,-19.531,-20.996,0.000
1673806179.018,-14.648,-27.832,-21.973,-17.090,0.000
1673806179.021,-20.508,-35.156,-26.855,-15.137,0.000
1673806179.025,-21.484,-38.574,-25.391,-26.367,0.000
1673806179.029,-16.602,-34.668,-24.414,-28.320,0.000
1673806179.033,-29.785,-33.203,-25.879,-22.949,0.000
1673806179.037,-60.059,-32.715,-27.832,-21.973,0.000
1673806179.041,-49.805,-29.297,-23.926,-19.043,0.000
1673806179.045,-24.902,-29.785,-24.902,-15.137,0.000
1673806179.049,-17.578,-24.902,-29.785,-10.742,0.000
1673806179.053,-30.762,-24.414,-29.297,-8.301,0.000
1673806179.057,-35.645,-31.250,-25.879,-8.301,0.000
1673806179.060,-25.391,-30.762,-23.926,-11.230,0.000
1673806179.064,-29.297,-24.902,-24.414,-8.301,0.000
1673806179.068,-49.805,-23.926,-29.785,-10.254,0.000
1673806179.072,-49.316,-30.273,-31.250,-13.672,0.000
1673806179.076,-33.203,-31.250,-27.344,-20.508,0.000
1673806179.080,-30.762,-34.668,-30.273,-18.555,0.000
1673806179.084,-32.715,-40.039,-31.738,-10.254,0.000
1673806179.088,-25.879,-33.203,-28.320,-8.301,0.000
1673806179.092,-13.184,-27.832,-29.785,-13.672,0.000
1673806179.096,-8.301,-24.414,-27.344,-15.137,0.000
1673806179.100,0.977,-20.508,-26.367,-17.090,0.000
1673806179.103,-6.348,-24.414,-30.762,-25.391,0.000
1673806179.107,-8.789,-26.367,-26.367,-27.832,0.000
1673806179.111,-4.395,-25.879,-26.855,-24.414,0.000
1673806179.115,-20.020,-29.785,-31.250,-20.020,0.000
1673806179.119,-22.461,-34.668,-29.297,-14.648,0.000
1673806179.123,-21.484,-32.227,-23.926,-7.324,0.000
1673806179.127,-12.207,-25.879,-19.531,-7.324,0.000
1673806179.131,-14.160,-28.320,-18.555,-14.160,0.000
1673806179.135,-30.273,-25.879,-19.531,-7.812,0.000
1673806179.139,-34.180,-27.832,-24.902,-12.695,0.000
1673806179.143,-29.297,-27.832,-25.391,-19.043,0.000
1673806179.146,-20.020,-22.949,-24.414,-25.879,0.000
1673806179.150,-32.715,-29.785,-21.973,-33.691,0.000
1673806179.154,-47.363,-29.297,-15.625,-32.715,0.000
1673806179.158,-46.387,-24.902,-18.555,-32.227,0.000
1673806179.162,-41.992,-27.344,-19.531,-26.367,0.000
1673806179.166,-26.855,-25.391,-14.160,-21.484,0.000
1673806179.170,-32.227,-25.391,-18.555,-14.648,0.000
1673806179.174,-48.340,-25.879,-18.555,-22.461,0.000
1673806179.178,-44.434,-27.344,-17.578,-34.180,0.000
1673806179.182,-50.781,-30.273,-23.438,-28.320,0.000
1673806179.186,-47.852,-23.438,-22.949,-22.461,0.000
1673806179.189,-46.875,-17.090,-18.066,-21.973,0.000
1673806179.193,-47.363,-20.508,-19.043,-25.879,0.000
1673806179.197,-23.438,-26.367,-21.484,-16.602,0.000
1673806179.201,-27.832,-26.855,-23.926,-0.488,0.000
1673806179.205,-42.480,-27.344,-23.438,-3.418,0.000
1673806179.209,-40.039,-23.926,-17.578,-4.395,0.000
1673806179.213,-22.461,-23.438,-18.555,-0.977,0.000
1673806179.217,-7.324,-20.996,-21.484,-9.277,0.000
1673806179.221,-8.789,-15.137,-19.043,-12.207,0.000
1673806179.225,-16.602,-15.625,-18.066,-5.859,0.000
1673806179.228,-24.414,-11.719,-20.996,-7.324,0.000
1673806179.232,-18.066,-17.578,-25.879,-8.301,0.000
1673806179.236,-15.625,-21.973,-21.484,0.977,0.000
1673806179.240,-21.484,-20.508,-18.555,0.977,0.000
1673806179.244,-18.066,-22.949,-17.090,-9.277,0.000
1673806179.248,-22.949,-25.879,-19.531,-20.996,0.000
1673806179.252,-33.691,-27.832,-21.973,-23.438,0.000
1673806179.256,-47.852,-29.785,-18.555,-14.648,0.000
1673806179.260,-45.898,-29.785,-19.531,-17.090,0.000
1673806179.264,-30.762,-26.855,-22.949,-20.508,0.000
1673806179.268,-33.203,-24.902,-21.973,-19.531,0.000
1673806179.271,-44.434,-25.879,-21.973,-15.137,0.000
1673806179.275,-40.039,-23.926,-21.484,-15.137,0.000
1673806179.279,-34.180,-23.438,-20.996,-14.648,0.000
1673806179.283,-32.715,-26.855,-19.043,-14.648,0.000
1673806179.287,-35.156,-21.973,-13.672,-11.719,0.000
1673806179.291,-40.039,-20.996,-16.113,-9.766,0.000
1673806179.295,-32.227,-22.949,-24.902,-16.113,0.000
1673806179.299,-24.902,-19.531,-24.414,-16.113,0.000
1673806179.303,-25.391,-21.973,-20.508,-5.859,0.000
1673806179.307,-22.949,-21.484,-24.414,-8.301,0.000
1673806179.310,-7.324,-15.625,-27.344,-17.090,0.000
1673806179.314,1.953,-18.555,-25.391,-12.695,0.000
1673806179.318,0.000,-17.090,-16.113,-3.418,0.000
1673806179.322,-17.090,-10.254,-11.719,0.488,0.000
1673806179.326,-20.020,-14.160,-13.672,-9.277,0.000
1673806179.330,-10.254,-21.973,-17.578,-7.812,0.000
1673806179.334,-12.207,-17.090,-14.160,8.301,0.000
1673806179.338,-18.066,-12.695,-12.695,-0.977,0.000
1673806179.342,-26.855,-8.301,-13.672,-3.418,0.000
1673806179.346,-23.438,-9.766,-11.230,-6.836,0.000
1673806179.350,-9.277,-7.812,-7.812,-18.066,0.000
1673806179.353,-10.254,-15.625,-11.230,-20.020,0.000
1673806179.357,-1.953,-21.973,-12.207,-19.043,0.000
1673806179.361,7.812,-13.184,-8.301,-14.160,0.000
1673806179.365,3.906,-9.277,-6.836,-11.719,0.000
1673806179.369,-26.855,-9.277,-4.395,-5.371,0.000
1673806179.373,-44.434,-11.719,-5.371,-2.930,0.000
1673806179.377,-28.320,-17.578,-6.836,-4.883,0.000
1673806179.381,-22.949,-18.066,-6.836,-2.441,0.000
1673806179.385,-20.996,-13.184,-10.742,-9.277,0.000
1673806179.389,-11.230,-14.648,-16.113,-16.602,0.000
1673806179.393,-5.859,-14.160,-14.648,-10.742,0.000
1673806179.396,-20.508,-15.137,-14.160,-8.301,0.000
1673806179.400,-26.367,-19.531,-15.137,-3.906,0.000
1673806179.404,-24.902,-19.531,-6.836,5.859,0.000
1673806179.408,-27.832,-14.648,-2.930,2.930,0.000
1673806179.412,-22.461,-18.555,-11.719,-4.395,0.000
1673806179.416,-14.160,-13.184,-9.277,3.418,0.000
1673806179.420,-5.859,0.000,-1.465,2.930,0.000
1673806179.424,-15.137,-0.977,-1.465,-10.742,0.000
1673806179.428,-16.113,-10.254,-9.277,-20.020,0.000
1673806179.432,-17.578,-11.719,-12.695,-28.320,0.000
1673806179.435,-24.414,-11.719,-7.324,-29.297,0.000
1673806179.439,-11.230,-18.555,-7.324,-29.785,0.000
1673806179.443,-4.883,-24.902,-14.160,-37.598,0.000
1673806179.447,-22.949,-21.484,-16.602,-33.203,0.000
1673806179.451,-35.156,-25.879,-15.625,-19.043,0.000
1673806179.455,-33.203,-28.320,-12.695,-11.230,0.000
1673806179.459,-30.273,-24.902,-17.578,-16.113,0.000
1673806179.463,-18.555,-26.367,-23.438,-16.602,0.000
1673806179.467,-21.484,-27.832,-16.113,-4.883,0.000
1673806179.471,-27.832,-22.949,-12.695,-0.488,0.000
1673806179.475,-15.625,-22.461,-16.602,-1.465,0.000
1673806179.478,-5.371,-24.902,-17.090,-7.812,0.000
1673806179.482,4.883,-19.531,-14.648,-1.465,0.000
1673806179.486,-9.277,-19.043,-19.043,2.930,0.000
1673806179.490,-42.480,-25.879,-26.367,-14.648,0.000
1673806179.494,-35.156,-27.832,-24.414,-26.855,0.000
1673806179.498,-15.625,-23.926,-17.090,-13.672,0.000
1673806179.502,-8.301,-22.461,-15.625,-5.371,0.000
1673806179.506,-13.184,-26.367,-21.484,-16.602,0.000
1673806179.510,-33.691,-30.762,-20.508,-17.090,0.000
1673806179.514,-28.809,-29.785,-22.949,-18.555,0.000
1673806179.518,-14.648,-29.297,-31.250,-20.020,0.000
1673806179.521,-15.137,-27.344,-28.809,-15.625,0.000
1673806179.525,-19.043,-23.926,-23.438,-16.602,0.000
1673806179.529,-13.672,-25.391,-22.949,-12.695,0.000
1673806179.533,-11.230,-34.180,-32.715,-10.254,0.000
1673806179.537,-6.836,-36.133,-26.367,-14.648,0.000
1673806179.541,-10.254,-28.320,-21.484,-19.043,0.000
1673806179.545,-15.137,-25.391,-24.902,-11.230,0.000
1673806179.549,-24.414,-25.879,-25.391,-0.977,0.000
1673806179.553,-26.367,-20.508,-24.902,-0.488,0.000
1673806179.557,-8.301,-16.113,-22.461,-6.836,0.000
1673806179.560,4.883,-14.160,-20.996,-7.324,0.000
1673806179.564,11.719,-17.578,-19.531,-3.418,0.000
1673806179.568,0.977,-20.020,-21.484,-0.977,0.000
1673806179.572,-2.930,-19.531,-22.461,3.418,0.000
1673806179.576,-6.348,-17.090,-25.879,-5.859,0.000
1673806179.580,-15.625,-20.020,-26.855,-17.578,0.000
1673806179.584,-23.438,-22.949,-21.973,-13.672,0.000
1673806179.588,-24.414,-16.113,-18.066,-7.812,0.000
1673806179.592,-12.695,-18.555,-21.973,-19.043,0.000
1673806179.596,-20.996,-29.297,-27.832,-29.297,0.000
1673806179.600,-27.832,-25.879,-24.414,-24.414,0.000
1673806179.603,-16.113,-23.438,-19.531,-22.461,0.000
1673806179.607,-12.695,-25.391,-22.949,-23.926,0.000
1673806179.611,-22.461,-20.996,-26.367,-13.672,0.000
1673806179.615,-23.926,-16.113,-23.926,-3.418,0.000
1673806179.619,-20.020,-16.113,-19.531,5.371,0.000
1673806179.623,-18.066,-19.043,-22.949,-0.977,0.000
1673806179.627,-18.066,-23.926,-21.973,-5.859,0.000
1673806179.631,-8.301,-21.973,-25.391,-10.742,0.000
1673806179.635,6.836,-20.020,-28.809,-14.648,0.000
1673806179.639,5.859,-20.508,-25.879,-7.324,0.000
1673806179.643,-5.371,-22.949,-29.297,-17.578,0.000
1673806179.646,-10.742,-22.949,-29.785,-20.020,0.000
1673806179.650,-4.883,-21.484,-27.344,-14.648,0.000
1673806179.654,-8.301,-22.949,-25.879,-19.531,0.000
1673806179.658,-7.324,-20.020,-25.391,-22.461,0.000
1673806179.662,-5.371,-25.879,-27.344,-24.902,0.000
1673806179.666,-8.301,-32.715,-27.344,-20.996,0.000
1673806179.670,-9.277,-24.414,-30.273,-19.531,0.000
1673806179.674,-10.742,-25.391,-25.391,-23.926,0.000
1673806179.678,-11.230,-29.297,-22.461,-26.855,0.000
1673806179.682,-20.020,-24.414,-33.203,-32.715,0.000
1673806179.685,-27.344,-24.902,-33.203,-34.180,0.000
1673806179.689,-23.438,-23.926,-28.809,-27.344,0.000
1673806179.693,-19.043,-22.949,-30.762,-29.785,0.000
1673806179.697,-26.367,-24.902,-32.715,-27.344,0.000
1673806179.701,-35.645,-27.344,-30.273,-21.973,0.000
1673806179.705,-34.180,-26.855,-22.949,-26.855,0.000
1673806179.709,-29.785,-22.461,-20.508,-30.273,0.000
1673806179.713,-20.996,-22.949,-23.438,-26.855,0.000
1673806179.717,-19.531,-27.344,-25.391,-35.645,0.000
1673806179.721,-17.090,-24.414,-23.438,-33.203,0.000
1673806179.725,-7.812,-19.531,-23.438,-31.738,0.000
1673806179.728,-8.789,-20.508,-27.832,-40.039,0.000
1673806179.732,-8.789,-26.855,-29.785,-27.832,0.000
1673806179.736,-8.789,-27.344,-25.879,-20.508,0.000
1673806179.740,-14.160,-22.461,-23.926,-24.902,0.000
1673806179.744,-18.555,-28.320,-29.785,-26.855,0.000
1673806179.748,-18.066,-32.715,-29.785,-23.926,0.000
1673806179.752,-31.738,-33.203,-20.996,-12.695,0.000
1673806179.756,-32.715,-37.109,-24.414,-15.625,0.000
1673806179.760,-19.043,-39.551,-31.250,-24.902,0.000
1673806179.764,-22.461,-38.086,-28.809,-32.715,0.000
1673806179.768,-16.113,-35.156,-30.762,-30.762,0.000
1673806179.771,-14.648,-37.109,-31.738,-23.926,0.000
1673806179.775,-16.602,-39.062,-33.691,-29.785,0.000
1673806179.779,-30.762,-34.668,-31.738,-27.344,0.000
1673806179.783,-31.738,-28.320,-27.832,-14.160,0.000
1673806179.787,-34.668,-36.133,-32.227,-21.484,0.000
1673806179.791,-42.969,-37.598,-32.227,-25.879,0.000
1673806179.795,-38.086,-30.273,-33.691,-23.926,0.000
1673806179.799,-41.992,-34.180,-38.574,-27.832,0.000
1673806179.803,-45.898,-36.133,-34.180,-25.879,0.000
1673806179.807,-34.668,-28.809,-34.180,-28.320,0.000
1673806179.810,-22.461,-29.297,-32.227,-29.297,0.000
1673806179.814,-22.949,-36.133,-30.762,-27.832,0.000
1673806179.818,-22.949,-36.133,-39.551,-36.621,0.000
1673806179.822,-21.484,-37.598,-47.852,-46.387,0.000
1673806179.826,-35.645,-35.156,-39.551,-42.480,0.000
1673806179.830,-29.785,-22.461,-25.391,-23.926,0.000
1673806179.834,-20.508,-26.855,-25.391,-21.484,0.000
1673806179.838,-38.574,-37.109,-33.691,-27.832,0.000
1673806179.842,-40.039,-35.156,-28.320,-33.203,0.000
1673806179.846,-40.039,-33.691,-27.832,-24.902,0.000
1673806179.850,-42.480,-37.109,-36.133,-20.996,0.000
1673806179.853,-28.320,-39.551,-32.715,-28.320,0.000
1673806179.857,-17.578,-33.691,-27.832,-27.832,0.000
1673806179.861,0.000,-21.484,-28.809,-29.785,0.000
1673806179.865,-17.578,-21.484,-32.227,-32.227,0.000
1673806179.869,-57.129,-27.832,-37.598,-31.738,0.000
1673806179.873,-56.152,-31.738,-37.598,-24.414,0.000
1673806179.877,-52.734,-31.738,-35.156,-20.020,0.000
1673806179.881,-56.152,-31.250,-33.691,-26.855,0.000
1673806179.885,-55.664,-36.133,-32.227,-29.785,0.000
1673806179.889,-43.945,-38.086,-28.809,-27.832,0.000
1673806179.893,-31.250,-32.227,-25.391,-30.762,0.000
1673806179.896,-36.621,-34.668,-26.855,-27.344,0.000
1673806179.900,-39.551,-40.527,-27.344,-18.066,0.000
1673806179.904,-35.156,-42.480,-29.297,-24.902,0.000
1673806179.908,-21.484,-41.016,-32.715,-39.551,0.000
1673806179.912,-16.113,-40.039,-25.879,-40.527,0.000
1673806179.916,-35.645,-45.410,-18.066,-29.785,0.000
1673806179.920,-50.781,-44.434,-14.160,-17.090,0.000
1673806179.924,-44.922,-39.062,-21.973,-22.461,0.000
1673806179.928,-36.621,-31.250,-30.273,-21.484,0.000
1673806179.932,-36.133,-25.879,-29.297,-9.277,0.000
1673806179.935,-28.320,-27.832,-27.344,-14.648,0.000
1673806179.939,-30.273,-32.227,-29.297,-30.762,0.000
1673806179.943,-33.691,-35.156,-31.738,-26.367,0.000
1673806179.947,-21.973,-33.691,-28.809,-21.484,0.000
1673806179.951,-29.297,-30.273,-25.391,-24.902,0.000
1673806179.955,-40.527,-26.855,-22.949,-21.484,0.000
1673806179.959,-37.598,-23.438,-19.043,-11.230,0.000
1673806179.963,-35.156,-24.902,-19.043,-4.883,0.000
1673806179.967,-43.457,-32.715,-22.461,-6.348,0.000
1673806179.971,-36.621,-33.691,-24.902,-15.137,0.000
1673806179.975,-32.227,-32.227,-24.902,-22.949,0.000
1673806179.978,-23.926,-35.156,-25.391,-30.273,0.000
1673806179.982,-19.531,-35.645,-21.973,-25.879,0.000
1673806179.986,-21.484,-28.320,-16.602,-18.066,0.000
1673806179.990,-25.391,-18.555,-14.648,-12.207,0.000
1673806179.994,-42.480,-23.926,-16.113,-16.602,0.000
1673806179.998,-34.668,-28.320,-19.531,-22.461,0.000
1673806180.002,-23.926,-23.438,-15.625,-11.230,0.000
1673806180.006,-27.832,-29.785,-15.137,-10.742,0.000
1673806180.010,-17.090,-29.785,-19.043,-15.625,0.000
1673806180.014,-13.672,-22.949,-18.555,-9.766,0.000
1673806180.018,-16.602,-20.020,-21.973,-6.348,0.000
1673806180.021,-19.043,-20.996,-21.973,-3.418,0.000
1673806180.025,-17.578,-28.320,-20.020,-4.395,0.000
1673806180.029,-12.207,-28.809,-22.461,-6.836,0.000
1673806180.033,-6.348,-22.949,-21.484,-9.766,0.000
1673806180.037,-8.301,-24.902,-20.996,-17.090,0.000
1673806180.041,-12.695,-25.879,-22.461,-26.367,0.000
1673806180.045,-17.090,-23.438,-22.461,-27.344,0.000
1673806180.049,-25.391,-21.973,-20.508,-16.602,0.000
1673806180.053,-28.809,-20.996,-22.461,-5.371,0.000
1673806180.057,-29.297,-28.320,-26.855,-14.160,0.000
1673806180.060,-22.949,-34.180,-31.738,-32.715,0.000
1673806180.064,-24.414,-31.250,-31.250,-24.902,0.000
1673806180.068,-25.391,-27.344,-29.785,-17.578,0.000
1673806180.072,-24.414,-20.020,-31.250,-19.043,0.000
1673806180.076,-16.602,-22.949,-31.738,-20.996,0.000
1673806180.080,2.441,-32.715,-30.273,-23.926,0.000
1673806180.084,-3.418,-34.180,-27.832,-30.762,0.000
1673806180.088,-15.137,-30.273,-27.344,-39.062,0.000
1673806180.092,-17.578,-26.855,-25.879,-29.297,0.000
1673806180.096,-11.719,-29.297,-23.926,-15.137,0.000
1673806180.100,-6.348,-30.273,-20.020,-4.395,0.000
1673806180.103,-22.461,-32.227,-19.531,-9.277,0.000
1673806180.107,-27.832,-30.762,-19.531,-5.859,0.000
1673806180.111,-10.742,-23.438,-20.020,-6.836,0.000
1673806180.115,-2.930,-26.367,-19.043,-13.184,0.000
1673806180.119,-8.789,-32.715,-19.531,-10.254,0.000
1673806180.123,-21.973,-29.785,-22.461,-5.371,0.000
1673806180.127,-14.648,-20.508,-18.555,-2.441,0.000
1673806180.131,1.465,-18.066,-20.508,-1.953,0.000
1673806180.135,-8.301,-23.926,-24.902,2.930,0.000
1673806180.139,-16.113,-26.367,-23.926,-7.324,0.000
1673806180.143,-1.465,-21.973,-19.531,-6.348,0.000
1673806180.146,-8.789,-25.391,-18.066,2.930,0.000
1673806180.150,-31.250,-27.344,-23.926,-2.441,0.000
1673806180.154,-28.809,-21.484,-24.902,-1.465,0.000
1673806180.158,-17.578,-20.020,-24.902,3.418,0.000
1673806180.162,-9.766,-22.949,-26.367,3.906,0.000
1673806180.166,-8.789,-22.461,-26.367,-2.930,0.000
1673806180.170,-12.695,-26.367,-23.926,-7.324,0.000
1673806180.174,4.395,-23.926,-22.949,-10.254,0.000
1673806180.178,15.137,-17.090,-23.926,-12.207,0.000
1673806180.182,3.906,-15.625,-20.996,-10.254,0.000
1673806180.185,-5.371,-14.648,-20.508,-2.930,0.000
1673806180.189,-11.719,-17.090,-20.996,0.977,0.000
1673806180.193,-13.672,-16.602,-19.531,-7.812,0.000
1673806180.197,-3.418,-13.672,-17.090,-13.184,0.000
1673806180.201,12.695,-10.742,-15.137,-10.742,0.000
1673806180.205,14.160,-15.137,-11.719,-8.301,0.000
1673806180.209,-3.906,-17.578,-11.719,-11.230,0.000
1673806180.213,-17.090,-12.207,-11.230,-6.348,0.000
1673806180.217,-8.301,-13.672,-11.719,-2.930,0.000
1673806180.221,0.977,-12.207,-15.137,-5.859,0.000
1673806180.225,7.812,-6.836,-13.672,-6.836,0.000
1673806180.228,-5.859,-9.766,-10.742,-3.906,0.000
1673806180.232,-27.832,-11.719,-1.465,9.277,0.000
1673806180.236,-26.367,-11.230,-0.977,27.832,0.000
1673806180.240,-20.996,-11.719,-9.277,9.766,0.000
1673806180.244,-11.719,-10.254,-10.742,-12.695,0.000
1673806180.248,0.000,-7.812,-9.277,-0.977,0.000
1673806180.252,6.348,-3.906,-9.277,4.395,0.000
1673806180.256,9.766,-0.488,-6.836,-0.977,0.000
1673806180.260,-2.930,-4.395,-6.348,4.395,0.000
1673806180.264,-31.250,-9.277,-9.277,11.230,0.000
1673806180.268,-36.621,-6.348,-11.719,6.348,0.000
1673806180.271,-24.902,-5.371,-13.184,0.000,0.000
1673806180.275,-11.230,-4.395,-8.301,-2.441,0.000
1673806180.279,-0.488,-3.418,-4.395,2.930,0.000
1673806180.283,-5.371,-6.348,-10.742,0.488,0.000
1673806180.287,-9.766,-6.836,-13.184,-3.906,0.000
1673806180.291,-14.648,-7.324,-8.789,-3.906,0.000
1673806180.295,-16.602,-8.789,-7.812,-2.441,0.000
1673806180.299,-17.578,-17.090,-12.207,-3.906,0.000
1673806180.303,-15.137,-20.996,-15.137,-8.301,0.000
1673806180.307,-11.230,-6.836,-13.184,-7.324,0.000
1673806180.310,-11.719,-1.953,-12.695,-7.812,0.000
1673806180.314,-22.461,-12.695,-14.648,-4.883,0.000
1673806180.318,-30.273,-18.066,-16.113,-2.441,0.000
1673806180.322,-19.531,-13.672,-18.555,-4.883,0.000
1673806180.326,-4.883,-13.672,-19.531,-3.418,0.000
1673806180.330,-0.977,-14.648,-16.113,-1.465,0.000
1673806180.334,-6.836,-18.066,-12.207,7.324,0.000
1673806180.338,-13.184,-19.531,-13.672,8.301,0.000
1673806180.342,-19.043,-15.625,-16.602,5.371,0.000
1673806180.346,-16.113,-15.137,-20.020,4.395,0.000
1673806180.350,-12.695,-18.066,-22.949,2.930,0.000
1673806180.353,-29.785,-23.438,-21.973,-2.930,0.000
1673806180.357,-36.621,-29.785,-25.879,-8.301,0.000
1673806180.361,-25.391,-26.855,-24.414,-1.465,0.000
1673806180.365,-14.648,-14.648,-22.949,-1.465,0.000
1673806180.369,-12.695,-11.719,-28.320,-3.906,0.000
1673806180.373,-16.602,-18.555,-29.297,-19.531,0.000
1673806180.377,-18.555,-26.367,-30.273,-36.621,0.000
1673806180.381,-11.719,-24.902,-28.320,-28.320,0.000
1673806180.385,-4.395,-15.625,-25.879,-12.695,0.000
1673806180.389,-19.043,-15.625,-30.273,-9.277,0.000
1673806180.393,-31.250,-20.508,-24.902,-15.137,0.000
1673806180.396,-19.531,-21.484,-15.625,-16.602,0.000
1673806180.400,-17.578,-28.320,-21.973,-20.508,0.000
1673806180.404,-24.414,-35.156,-29.785,-26.855,0.000
1673806180.408,-26.367,-32.715,-27.344,-22.949,0.000
1673806180.412,-35.156,-32.227,-27.832,-18.555,0.000
1673806180.416,-28.809,-32.715,-28.320,-25.391,0.000
1673806180.420,-29.785,-30.762,-31.250,-27.832,0.000
1673806180.424,-36.133,-29.785,-28.320,-22.461,0.000
1673806180.428,-19.531,-24.414,-23.926,-19.043,0.000
1673806180.432,-25.391,-24.902,-27.832,-18.066,0.000
1673806180.435,-36.133,-28.320,-26.855,-15.625,0.000
1673806180.439,-29.785,-24.902,-19.043,-14.648,0.000
1673806180.443,-35.156,-31.738,-22.949,-24.414,0.000
1673806180.447,-20.996,-30.273,-20.996,-24.902,0.000
1673806180.451,-2.441,-19.043,-16.113,-20.020,0.000
1673806180.455,-10.742,-20.508,-20.508,-19.043,0.000
1673806180.459,-19.531,-24.902,-20.020,-22.461,0.000
1673806180.463,-21.484,-23.438,-21.973,-23.926,0.000
1673806180.467,-27.344,-26.367,-25.391,-20.020,0.000
1673806180.471,-26.367,-29.297,-23.438,-19.531,0.000
1673806180.475,-20.508,-23.438,-17.578,-11.719,0.000
1673806180.478,-19.531,-20.020,-21.484,-13.184,0.000
1673806180.482,-27.344,-20.996,-28.320,-22.949,0.000
1673806180.486,-32.715,-21.973,-28.320,-24.902,0.000
1673806180.490,-37.109,-20.996,-32.227,-23.926,0.000
1673806180.494,-43.457,-22.461,-28.809,-30.273,0.000
1673806180.498,-34.668,-24.902,-26.855,-31.250,0.000
1673806180.502,-40.039,-20.508,-25.391,-21.484,0.000
1673806180.506,-37.109,-15.137,-21.973,-21.484,0.000
1673806180.510,-20.020,-18.066,-23.438,-24.414,0.000
1673806180.514,-21.484,-29.785,-26.367,-21.484,0.000
1673806180.517,-31.738,-25.391,-26.367,-9.766,0.000
1673806180.521,-34.668,-21.973,-25.879,-14.160,0.000
1673806180.525,-30.273,-30.762,-22.461,-30.762,0.000
1673806180.529,-23.438,-26.855,-22.461,-28.320,0.000
1673806180.533,-16.602,-21.973,-22.461,-16.602,0.000
1673806180.537,-28.320,-28.320,-29.785,-17.090,0.000
1673806180.541,-32.227,-29.785,-32.227,-19.531,0.000
1673806180.545,-25.879,-21.484,-22.949,-20.020,0.000
1673806180.549,-25.391,-18.555,-23.438,-8.301,0.000
1673806180.553,-20.020,-24.414,-26.367,-1.465,0.000
1673806180.557,-14.648,-29.785,-29.297,-11.719,0.000
1673806180.560,-15.137,-31.250,-30.762,-13.672,0.000
1673806180.564,-17.578,-27.832,-20.508,2.930,0.000
1673806180.568,-20.996,-29.785,-23.438,-4.883,0.000
1673806180.572,-16.602,-28.809,-27.832,-18.555,0.000
1673806180.576,-10.254,-24.902,-25.879,-13.184,0.000
1673806180.580,-14.648,-26.855,-27.832,-17.578,0.000
1673806180.584,-34.668,-28.809,-25.391,-15.137,0.000
1673806180.588,-36.621,-27.344,-24.414,-10.742,0.000
1673806180.592,-36.621,-22.461,-25.879,-23.926,0.000
1673806180.596,-43.457,-27.832,-27.344,-30.273,0.000
1673806180.600,-30.273,-32.227,-32.227,-21.484,0.000
1673806180.603,-20.996,-27.832,-35.156,-16.602,0.000
1673806180.607,-24.414,-26.855,-32.715,-16.113,0.000
1673806180.611,-24.902,-30.273,-27.832,-15.137,0.000
1673806180.615,-22.949,-29.297,-26.367,-21.484,0.000
1673806180.619,-25.391,-25.391,-24.414,-17.578,0.000
1673806180.623,-29.297,-25.879,-22.461,-20.020,0.000
1673806180.627,-26.855,-25.879,-19.043,-27.832,0.000
1673806180.631,-20.508,-26.855,-22.461,-26.367,0.000
1673806180.635,-23.438,-25.879,-22.461,-21.973,0.000
1673806180.639,-20.996,-18.555,-18.555,-13.672,0.000
1673806180.642,-13.672,-19.531,-24.902,-14.648,0.000
1673806180.646,-12.695,-29.297,-31.250,-15.137,0.000
1673806180.650,-25.879,-34.668,-29.297,-4.883,0.000
1673806180.654,-33.691,-30.273,-21.973,7.324,0.000
1673806180.658,-21.484,-30.762,-23.926,-6.348,0.000
1673806180.662,-20.508,-35.645,-30.762,-22.949,0.000
1673806180.666,-28.320,-30.762,-32.715,-17.578,0.000
1673806180.670,-32.227,-23.926,-28.320,-8.301,0.000
1673806180.674,-34.668,-26.367,-26.367,-12.207,0.000
1673806180.678,-18.066,-31.250,-34.180,-23.438,0.000
1673806180.682,-13.184,-33.203,-32.715,-18.066,0.000
1673806180.685,-20.508,-33.691,-29.297,-11.230,0.000
1673806180.689,-34.180,-43.457,-32.227,-20.508,0.000
1673806180.693,-44.434,-40.039,-28.320,-22.949,0.000
1673806180.697,-31.250,-30.762,-25.391,-17.578,0.000
1673806180.701,-39.062,-34.180,-26.855,-20.508,0.000
1673806180.705,-35.645,-34.180,-27.344,-24.414,0.000
1673806180.709,-37.598,-36.621,-26.855,-25.391,0.000
1673806180.713,-36.133,-35.156,-26.855,-31.738,0.000
1673806180.717,-29.785,-35.645,-26.855,-33.203,0.000
1673806180.721,-31.738,-40.527,-28.809,-28.320,0.000
1673806180.725,-30.273,-37.109,-27.832,-25.391,0.000
1673806180.728,-23.926,-36.621,-31.738,-24.902,0.000
1673806180.732,-11.719,-39.062,-33.203,-17.578,0.000
1673806180.736,-19.043,-41.016,-28.320,-19.043,0.000
1673806180.740,-19.043,-43.457,-25.391,-20.508,0.000
1673806180.744,-16.602,-42.480,-23.438,-16.113,0.000
1673806180.748,-21.484,-42.480,-28.320,-21.484,0.000
1673806180.752,-28.320,-41.504,-33.691,-15.625,0.000
1673806180.756,-32.227,-38.574,-28.809,-14.648,0.000
1673806180.760,-27.344,-40.527,-30.762,-29.785,0.000
1673806180.764,-28.809,-39.062,-32.227,-35.156,0.000
1673806180.767,-35.645,-35.156,-32.227,-34.668,0.000
1673806180.771,-48.828,-37.598,-34.180,-34.180,0.000
1673806180.775,-45.898,-38.086,-30.273,-36.621,0.000
1673806180.779,-31.738,-35.645,-31.250,-40.039,0.000
1673806180.783,-23.926,-34.668,-30.762,-35.645,0.000
1673806180.787,-19.531,-32.227,-26.367,-29.785,0.000
1673806180.791,-33.691,-39.062,-28.809,-40.039,0.000
1673806180.795,-49.805,-41.504,-27.344,-45.410,0.000
1673806180.799,-49.316,-37.598,-22.949,-36.621,0.000
1673806180.803,-52.246,-38.574,-28.320,-34.668,0.000
1673806180.807,-52.734,-42.480,-29.785,-34.668,0.000
1673806180.810,-37.109,-41.992,-29.297,-40.527,0.000
1673806180.814,-35.645,-31.250,-31.738,-38.574,0.000
1673806180.818,-47.363,-32.227,-31.250,-27.832,0.000
1673806180.822,-38.086,-41.016,-34.668,-24.902,0.000
1673806180.826,-30.273,-38.574,-27.832,-24.902,0.000
1673806180.830,-26.367,-36.133,-27.344,-12.207,0.000
1673806180.834,-26.367,-35.156,-34.668,-4.395,0.000
1673806180.838,-24.414,-32.227,-33.691,-6.836,0.000
1673806180.842,-27.344,-31.738,-33.203,-16.113,0.000
1673806180.846,-24.414,-31.250,-29.785,-17.578,0.000
1673806180.850,-15.137,-30.762,-26.367,-7.812,0.000
1673806180.853,-20.020,-31.738,-27.344,-10.742,0.000
1673806180.857,-29.785,-29.297,-26.855,-18.555,0.000
1673806180.861,-25.391,-26.367,-28.809,-25.879,0.000
1673806180.865,-22.461,-26.855,-29.297,-26.855,0.000
1673806180.869,-29.297,-28.809,-29.297,-28.809,0.000
1673806180.873,-33.691,-35.645,-28.320,-32.227,0.000
1673806180.877,-35.645,-39.551,-32.715,-33.203,0.000
1673806180.881,-27.832,-35.645,-26.855,-22.949,0.000
1673806180.885,-22.949,-32.227,-18.555,-14.648,0.000
1673806180.889,-33.691,-37.109,-22.461,-16.602,0.000
1673806180.892,-43.457,-45.410,-24.414,-10.254,0.000
1673806180.896,-50.781,-42.480,-24.414,-4.395,0.000
1673806180.900,-42.969,-36.133,-18.066,-4.883,0.000
1673806180.904,-23.926,-33.691,-15.137,-3.418,0.000
1673806180.908,-16.113,-32.227,-18.066,-4.883,0.000
1673806180.912,-19.531,-39.062,-22.949,-19.043,0.000
1673806180.916,-20.020,-41.504,-31.738,-16.602,0.000
1673806180.920,-17.578,-37.598,-27.832,-13.184,0.000
1673806180.924,-4.395,-34.668,-21.973,-16.602,0.000
1673806180.928,9.766,-31.250,-25.391,-17.090,0.000
1673806180.932,-2.441,-33.203,-27.832,-8.789,0.000
1673806180.935,-18.066,-36.133,-26.855,4.395,0.000
1673806180.939,-22.461,-34.180,-27.344,-2.930,0.000
1673806180.943,-24.414,-31.250,-31.738,-15.625,0.000
1673806180.947,-20.020,-29.297,-34.180,-21.484,0.000
1673806180.951,-19.531,-29.785,-28.809,-17.578,0.000
1673806180.955,-14.160,-27.832,-27.344,-19.043,0.000
1673806180.959,-14.648,-30.762,-29.785,-43.945,0.000
1673806180.963,-14.648,-34.180,-29.785,-44.434,0.000
1673806180.967,-12.695,-29.297,-34.180,-35.156,0.000
1673806180.971,-43.945,-36.133,-36.133,-37.109,0.000
1673806180.975,-61.035,-36.133,-36.133,-32.227,0.000
1673806180.978,-45.410,-19.531,-37.109,-35.156,0.000
1673806180.982,-32.715,-20.020,-36.621,-29.785,0.000
1673806180.986,-29.297,-24.902,-35.156,-28.320,0.000
1673806180.990,-32.715,-26.855,-36.621,-33.691,0.000
1673806180.994,-29.785,-27.832,-36.133,-23.926,0.000
1673806180.998,-25.879,-29.785,-29.785,-8.301,0.000
1673806181.002,-37.109,-34.668,-22.949,-8.789,0.000
1673806181.006,-33.203,-33.203,-23.926,-20.020,0.000
1673806181.010,-25.879,-34.180,-31.250,-22.949,0.000
1673806181.014,-23.438,-32.227,-26.367,-19.531,0.000
1673806181.017,-20.508,-25.391,-23.926,-13.672,0.000
1673806181.021,-18.555,-26.855,-23.926,-8.301,0.000
1673806181.025,-16.602,-28.320,-22.461,-7.812,0.000
1673806181.029,-22.949,-28.320,-21.484,-12.207,0.000
1673806181.033,-36.133,-37.109,-27.344,-17.578,0.000
1673806181.037,-33.203,-36.621,-31.250,-21.484,0.000
1673806181.041,-20.996,-34.180,-26.367,-23.926,0.000
1673806181.045,-21.973,-39.551,-27.344,-25.391,0.000
1673806181.049,-37.109,-41.504,-31.250,-29.785,0.000
1673806181.053,-56.641,-41.992,-29.297,-26.367,0.000
1673806181.057,-51.758,-41.504,-25.879,-29.297,0.000
1673806181.060,-39.551,-43.457,-23.926,-36.621,0.000
1673806181.064,-39.551,-44.434,-23.438,-32.715,0.000
1673806181.068,-48.828,-41.992,-20.020,-30.273,0.000
1673806181.072,-51.270,-39.551,-15.625,-30.273,0.000
1673806181.076,-50.781,-40.039,-15.137,-32.715,0.000
1673806181.080,-53.711,-40.039,-15.625,-32.227,0.000
1673806181.084,-40.527,-38.086,-25.879,-23.926,0.000
1673806181.088,-23.926,-35.156,-27.832,-15.625,0.000
1673806181.092,-21.973,-34.180,-24.414,-17.090,0.000
1673806181.096,-30.273,-30.762,-31.738,-13.184,0.000
1673806181.100,-22.949,-27.344,-33.691,-1.953,0.000
1673806181.103,-8.301,-27.344,-32.227,-7.812,0.000
1673806181.107,-0.977,-30.762,-28.320,-16.113,0.000
1673806181.111,-5.859,-25.391,-28.320,-12.207,0.000
1673806181.115,-1.953,-14.160,-22.949,-9.766,0.000
1673806181.119,10.742,-18.066,-17.090,-7.324,0.000
1673806181.123,1.465,-21.484,-17.578,-8.789,0.000
1673806181.127,-4.395,-13.184,-14.160,-13.184,0.000
1673806181.131,-10.254,-11.230,-13.672,-12.695,0.000
1673806181.135,-12.695,-10.742,-9.766,-7.324,0.000
1673806181.139,-7.812,-8.789,-13.184,-12.207,0.000
1673806181.142,-13.672,-12.207,-20.020,-16.602,0.000
1673806181.146,-22.949,-16.113,-19.043,-14.160,0.000
1673806181.150,-29.785,-13.184,-12.695,-11.230,0.000
1673806181.154,-28.809,-7.324,-8.789,-6.348,0.000
1673806181.158,-15.625,-6.836,-13.184,-8.789,0.000
1673806181.162,-3.906,-6.348,-12.207,-10.254,0.000
1673806181.166,-6.836,-1.465,-7.812,2.930,0.000
1673806181.170,-11.719,0.000,-5.859,14.648,0.000
1673806181.174,-7.812,-2.441,-1.465,13.184,0.000
1673806181.178,5.371,3.418,0.977,17.090,0.000
1673806181.182,6.348,8.301,-1.465,11.230,0.000
1673806181.185,-8.789,0.000,-9.277,-1.953,0.000
1673806181.189,-2.930,-0.488,-9.766,0.977,0.000
1673806181.193,8.789,-2.441,-7.324,-2.930,0.000
1673806181.197,16.602,-3.418,-8.789,-2.441,0.000
1673806181.201,15.137,1.953,-9.277,0.000,0.000
1673806181.205,3.906,0.977,-4.395,0.488,0.000
1673806181.209,4.883,-0.977,-1.465,3.906,0.000
1673806181.213,4.395,-5.371,-7.324,5.371,0.000
1673806181.217,1.953,-3.418,-4.883,9.766,0.000
1673806181.221,4.883,-5.859,0.488,5.371,0.000
1673806181.225,-4.883,-15.137,-0.488,-1.465,0.000
1673806181.228,-9.766,-18.066,-7.324,-5.371,0.000
1673806181.232,-7.324,-20.508,-9.766,-6.348,0.000
1673806181.236,-4.883,-20.996,-7.812,0.977,0.000
1673806181.240,-4.395,-21.973,-11.230,9.766,0.000
1673806181.244,-12.695,-16.602,-14.160,6.348,0.000
1673806181.248,-12.207,-16.602,-9.766,9.766,0.000
1673806181.252,-3.418,-21.484,-12.207,13.184,0.000
1673806181.256,-1.953,-15.625,-13.184,4.883,0.000
1673806181.260,-6.836,-18.066,-19.043,-4.883,0.000
1673806181.264,-7.324,-25.879,-22.461,0.977,0.000
1673806181.267,-0.977,-16.113,-15.625,19.531,0.000
1673806181.271,0.488,-7.812,-8.301,18.555,0.000
1673806181.275,1.953,-10.254,-11.719,-5.371,0.000
1673806181.279,3.906,-7.324,-13.672,-4.883,0.000
1673806181.283,-1.465,-6.348,-11.230,-0.488,0.000
1673806181.287,-12.695,-9.766,-18.555,-9.277,0.000
1673806181.291,-10.254,-9.766,-19.043,-12.207,0.000
1673806181.295,-0.977,-6.348,-14.648,-14.648,0.000
1673806181.299,-9.277,-7.324,-17.578,-10.254,0.000
1673806181.303,-19.531,-10.742,-16.113,-5.371,0.000
1673806181.307,-21.484,-20.508,-15.625,-12.695,0.000
1673806181.310,-11.719,-20.996,-15.137,-18.555,0.000
1673806181.314,4.883,-17.090,-16.113,-11.230,0.000
1673806181.318,2.930,-20.020,-17.578,-15.625,0.000
1673806181.322,-6.348,-20.996,-17.578,-17.578,0.000
1673806181.326,-14.160,-16.113,-16.602,-15.137,0.000
1673806181.330,-28.809,-20.020,-19.043,-18.066,0.000
1673806181.334,-23.438,-24.414,-20.508,-20.508,0.000
1673806181.338,-16.113,-14.648,-19.043,-14.160,0.000
1673806181.342,-24.414,-6.348,-17.090,-6.836,0.000
1673806181.346,-34.668,-10.254,-12.695,-6.348,0.000
1673806181.350,-19.531,-16.602,-17.578,-9.277,0.000
1673806181.353,-9.766,-19.531,-16.602,-6.836,0.000
1673806181.357,-17.578,-20.020,-16.113,-1.465,0.000
1673806181.361,-16.113,-27.832,-22.461,-5.859,0.000
1673806181.365,-14.160,-29.297,-24.902,-19.043,0.000
1673806181.369,-16.602,-30.273,-24.414,-21.973,0.000
1673806181.373,-14.648,-34.668,-24.414,-13.672,0.000
1673806181.377,-20.996,-33.203,-25.391,-15.137,0.000
1673806181.381,-40.039,-27.832,-22.949,-12.207,0.000
1673806181.385,-37.598,-21.973,-18.066,-3.418,0.000
1673806181.389,-34.668,-21.973,-18.555,-11.230,0.000
1673806181.392,-32.227,-22.949,-25.879,-18.066,0.000
1673806181.396,-35.156,-27.344,-32.227,-24.414,0.000
1673806181.400,-33.691,-26.855,-29.785,-27.344,0.000
1673806181.404,-15.137,-18.555,-22.461,-17.578,0.000
1673806181.408,0.977,-17.578,-31.250,-33.691,0.000
1673806181.412,0.000,-17.090,-36.133,-43.457,0.000
1673806181.416,-41.992,-21.973,-33.203,-30.762,0.000
1673806181.420,-50.781,-22.461,-26.367,-21.484,0.000
1673806181.424,-29.297,-20.508,-23.438,-24.902,0.000
1673806181.428,-34.180,-24.414,-24.902,-26.855,0.000
1673806181.432,-37.109,-24.902,-25.391,-15.625,0.000
1673806181.435,-35.645,-27.832,-29.785,-15.137,0.000
1673806181.439,-25.391,-23.438,-32.227,-17.578,0.000
1673806181.443,-10.254,-22.461,-35.645,-21.973,0.000
1673806181.447,-4.883,-21.484,-34.180,-28.320,0.000
1673806181.451,-4.395,-19.531,-28.809,-15.137,0.000
1673806181.455,-18.066,-23.438,-29.785,-11.719,0.000
1673806181.459,-11.719,-23.438,-25.391,-20.508,0.000
1673806181.463,2.930,-23.438,-23.926,-28.320,0.000
1673806181.467,-5.371,-26.855,-27.832,-30.273,0.000
1673806181.471,-20.996,-30.762,-31.738,-34.180,0.000
1673806181.474,-30.762,-34.668,-34.180,-45.898,0.000
1673806181.478,-49.316,-33.691,-30.762,-35.156,0.000
1673806181.482,-46.875,-28.809,-27.344,-26.855,0.000
1673806181.486,-36.621,-32.227,-27.344,-29.297,0.000
1673806181.490,-34.180,-36.621,-27.344,-24.414,0.000
1673806181.494,-38.086,-30.762,-29.785,-11.230,0.000
1673806181.498,-31.250,-25.391,-29.297,-14.648,0.000
1673806181.502,-27.832,-25.391,-22.461,-14.160,0.000
1673806181.506,-39.062,-27.344,-19.043,-4.883,0.000
1673806181.510,-41.016,-29.297,-23.926,-8.789,0.000
1673806181.514,-33.691,-24.902,-32.227,-18.066,0.000
1673806181.517,-28.809,-19.043,-25.879,-21.484,0.000
1673806181.521,-29.785,-24.414,-20.508,-28.320,0.000
1673806181.525,-23.926,-28.809,-23.438,-26.855,0.000
1673806181.529,-34.668,-33.691,-24.902,-22.949,0.000
1673806181.533,-40.527,-35.645,-26.367,-19.531,0.000
1673806181.537,-21.484,-24.902,-25.879,-5.859,0.000
1673806181.541,-6.348,-16.113,-29.297,-7.324,0.000
1673806181.545,-11.230,-17.090,-31.738,-20.020,0.000
1673806181.549,-17.578,-28.320,-34.668,-17.578,0.000
1673806181.553,-0.488,-29.785,-35.645,-2.930,0.000
1673806181.557,-9.766,-23.438,-25.879,-2.441,0.000
1673806181.560,-40.527,-25.391,-29.297,-14.160,0.000
1673806181.564,-42.969,-28.320,-33.203,-8.789,0.000
1673806181.568,-24.414,-19.531,-29.785,-4.395,0.000
1673806181.572,-22.949,-22.949,-29.297,-13.184,0.000
1673806181.576,-24.414,-23.926,-30.762,-19.531,0.000
1673806181.580,-25.879,-19.043,-31.738,-22.461,0.000
1673806181.584,-31.250,-24.414,-36.133,-17.578,0.000
1673806181.588,-30.273,-26.367,-42.480,-22.949,0.000
1673806181.592,-33.203,-27.344,-39.062,-32.715,0.000
1673806181.596,-39.551,-27.344,-32.715,-32.715,0.000
1673806181.599,-44.922,-29.297,-27.832,-20.020,0.000
1673806181.603,-43.945,-31.250,-29.297,-23.926,0.000
1673806181.607,-38.574,-27.832,-29.785,-28.320,0.000
1673806181.611,-26.855,-25.879,-31.250,-14.648,0.000
1673806181.615,-17.578,-32.227,-35.156,-18.555,0.000
1673806181.619,-27.832,-36.621,-36.133,-20.020,0.000
1673806181.623,-34.180,-29.297,-34.668,-10.254,0.000
1673806181.627,-20.508,-28.809,-30.273,-6.836,0.000
1673806181.631,-23.438,-33.203,-28.320,-7.812,0.000
1673806181.635,-23.926,-30.273,-26.367,-1.465,0.000
1673806181.639,-15.625,-30.762,-23.926,-13.672,0.000
1673806181.642,-14.160,-34.180,-24.414,-17.090,0.000
1673806181.646,-17.578,-33.203,-23.926,-1.953,0.000
1673806181.650,-25.879,-32.715,-25.879,-5.859,0.000
1673806181.654,-23.926,-29.785,-25.391,-15.137,0.000
1673806181.658,-15.625,-26.855,-25.391,-24.414,0.000
1673806181.662,-15.625,-27.344,-24.414,-20.508,0.000
1673806181.666,-37.598,-27.832,-21.973,-11.719,0.000
1673806181.670,-43.945,-31.738,-23.926,-8.301,0.000
1673806181.674,-35.156,-29.785,-24.902,-13.672,0.000
1673806181.678,-38.086,-25.391,-23.438,-24.414,0.000
1673806181.682,-35.645,-25.391,-24.902,-26.855,0.000
1673806181.685,-37.598,-30.762,-24.902,-25.391,0.000
1673806181.689,-42.480,-31.250,-24.414,-16.113,0.000
1673806181.693,-45.898,-34.180,-30.273,-30.273,0.000
1673806181.697,-32.715,-32.715,-31.250,-47.852,0.000
1673806181.701,-13.672,-25.391,-27.344,-32.715,0.000
1673806181.705,-12.695,-26.855,-26.367,-26.855,0.000
1673806181.709,-19.531,-33.203,-25.879,-28.320,0.000
1673806181.713,-18.555,-32.715,-22.949,-17.578,0.000
1673806181.717,-5.859,-24.902,-21.973,-10.254,0.000
1673806181.721,4.883,-19.531,-20.508,-13.184,0.000
1673806181.724,-17.578,-20.508,-18.555,-14.648,0.000
1673806181.728,-21.973,-17.090,-22.461,-16.602,0.000
1673806181.732,-1.465,-15.625,-20.996,-12.207,0.000
1673806181.736,-1.465,-20.996,-19.531,-2.930,0.000
1673806181.740,-5.371,-22.461,-20.996,-14.648,0.000
1673806181.744,-10.742,-16.113,-17.578,-18.066,0.000
1673806181.748,-28.809,-17.090,-16.113,-8.789,0.000
1673806181.752,-32.715,-22.949,-21.484,-10.742,0.000
1673806181.756,-24.414,-20.996,-21.484,-12.207,0.000
1673806181.760,-27.344,-18.555,-21.973,-21.973,0.000
1673806181.764,-23.926,-19.043,-23.438,-27.344,0.000
1673806181.767,-20.020,-20.508,-23.438,-20.020,0.000
1673806181.771,-23.926,-22.949,-20.996,-16.602,0.000
1673806181.775,-23.926,-20.020,-18.555,-25.879,0.000
1673806181.779,-9.277,-20.020,-16.602,-32.227,0.000
1673806181.783,-10.254,-24.902,-22.949,-37.598,0.000
1673806181.787,-21.973,-25.879,-27.832,-36.133,0.000
1673806181.791,-19.043,-18.555,-22.461,-29.297,0.000
1673806181.795,-11.719,-17.090,-21.484,-41.016,0.000
1673806181.799,-5.859,-21.973,-25.879,-49.805,0.000
1673806181.803,-2.441,-18.066,-26.855,-42.969,0.000
1673806181.807,-23.926,-21.973,-20.020,-40.039,0.000
1673806181.810,-49.805,-27.832,-17.578,-35.645,0.000
1673806181.814,-46.875,-27.832,-21.973,-32.227,0.000
1673806181.818,-30.762,-27.832,-21.973,-36.133,0.000
1673806181.822,-10.742,-30.762,-23.438,-36.621,0.000
1673806181.826,-16.602,-35.645,-32.715,-26.855,0.000
1673806181.830,-41.992,-38.574,-33.691,-30.273,0.000
1673806181.834,-30.762,-26.855,-24.902,-35.156,0.000
1673806181.838,-18.555,-20.020,-25.391,-31.250,0.000
1673806181.842,-24.902,-22.949,-27.344,-33.203,0.000
1673806181.846,-20.508,-24.414,-26.855,-33.203,0.000
1673806181.849,-20.996,-26.367,-27.344,-22.461,0.000
1673806181.853,-27.832,-29.297,-25.391,-15.137,0.000
1673806181.857,-20.508,-27.832,-24.414,-27.832,0.000
1673806181.861,-14.160,-25.879,-29.297,-38.574,0.000
1673806181.865,-12.695,-33.203,-34.668,-34.180,0.000
1673806181.869,-17.578,-33.691,-32.227,-21.484,0.000
1673806181.873,-30.762,-33.203,-29.785,-29.297,0.000
1673806181.877,-20.996,-36.133,-35.156,-45.410,0.000
1673806181.881,-4.395,-29.785,-42.480,-48.340,0.000
1673806181.885,-18.555,-28.809,-34.180,-49.805,0.000
1673806181.889,-29.785,-27.832,-27.344,-41.504,0.000
1673806181.892,-25.879,-21.973,-24.902,-35.645,0.000
1673806181.896,-19.531,-20.508,-21.973,-31.250,0.000
1673806181.900,-24.414,-17.578,-30.273,-25.391,0.000
1673806181.904,-25.879,-15.625,-31.250,-31.250,0.000
1673806181.908,-1.465,-25.879,-23.926,-41.992,0.000
1673806181.912,-0.488,-33.203,-22.461,-41.992,0.000
1673806181.916,-27.832,-33.691,-26.855,-36.133,0.000
1673806181.920,-54.199,-37.109,-23.926,-37.598,0.000
1673806181.924,-50.293,-41.016,-18.555,-34.668,0.000
1673806181.928,-47.363,-39.062,-19.043,-30.273,0.000
1673806181.932,-53.711,-35.156,-19.531,-33.691,0.000
1673806181.935,-41.992,-29.297,-20.996,-33.691,0.000
