timestamp,TP9,AF7,AF8,TP10,Right AUX
0.000,-14.160,-21.484,-23.926,-38.086,0.000
4.000,-24.414,-18.555,-20.508,-42.480,0.000
8.000,-32.227,-20.020,-21.484,-33.691,0.000
12.000,-39.062,-29.297,-18.066,-31.738,0.000
16.000,-28.809,-29.297,-18.555,-41.992,0.000
20.000,-5.859,-19.531,-25.391,-35.156,0.000
23.000,3.418,-12.207,-26.855,-24.902,0.000
27.000,-18.066,-12.207,-27.344,-22.461,0.000
31.000,-37.109,-18.555,-26.855,-18.555,0.000
35.000,-25.879,-20.996,-25.879,-14.160,0.000
39.000,-33.691,-15.625,-24.902,-15.625,0.000
43.000,-48.828,-19.043,-27.344,-24.902,0.000
47.000,-41.504,-27.344,-30.273,-28.809,0.000
51.000,-33.691,-30.273,-28.320,-33.203,0.000
55.000,-26.855,-28.809,-26.855,-37.109,0.000
59.000,-24.414,-25.391,-28.809,-37.109,0.000
62.000,-21.484,-22.461,-26.367,-36.133,0.000
66.000,-16.113,-26.367,-26.367,-39.551,0.000
70.000,-26.855,-30.273,-30.273,-29.785,0.000
74.000,-24.902,-26.855,-36.621,-21.973,0.000
78.000,-21.973,-25.879,-33.691,-27.832,0.000
82.000,-31.738,-27.832,-33.691,-38.086,0.000
86.000,-29.785,-27.344,-34.668,-40.039,0.000
90.000,-32.227,-24.902,-31.738,-29.297,0.000
94.000,-31.738,-25.391,-34.668,-25.391,0.000
98.000,-26.367,-21.973,-36.621,-35.645,0.000
102.000,-31.250,-24.902,-37.109,-41.016,0.000
105.000,-30.762,-26.367,-37.598,-35.156,0.000
109.000,-26.855,-20.996,-36.133,-32.715,0.000
113.000,-31.250,-23.438,-35.156,-21.973,0.000
117.000,-24.902,-35.156,-32.715,-20.020,0.000
121.000,-32.227,-36.133,-30.273,-32.227,0.000
125.000,-25.879,-24.414,-27.832,-31.250,0.000
129.000,-15.137,-22.949,-24.902,-18.555,0.000
133.000,-17.090,-21.484,-26.367,-13.184,0.000
137.000,-25.391,-16.113,-24.414,-22.949,0.000
141.000,-43.945,-26.367,-22.461,-23.926,0.000
145.000,-43.457,-27.832,-27.344,-14.648,0.000
148.000,-44.922,-25.879,-30.273,-15.625,0.000
152.000,-45.410,-29.785,-26.367,-27.344,0.000
156.000,-37.598,-28.320,-26.855,-21.973,0.000
160.000,-34.180,-23.438,-28.320,-22.461,0.000
164.000,-35.645,-24.414,-30.762,-23.926,0.000
168.000,-32.227,-26.855,-29.297,-16.602,0.000
172.000,-28.809,-26.367,-29.297,-21.973,0.000
176.000,-30.762,-25.391,-30.273,-21.973,0.000
180.000,-37.598,-25.391,-28.809,-21.484,0.000
184.000,-41.016,-28.320,-31.738,-20.996,0.000
187.000,-31.250,-26.855,-33.203,-17.090,0.000
191.000,-26.367,-28.320,-29.785,-10.742,0.000
195.000,-15.137,-26.367,-28.320,-7.812,0.000
199.000,-21.973,-21.973,-28.320,-15.625,0.000
203.000,-29.785,-29.785,-26.855,-20.508,0.000
207.000,-21.484,-27.832,-25.879,-14.160,0.000
211.000,-41.016,-27.344,-23.438,-1.953,0.000
215.000,-41.504,-31.250,-22.949,-7.324,0.000
219.000,-29.785,-26.855,-23.926,-22.461,0.000
223.000,-40.039,-26.855,-24.414,-22.949,0.000
227.000,-40.527,-28.320,-31.250,-19.531,0.000
230.000,-25.391,-20.508,-31.738,-16.602,0.000
234.000,-13.672,-17.578,-27.832,-8.301,0.000
238.000,-20.020,-20.996,-28.809,-14.160,0.000
242.000,-35.156,-22.461,-24.414,-29.785,0.000
246.000,-33.691,-25.879,-20.508,-24.902,0.000
250.000,-27.344,-27.344,-22.461,-23.926,0.000
254.000,-32.715,-31.250,-26.367,-33.691,0.000
258.000,-47.363,-36.621,-25.879,-33.691,0.000
262.000,-46.875,-26.855,-21.973,-26.367,0.000
266.000,-45.898,-23.438,-22.949,-24.414,0.000
270.000,-38.086,-21.484,-20.996,-27.344,0.000
273.000,-39.062,-20.020,-21.484,-27.344,0.000
277.000,-38.086,-27.832,-26.367,-17.090,0.000
281.000,-40.527,-24.902,-26.855,-10.254,0.000
285.000,-46.387,-25.391,-27.344,-25.391,0.000
289.000,-21.973,-20.508,-26.855,-17.578,0.000
293.000,-7.324,-14.648,-25.391,-11.719,0.000
297.000,-22.461,-15.137,-30.273,-19.531,0.000
301.000,-39.062,-16.113,-33.203,-16.113,0.000
305.000,-42.480,-18.066,-35.156,-25.391,0.000
309.000,-36.621,-22.461,-35.156,-33.691,0.000
312.000,-34.668,-20.996,-36.133,-32.715,0.000
316.000,-37.598,-15.625,-38.086,-35.156,0.000
320.000,-37.598,-19.531,-36.621,-45.410,0.000
324.000,-31.738,-21.484,-29.785,-34.180,0.000
328.000,-29.785,-18.555,-26.855,-21.484,0.000
332.000,-24.414,-21.484,-27.832,-22.461,0.000
336.000,-22.949,-20.508,-30.273,-22.461,0.000
340.000,-29.297,-19.043,-31.250,-29.297,0.000
344.000,-32.715,-23.926,-32.715,-30.762,0.000
348.000,-30.273,-23.926,-32.715,-27.344,0.000
352.000,-28.320,-18.555,-34.180,-20.020,0.000
355.000,-11.719,-22.949,-30.273,-7.812,0.000
359.000,12.695,-25.391,-21.973,-2.930,0.000
363.000,9.766,-20.020,-20.996,-0.977,0.000
367.000,-11.719,-17.578,-14.160,-6.348,0.000
371.000,-25.879,-18.555,-15.137,-10.742,0.000
375.000,-29.297,-20.996,-21.484,-4.395,0.000
379.000,-18.066,-22.461,-19.043,2.930,0.000
383.000,-10.254,-19.531,-18.066,5.859,0.000
387.000,-15.137,-24.414,-22.461,-2.930,0.000
391.000,-10.254,-30.762,-28.320,-9.766,0.000
395.000,-9.766,-26.855,-30.762,-9.277,0.000
398.000,-25.391,-27.344,-33.203,-16.602,0.000
402.000,-30.762,-31.738,-36.133,-22.461,0.000
406.000,-36.133,-29.785,-33.203,-23.926,0.000
410.000,-50.293,-30.273,-32.715,-22.461,0.000
414.000,-44.922,-31.250,-34.668,-24.902,0.000
418.000,-47.852,-27.832,-36.621,-37.598,0.000
422.000,-55.176,-21.484,-41.504,-44.434,0.000
426.000,-42.969,-27.832,-41.992,-41.504,0.000
430.000,-47.852,-36.621,-39.551,-41.992,0.000
434.000,-52.734,-32.715,-38.086,-40.039,0.000
437.000,-47.852,-26.855,-33.691,-40.527,0.000
441.000,-42.480,-32.227,-32.227,-40.039,0.000
445.000,-39.551,-41.992,-34.180,-37.598,0.000
449.000,-31.738,-39.062,-33.203,-42.969,0.000
453.000,-14.160,-25.879,-33.203,-39.062,0.000
457.000,-16.113,-29.297,-30.273,-29.297,0.000
461.000,-20.996,-34.180,-28.809,-22.949,0.000
465.000,-20.508,-31.738,-33.203,-21.484,0.000
469.000,-43.945,-31.250,-37.598,-29.785,0.000
473.000,-60.059,-30.762,-35.645,-35.156,0.000
477.000,-44.922,-30.762,-30.273,-27.344,0.000
480.000,-31.250,-35.156,-37.598,-26.367,0.000
484.000,-29.785,-35.156,-42.969,-35.156,0.000
488.000,-32.715,-34.668,-41.992,-41.016,0.000
492.000,-27.832,-34.668,-42.969,-42.480,0.000
496.000,-19.043,-30.762,-38.574,-38.086,0.000
500.000,-23.438,-24.414,-35.156,-29.297,0.000
504.000,-35.645,-21.484,-26.367,-16.602,0.000
508.000,-46.875,-23.926,-23.926,-10.742,0.000
512.000,-47.852,-23.438,-28.809,-17.578,0.000
516.000,-44.922,-21.973,-24.902,-12.207,0.000
520.000,-28.809,-18.555,-25.391,-9.766,0.000
523.000,-18.066,-26.367,-29.785,-24.414,0.000
527.000,-18.555,-33.203,-22.949,-22.949,0.000
531.000,-20.020,-28.809,-20.996,-19.531,0.000
535.000,-12.695,-24.902,-20.508,-27.832,0.000
539.000,-13.672,-20.508,-21.973,-28.320,0.000
543.000,-36.133,-20.020,-23.926,-16.602,0.000
547.000,-35.156,-21.973,-23.926,-14.648,0.000
551.000,-30.762,-28.809,-29.785,-26.367,0.000
555.000,-30.273,-33.691,-32.715,-31.250,0.000
559.000,-31.250,-31.250,-33.203,-27.344,0.000
562.000,-30.762,-30.273,-27.832,-34.180,0.000
566.000,-22.461,-26.855,-21.973,-33.203,0.000
570.000,-27.344,-24.902,-22.949,-23.926,0.000
574.000,-29.297,-25.879,-22.461,-19.531,0.000
578.000,-30.273,-22.949,-20.996,-12.207,0.000
582.000,-26.855,-27.832,-26.855,-18.066,0.000
586.000,-32.715,-30.762,-26.367,-24.414,0.000
590.000,-50.781,-27.344,-26.855,-16.113,0.000
594.000,-47.852,-26.367,-24.414,-2.441,0.000
598.000,-40.527,-24.902,-24.414,-2.441,0.000
602.000,-34.668,-26.367,-28.809,-10.742,0.000
605.000,-25.879,-29.297,-27.344,-7.812,0.000
609.000,-17.578,-27.832,-29.785,-6.836,0.000
613.000,-22.461,-27.344,-25.391,-2.930,0.000
617.000,-21.484,-21.973,-25.391,-9.766,0.000
621.000,-21.973,-22.461,-37.598,-24.414,0.000
625.000,-25.879,-22.949,-37.598,-10.254,0.000
629.000,-20.020,-25.879,-37.598,-7.324,0.000
633.000,-21.973,-28.320,-41.992,-21.973,0.000
637.000,-28.320,-21.973,-36.133,-22.461,0.000
641.000,-22.461,-26.367,-31.250,-16.113,0.000
645.000,-22.461,-28.320,-35.645,-21.484,0.000
648.000,-27.344,-29.785,-36.621,-23.438,0.000
652.000,-28.809,-31.738,-32.227,-22.461,0.000
656.000,-37.598,-29.297,-27.832,-30.273,0.000
660.000,-38.574,-29.785,-27.832,-28.320,0.000
664.000,-38.086,-23.926,-23.926,-24.414,0.000
668.000,-37.109,-21.973,-15.625,-22.461,0.000
672.000,-35.645,-23.438,-17.090,-22.949,0.000
676.000,-48.340,-23.926,-24.902,-20.020,0.000
680.000,-45.898,-27.344,-26.367,-20.996,0.000
684.000,-34.668,-25.879,-26.367,-20.020,0.000
687.000,-32.227,-25.879,-27.832,-14.648,0.000
691.000,-28.320,-29.297,-31.738,-22.461,0.000
695.000,-41.504,-35.645,-32.227,-29.297,0.000
699.000,-51.270,-35.156,-29.785,-23.438,0.000
703.000,-41.016,-30.762,-33.203,-19.531,0.000
707.000,-35.156,-25.879,-30.273,-20.508,0.000
711.000,-37.109,-25.879,-20.996,-18.555,0.000
715.000,-30.762,-30.273,-23.438,-22.949,0.000
719.000,-25.391,-25.879,-25.391,-27.832,0.000
723.000,-23.926,-22.949,-22.949,-21.973,0.000
727.000,-16.113,-22.949,-26.367,-12.695,0.000
730.000,-24.902,-18.066,-28.809,-6.836,0.000
734.000,-38.574,-23.438,-31.250,-16.113,0.000
738.000,-30.273,-33.691,-29.785,-25.879,0.000
742.000,-32.227,-27.344,-32.227,-20.508,0.000
746.000,-39.062,-20.508,-35.645,-22.949,0.000
750.000,-26.855,-20.508,-36.621,-23.926,0.000
754.000,-14.648,-18.555,-36.621,-24.414,0.000
758.000,-6.836,-16.113,-34.668,-23.438,0.000
762.000,-11.230,-19.531,-35.645,-21.973,0.000
766.000,-16.113,-22.461,-36.621,-20.020,0.000
770.000,-17.090,-23.926,-31.738,-25.879,0.000
773.000,-28.320,-25.391,-30.273,-25.391,0.000
777.000,-40.527,-27.832,-36.621,-19.043,0.000
781.000,-45.410,-28.809,-36.133,-24.902,0.000
785.000,-51.270,-33.691,-28.320,-25.879,0.000
789.000,-52.246,-32.227,-27.832,-24.902,0.000
793.000,-43.945,-24.902,-29.785,-25.391,0.000
797.000,-38.086,-24.902,-28.320,-20.508,0.000
801.000,-32.715,-30.762,-29.785,-21.973,0.000
805.000,-25.879,-33.691,-29.297,-25.391,0.000
809.000,-29.297,-27.832,-26.855,-18.555,0.000
812.000,-34.180,-24.414,-30.273,-22.949,0.000
816.000,-23.926,-25.879,-28.809,-19.043,0.000
820.000,-22.949,-24.414,-23.438,-5.859,0.000
824.000,-17.090,-21.484,-20.996,1.953,0.000
828.000,-22.949,-22.949,-20.020,-6.348,0.000
832.000,-18.555,-25.391,-19.531,-18.066,0.000
836.000,-13.672,-31.250,-23.926,-20.996,0.000
840.000,-17.090,-28.809,-25.391,-22.461,0.000
844.000,-17.090,-18.066,-23.438,-20.508,0.000
848.000,-24.414,-26.855,-24.414,-17.578,0.000
852.000,-28.320,-35.645,-22.949,-25.879,0.000
855.000,-20.996,-19.043,-22.461,-21.973,0.000
859.000,-14.648,-19.531,-21.973,-19.531,0.000
863.000,-18.555,-22.461,-19.043,-18.555,0.000
867.000,-27.832,-22.461,-20.996,-11.719,0.000
871.000,-25.391,-22.949,-24.902,-18.555,0.000
875.000,-14.160,-12.207,-21.973,-19.531,0.000
879.000,-16.602,-12.207,-20.996,-14.160,0.000
883.000,-22.949,-17.090,-25.391,-17.578,0.000
887.000,-40.527,-23.926,-25.391,-28.809,0.000
891.000,-49.805,-26.855,-29.785,-29.785,0.000
895.000,-34.668,-23.926,-31.250,-19.531,0.000
898.000,-25.391,-24.902,-33.691,-25.879,0.000
902.000,-28.320,-24.414,-36.133,-28.320,0.000
906.000,-44.434,-28.320,-32.715,-20.508,0.000
910.000,-53.711,-29.297,-32.715,-13.184,0.000
914.000,-52.734,-31.738,-32.227,-12.695,0.000
918.000,-42.480,-36.133,-33.203,-22.949,0.000
922.000,-30.273,-31.738,-35.645,-20.996,0.000
926.000,-27.344,-27.832,-33.203,-10.254,0.000
930.000,-29.297,-26.855,-28.809,-10.254,0.000
934.000,-31.738,-31.250,-29.297,-17.090,0.000
937.000,-35.156,-24.902,-26.855,-13.184,0.000
941.000,-29.297,-23.438,-26.855,-13.184,0.000
945.000,-20.020,-35.645,-31.250,-21.973,0.000
949.000,-20.508,-35.156,-32.227,-33.203,0.000
953.000,-28.320,-25.391,-25.391,-23.926,0.000
957.000,-27.344,-20.996,-22.949,-20.508,0.000
961.000,-25.879,-22.949,-33.691,-27.344,0.000
965.000,-27.832,-26.855,-32.227,-31.250,0.000
969.000,-19.043,-22.461,-26.855,-27.344,0.000
973.000,-34.180,-23.438,-28.320,-19.531,0.000
977.000,-39.551,-29.785,-30.273,-21.973,0.000
980.000,-25.879,-25.391,-29.297,-16.602,0.000
984.000,-23.438,-25.391,-32.227,-20.020,0.000
988.000,-30.762,-36.133,-32.715,-22.949,0.000
992.000,-29.785,-30.762,-26.855,-17.090,0.000
996.000,-23.926,-18.555,-24.414,-10.254,0.000
1000.000,-32.227,-21.973,-28.809,-12.695,0.000
1004.000,-30.273,-30.762,-33.203,-14.648,0.000
1008.000,-10.254,-24.902,-30.273,-14.160,0.000
1012.000,-11.719,-19.043,-30.762,-19.043,0.000
1016.000,-17.090,-22.461,-28.809,-14.160,0.000
1020.000,-27.832,-26.855,-30.762,-21.484,0.000
1023.000,-47.852,-35.645,-34.180,-29.297,0.000
1027.000,-47.363,-38.086,-34.180,-33.203,0.000
1031.000,-37.598,-33.203,-39.062,-39.551,0.000
1035.000,-34.180,-31.250,-33.203,-39.551,0.000
1039.000,-26.855,-35.645,-32.715,-44.922,0.000
1043.000,-25.391,-36.621,-36.621,-42.480,0.000
1047.000,-34.180,-32.227,-36.621,-38.574,0.000
1051.000,-27.344,-29.297,-30.762,-36.133,0.000
1055.000,-32.715,-31.738,-26.855,-32.715,0.000
1059.000,-43.457,-37.598,-30.762,-31.738,0.000
1062.000,-52.734,-36.621,-30.762,-17.578,0.000
1066.000,-61.523,-34.668,-34.180,-23.926,0.000
1070.000,-44.922,-32.227,-25.879,-31.738,0.000
1074.000,-20.996,-29.297,-22.949,-17.578,0.000
1078.000,-19.531,-31.738,-28.320,-19.043,0.000
1082.000,-41.504,-33.691,-28.809,-16.113,0.000
1086.000,-54.688,-28.809,-29.785,-12.695,0.000
1090.000,-46.387,-27.832,-31.250,-17.090,0.000
1094.000,-37.109,-33.203,-30.762,-20.508,0.000
1098.000,-34.668,-35.156,-24.902,-18.555,0.000
1102.000,-32.227,-29.785,-28.809,-21.484,0.000
1105.000,-27.832,-28.320,-32.715,-24.414,0.000
1109.000,-35.645,-27.832,-31.738,-19.531,0.000
1113.000,-29.297,-22.461,-33.203,-14.160,0.000
1117.000,-25.879,-23.438,-27.344,-7.812,0.000
1121.000,-25.391,-22.949,-20.508,-3.418,0.000
1125.000,-12.695,-20.508,-27.832,-3.418,0.000
1129.000,-15.137,-18.555,-33.203,-11.719,0.000
1133.000,-14.648,-19.531,-29.297,-17.090,0.000
1137.000,-9.766,-23.926,-27.832,-23.926,0.000
1141.000,-12.695,-21.484,-28.809,-23.926,0.000
1144.000,-13.672,-22.461,-29.785,-18.555,0.000
1148.000,-15.625,-21.973,-25.879,-15.137,0.000
1152.000,-19.043,-25.879,-30.273,-28.320,0.000
1156.000,-18.555,-30.762,-35.645,-27.832,0.000
1160.000,-13.184,-23.438,-32.227,-32.227,0.000
1164.000,-19.531,-20.996,-30.273,-41.992,0.000
1168.000,-30.762,-20.996,-28.320,-29.785,0.000
1172.000,-21.484,-22.949,-24.414,-29.785,0.000
1176.000,-23.438,-28.809,-24.902,-27.344,0.000
1180.000,-43.457,-29.297,-30.273,-27.832,0.000
1184.000,-55.176,-29.785,-29.297,-35.156,0.000
1187.000,-57.129,-35.156,-27.832,-45.898,0.000
1191.000,-59.082,-40.039,-30.273,-41.992,0.000
1195.000,-52.734,-37.598,-32.227,-31.738,0.000
1199.000,-45.898,-33.203,-32.227,-41.016,0.000
1203.000,-48.828,-37.598,-32.227,-47.363,0.000
1207.000,-52.246,-38.086,-31.250,-43.457,0.000
1211.000,-45.410,-39.062,-34.180,-40.527,0.000
1215.000,-46.387,-39.062,-34.180,-34.668,0.000
1219.000,-59.570,-36.133,-27.832,-39.551,0.000
1223.000,-69.824,-35.645,-23.926,-40.039,0.000
1227.000,-60.059,-30.273,-24.902,-39.551,0.000
1230.000,-39.062,-28.809,-31.738,-41.016,0.000
1234.000,-33.691,-34.180,-34.180,-38.574,0.000
1238.000,-49.316,-36.133,-30.762,-35.645,0.000
1242.000,-55.664,-34.180,-28.320,-32.227,0.000
1246.000,-45.898,-27.344,-30.273,-32.227,0.000
1250.000,-35.645,-26.367,-36.133,-31.738,0.000
1254.000,-34.668,-29.297,-33.691,-35.156,0.000
1258.000,-28.809,-25.879,-28.809,-28.320,0.000
1262.000,-37.109,-28.320,-28.809,-23.438,0.000
1266.000,-40.039,-27.344,-27.832,-32.227,0.000
1269.000,-20.508,-26.855,-27.832,-36.621,0.000
1273.000,-4.395,-26.855,-34.180,-36.621,0.000
1277.000,-22.461,-34.180,-33.691,-28.809,0.000
1281.000,-44.434,-37.598,-27.344,-21.973,0.000
1285.000,-39.551,-25.391,-26.367,-23.926,0.000
1289.000,-34.180,-22.461,-33.691,-24.414,0.000
1293.000,-29.785,-26.855,-33.691,-21.484,0.000
1297.000,-38.574,-32.227,-29.297,-26.855,0.000
1301.000,-53.223,-31.250,-30.762,-26.855,0.000
1305.000,-52.734,-27.344,-31.250,-27.832,0.000
1309.000,-46.387,-34.668,-27.832,-32.227,0.000
1312.000,-46.875,-35.156,-25.879,-26.367,0.000
1316.000,-52.246,-40.527,-23.926,-18.555,0.000
1320.000,-42.480,-37.598,-23.438,-26.367,0.000
1324.000,-30.273,-25.879,-23.926,-28.809,0.000
1328.000,-31.738,-24.414,-23.438,-19.531,0.000
1332.000,-30.762,-22.949,-26.367,-16.602,0.000
1336.000,-28.320,-21.484,-23.926,-17.090,0.000
1340.000,-28.809,-20.020,-14.648,-11.719,0.000
1344.000,-45.410,-25.391,-16.113,-4.883,0.000
1348.000,-47.852,-29.297,-21.973,-13.672,0.000
1352.000,-33.691,-25.879,-26.367,-23.438,0.000
1355.000,-25.879,-23.926,-29.297,-26.855,0.000
1359.000,-20.020,-25.391,-28.809,-22.461,0.000
1363.000,-24.414,-27.832,-31.738,-22.461,0.000
1367.000,-41.504,-27.832,-33.691,-32.715,0.000
1371.000,-44.922,-26.855,-35.645,-34.180,0.000
1375.000,-28.320,-20.508,-37.109,-23.438,0.000
1379.000,-17.090,-19.531,-30.762,-19.531,0.000
1383.000,-17.578,-23.438,-24.414,-22.461,0.000
1387.000,-18.066,-22.949,-28.320,-15.625,0.000
1391.000,-19.043,-27.832,-31.250,-5.371,0.000
1394.000,-13.184,-23.926,-29.785,-16.602,0.000
1398.000,-5.859,-20.508,-31.738,-29.785,0.000
1402.000,-26.855,-27.832,-32.715,-23.926,0.000
1406.000,-46.875,-29.785,-29.297,-20.508,0.000
1410.000,-41.504,-28.809,-29.297,-27.344,0.000
1414.000,-33.203,-34.180,-31.738,-39.062,0.000
1418.000,-30.273,-29.785,-33.691,-38.086,0.000
1422.000,-36.621,-29.297,-32.715,-27.832,0.000
1426.000,-44.434,-33.691,-30.762,-21.973,0.000
1430.000,-41.992,-25.879,-29.785,-21.973,0.000
1434.000,-39.062,-24.902,-31.738,-18.555,0.000
1437.000,-36.133,-24.414,-29.785,-16.113,0.000
1441.000,-41.016,-23.926,-27.832,-25.391,0.000
1445.000,-51.270,-35.156,-31.738,-35.156,0.000
1449.000,-42.480,-30.762,-32.227,-34.668,0.000
1453.000,-33.691,-20.020,-31.250,-33.203,0.000
1457.000,-24.902,-20.508,-28.320,-40.039,0.000
1461.000,-14.160,-17.578,-25.879,-31.250,0.000
1465.000,-29.785,-20.996,-23.438,-19.531,0.000
1469.000,-45.898,-28.320,-22.949,-26.367,0.000
1473.000,-39.551,-30.273,-23.438,-23.438,0.000
1477.000,-36.621,-25.391,-22.949,-15.625,0.000
1480.000,-41.992,-26.855,-23.438,-12.695,0.000
1484.000,-38.574,-37.598,-26.367,-17.578,0.000
1488.000,-40.039,-33.691,-25.879,-20.508,0.000
1492.000,-37.598,-30.762,-27.832,-12.207,0.000
1496.000,-32.227,-33.691,-25.879,-5.371,0.000
1500.000,-27.344,-28.809,-26.855,-12.207,0.000
1504.000,-21.484,-27.832,-27.344,-26.855,0.000
1508.000,-22.461,-35.156,-29.297,-31.738,0.000
1512.000,-42.480,-32.227,-32.227,-24.902,0.000
1516.000,-62.012,-27.832,-23.926,-26.367,0.000
1519.000,-46.875,-27.344,-26.367,-43.457,0.000
1523.000,-30.762,-21.484,-31.738,-41.992,0.000
1527.000,-36.133,-19.531,-30.762,-28.809,0.000
1531.000,-42.480,-18.066,-30.762,-33.691,0.000
1535.000,-42.480,-20.508,-30.273,-41.992,0.000
1539.000,-37.109,-22.949,-27.344,-44.922,0.000
1543.000,-44.434,-25.391,-32.227,-45.410,0.000
1547.000,-56.641,-22.461,-32.715,-48.340,0.000
1551.000,-49.316,-20.996,-25.879,-51.270,0.000
1555.000,-42.969,-21.484,-26.855,-40.527,0.000
1559.000,-45.898,-20.020,-26.367,-35.645,0.000
1562.000,-53.711,-17.578,-26.367,-38.086,0.000
1566.000,-48.828,-15.137,-30.273,-39.062,0.000
1570.000,-32.227,-20.996,-29.297,-26.855,0.000
1574.000,-28.809,-20.508,-27.832,-15.137,0.000
1578.000,-28.320,-18.066,-25.879,-15.625,0.000
1582.000,-33.691,-21.973,-21.484,-14.648,0.000
1586.000,-28.320,-22.949,-22.949,-10.742,0.000
1590.000,-23.926,-22.949,-22.461,-12.207,0.000
1594.000,-32.715,-24.414,-24.902,-29.297,0.000
1598.000,-28.320,-23.438,-30.762,-35.645,0.000
1602.000,-15.137,-25.879,-32.227,-36.621,0.000
1605.000,-17.578,-28.320,-28.809,-36.133,0.000
1609.000,-17.578,-23.926,-26.855,-23.926,0.000
1613.000,-9.766,-17.578,-28.809,-19.531,0.000
1617.000,-25.879,-23.438,-28.320,-31.738,0.000
1621.000,-31.738,-33.691,-27.344,-40.527,0.000
1625.000,-23.438,-39.062,-26.367,-37.598,0.000
1629.000,-20.996,-31.250,-25.391,-33.691,0.000
1633.000,-21.973,-22.949,-27.344,-36.621,0.000
1637.000,-26.855,-32.227,-28.320,-38.574,0.000
1641.000,-43.457,-36.621,-26.367,-37.598,0.000
1644.000,-58.594,-29.785,-25.879,-41.504,0.000
1648.000,-53.223,-33.691,-27.832,-46.387,0.000
1652.000,-50.293,-32.227,-32.715,-46.387,0.000
1656.000,-47.852,-25.391,-34.180,-35.156,0.000
1660.000,-49.805,-24.414,-34.668,-28.809,0.000
1664.000,-44.922,-23.438,-39.551,-35.645,0.000
1668.000,-26.855,-25.391,-40.527,-36.133,0.000
1672.000,-23.438,-20.996,-37.109,-29.297,0.000
1676.000,-28.320,-21.484,-37.598,-24.902,0.000
1680.000,-33.203,-30.273,-39.062,-24.902,0.000
1684.000,-35.645,-30.762,-35.645,-34.668,0.000
1687.000,-33.203,-25.879,-36.621,-32.227,0.000
1691.000,-35.156,-24.902,-36.133,-26.855,0.000
1695.000,-41.016,-29.785,-34.180,-26.855,0.000
1699.000,-36.133,-30.762,-35.156,-30.273,0.000
1703.000,-28.809,-33.691,-37.598,-33.691,0.000
1707.000,-34.668,-30.762,-38.086,-38.086,0.000
1711.000,-42.480,-23.926,-34.180,-41.504,0.000
1715.000,-24.902,-27.832,-30.762,-32.227,0.000
1719.000,-16.113,-27.344,-33.691,-29.297,0.000
1723.000,-22.949,-21.973,-36.621,-26.367,0.000
1727.000,-32.715,-20.996,-34.668,-19.531,0.000
1730.000,-36.621,-20.020,-33.691,-21.973,0.000
1734.000,-22.949,-23.926,-31.738,-27.832,0.000
1738.000,-13.184,-18.066,-27.832,-28.320,0.000
1742.000,-15.625,-21.484,-27.832,-27.832,0.000
1746.000,-17.090,-30.762,-30.273,-22.461,0.000
1750.000,-26.367,-28.809,-31.250,-24.414,0.000
1754.000,-34.180,-31.250,-35.645,-31.738,0.000
1758.000,-30.273,-34.180,-39.551,-24.414,0.000
1762.000,-28.320,-36.133,-39.551,-24.902,0.000
1766.000,-23.926,-31.250,-37.109,-22.461,0.000
1769.000,-16.602,-22.461,-36.133,-13.184,0.000
1773.000,-21.484,-20.020,-39.062,-15.137,0.000
1777.000,-26.367,-22.949,-35.156,-19.043,0.000
1781.000,-29.297,-31.738,-28.320,-17.090,0.000
1785.000,-29.297,-34.668,-29.297,-16.602,0.000
1789.000,-32.715,-32.227,-31.250,-17.090,0.000
1793.000,-35.156,-27.344,-26.855,-13.184,0.000
1797.000,-31.250,-27.832,-30.762,-16.113,0.000
1801.000,-29.297,-34.668,-31.738,-30.762,0.000
1805.000,-23.926,-37.109,-34.668,-37.109,0.000
1809.000,-24.902,-37.598,-41.504,-30.762,0.000
1812.000,-37.598,-38.086,-41.992,-33.691,0.000
1816.000,-30.273,-31.738,-41.504,-42.480,0.000
1820.000,-8.301,-30.762,-41.992,-44.434,0.000
1824.000,-8.789,-27.832,-38.086,-33.203,0.000
1828.000,-20.996,-25.879,-33.203,-20.020,0.000
1832.000,-40.039,-25.879,-32.715,-16.113,0.000
1836.000,-40.527,-24.414,-32.715,-7.812,0.000
1840.000,-17.090,-28.809,-35.645,-11.230,0.000
1844.000,-18.066,-26.367,-37.109,-20.508,0.000
1848.000,-28.809,-23.438,-36.133,-23.926,0.000
1852.000,-40.039,-29.297,-34.180,-23.438,0.000
1855.000,-49.316,-27.344,-30.762,-24.414,0.000
1859.000,-52.246,-22.461,-27.344,-22.461,0.000
1863.000,-58.594,-30.762,-25.879,-28.809,0.000
1867.000,-38.086,-27.832,-24.414,-32.715,0.000
1871.000,-20.020,-25.391,-21.484,-18.555,0.000
1875.000,-27.344,-33.203,-20.020,-8.789,0.000
1879.000,-24.414,-33.203,-22.949,-22.461,0.000
1883.000,-25.391,-30.762,-23.926,-33.691,0.000
1887.000,-34.180,-27.832,-22.949,-32.715,0.000
1891.000,-32.715,-33.203,-27.344,-36.133,0.000
1894.000,-31.250,-31.250,-28.809,-36.621,0.000
1898.000,-25.391,-22.949,-24.902,-26.855,0.000
1902.000,-32.227,-24.902,-28.320,-18.555,0.000
1906.000,-38.574,-25.879,-33.691,-24.902,0.000
1910.000,-29.297,-26.855,-35.156,-24.414,0.000
1914.000,-18.066,-28.809,-31.250,-17.578,0.000
1918.000,-26.855,-28.809,-28.809,-14.648,0.000
1922.000,-38.086,-27.344,-26.855,-19.043,0.000
1926.000,-39.551,-30.273,-25.391,-21.973,0.000
1930.000,-31.250,-32.227,-27.344,-26.855,0.000
1934.000,-23.438,-22.949,-29.297,-31.250,0.000
1937.000,-24.902,-20.020,-31.250,-29.785,0.000
1941.000,-22.461,-27.344,-27.344,-31.738,0.000
1945.000,-27.832,-30.273,-30.762,-26.367,0.000
1949.000,-39.062,-26.367,-32.227,-24.414,0.000
1953.000,-43.457,-25.879,-28.809,-30.762,0.000
1957.000,-37.598,-29.297,-30.273,-32.227,0.000
1961.000,-27.832,-29.785,-32.715,-22.949,0.000
1965.000,-30.762,-30.762,-28.809,-29.297,0.000
1969.000,-28.809,-22.461,-27.832,-47.852,0.000
1973.000,-21.484,-19.531,-31.738,-44.434,0.000
1977.000,-33.203,-27.344,-25.879,-37.109,0.000
1980.000,-40.527,-25.879,-24.414,-37.109,0.000
1984.000,-41.016,-26.367,-30.273,-41.504,0.000
1988.000,-40.527,-33.691,-34.668,-34.180,0.000
1992.000,-40.039,-33.203,-33.203,-25.391,0.000
1996.000,-47.363,-28.320,-27.832,-20.996,0.000
2000.000,-37.109,-28.320,-28.320,-15.625,0.000
2004.000,-34.180,-27.832,-29.297,-20.508,0.000
2008.000,-47.852,-27.344,-24.902,-20.508,0.000
2012.000,-39.551,-29.785,-21.484,-5.371,0.000
2016.000,-30.762,-29.785,-21.973,-14.160,0.000
2019.000,-30.762,-29.785,-25.391,-23.438,0.000
2023.000,-25.879,-24.414,-25.879,-13.184,0.000
2027.000,-31.738,-23.926,-33.691,-22.949,0.000
2031.000,-33.691,-24.414,-34.668,-24.902,0.000
2035.000,-31.738,-25.879,-28.320,-23.438,0.000
2039.000,-29.785,-25.391,-30.762,-35.156,0.000
2043.000,-31.738,-22.949,-31.738,-38.086,0.000
2047.000,-35.645,-16.113,-28.320,-27.344,0.000
2051.000,-39.551,-16.113,-28.320,-26.855,0.000
2055.000,-43.945,-21.484,-32.227,-35.645,0.000
2059.000,-39.551,-20.996,-31.738,-37.598,0.000
2062.000,-27.832,-26.855,-30.762,-39.551,0.000
2066.000,-19.531,-27.832,-30.273,-48.340,0.000
2070.000,-18.066,-19.531,-32.227,-46.875,0.000
2074.000,-18.066,-22.461,-29.785,-38.086,0.000
2078.000,-19.531,-30.273,-32.227,-34.180,0.000
2082.000,-18.066,-32.227,-30.762,-23.926,0.000
2086.000,-22.461,-33.691,-31.738,-20.508,0.000
2090.000,-25.879,-29.297,-30.762,-18.066,0.000
2094.000,-22.949,-24.414,-29.297,-6.348,0.000
2098.000,-11.719,-27.344,-30.273,-6.348,0.000
2102.000,-17.090,-26.367,-30.273,-12.207,0.000
2105.000,-34.668,-24.414,-29.297,-10.742,0.000
2109.000,-35.645,-20.996,-26.367,-10.254,0.000
2113.000,-30.273,-23.926,-28.320,-10.254,0.000
2117.000,-38.086,-27.832,-25.391,-12.207,0.000
2121.000,-41.016,-26.367,-21.973,-23.438,0.000
2125.000,-33.203,-32.715,-27.832,-23.926,0.000
2129.000,-36.133,-38.086,-30.273,-19.043,0.000
2133.000,-24.414,-28.809,-28.809,-11.719,0.000
2137.000,-18.066,-23.926,-27.832,-9.766,0.000
2141.000,-31.250,-25.879,-29.297,-16.113,0.000
2144.000,-36.133,-22.949,-28.809,-29.785,0.000
2148.000,-29.785,-19.043,-24.414,-40.039,0.000
2152.000,-28.320,-27.344,-24.414,-37.598,0.000
2156.000,-19.043,-27.832,-30.762,-38.574,0.000
2160.000,-20.996,-23.926,-31.250,-29.297,0.000
2164.000,-44.922,-28.320,-24.414,-18.555,0.000
2168.000,-51.270,-35.156,-27.344,-26.367,0.000
2172.000,-27.832,-36.621,-32.227,-26.367,0.000
2176.000,-11.230,-30.273,-30.762,-14.160,0.000
2180.000,-26.855,-31.250,-35.156,-7.324,0.000
2184.000,-35.156,-32.715,-31.250,-9.766,0.000
2187.000,-30.762,-31.738,-29.297,-11.719,0.000
2191.000,-35.156,-29.785,-37.109,-9.277,0.000
2195.000,-44.922,-30.273,-37.109,-15.625,0.000
2199.000,-46.387,-35.645,-33.203,-33.203,0.000
2203.000,-38.086,-33.691,-30.273,-45.410,0.000
2207.000,-52.246,-30.762,-34.668,-47.363,0.000
2211.000,-57.617,-33.691,-38.086,-44.434,0.000
2215.000,-54.688,-35.645,-37.109,-48.340,0.000
2219.000,-49.805,-33.203,-35.156,-46.875,0.000
2223.000,-30.273,-30.273,-35.156,-41.504,0.000
2226.000,-17.090,-34.180,-36.621,-53.223,0.000
2230.000,-41.992,-39.062,-36.621,-54.688,0.000
2234.000,-64.941,-38.086,-38.574,-46.875,0.000
2238.000,-62.500,-33.203,-40.527,-51.758,0.000
2242.000,-61.035,-30.762,-37.109,-40.527,0.000
2246.000,-51.758,-30.273,-33.691,-39.551,0.000
2250.000,-50.293,-33.203,-34.180,-47.852,0.000
2254.000,-50.781,-29.785,-33.203,-42.969,0.000
2258.000,-40.039,-32.227,-28.809,-23.926,0.000
2262.000,-27.344,-37.109,-23.926,-8.301,0.000
2266.000,-24.902,-25.391,-21.973,-9.277,0.000
2269.000,-16.113,-18.555,-21.973,-9.277,0.000
2273.000,-18.555,-20.996,-18.066,0.488,0.000
2277.000,-21.484,-20.996,-16.113,6.836,0.000
2281.000,-14.160,-21.973,-19.043,-1.953,0.000
2285.000,-11.719,-24.902,-24.414,-7.324,0.000
2289.000,-4.395,-22.461,-22.949,-2.930,0.000
2293.000,-11.719,-24.902,-17.090,0.488,0.000
2297.000,-27.832,-26.855,-20.508,-1.953,0.000
2301.000,-24.414,-22.949,-23.926,-14.160,0.000
2305.000,-11.719,-26.367,-22.461,-18.066,0.000
2309.000,-15.625,-30.273,-21.484,-14.648,0.000
2312.000,-42.480,-32.227,-25.391,-19.531,0.000
2316.000,-56.641,-34.668,-28.320,-23.926,0.000
2320.000,-41.992,-27.832,-21.973,-23.438,0.000
2324.000,-32.715,-26.367,-22.461,-20.508,0.000
2328.000,-34.180,-31.738,-21.973,-33.691,0.000
2332.000,-29.297,-30.273,-23.438,-37.598,0.000
2336.000,-21.973,-26.855,-29.785,-34.668,0.000
2340.000,-30.273,-26.855,-30.762,-36.133,0.000
2344.000,-33.203,-26.367,-30.762,-28.320,0.000
2348.000,-29.297,-21.973,-26.367,-22.461,0.000
2351.000,-26.855,-20.996,-25.391,-27.344,0.000
2355.000,-26.855,-22.949,-25.391,-29.785,0.000
2359.000,-24.902,-26.367,-24.902,-16.602,0.000
2363.000,-21.484,-29.297,-24.902,-6.348,0.000
2367.000,-27.344,-22.461,-29.297,-6.836,0.000
2371.000,-35.156,-23.438,-32.227,-12.207,0.000
2375.000,-41.504,-28.809,-30.762,-14.648,0.000
2379.000,-46.875,-27.832,-26.367,-17.090,0.000
2383.000,-46.387,-30.273,-27.832,-28.809,0.000
2387.000,-54.199,-30.762,-30.762,-32.227,0.000
2391.000,-64.453,-32.227,-25.879,-29.785,0.000
2394.000,-52.246,-27.344,-21.973,-34.668,0.000
2398.000,-42.480,-23.926,-25.391,-44.922,0.000
2402.000,-42.969,-24.414,-31.250,-47.852,0.000
2406.000,-44.434,-22.461,-25.391,-43.945,0.000
2410.000,-33.203,-19.043,-26.367,-38.086,0.000
2414.000,-19.043,-15.137,-34.668,-38.086,0.000
2418.000,-27.344,-24.414,-34.668,-47.852,0.000
2422.000,-46.387,-27.832,-32.715,-42.969,0.000
2426.000,-49.805,-23.438,-32.227,-22.461,0.000
2430.000,-41.992,-28.320,-28.320,-13.672,0.000
2434.000,-41.016,-28.320,-24.902,-19.043,0.000
2437.000,-39.551,-22.461,-23.438,-11.230,0.000
2441.000,-32.227,-22.461,-26.855,-2.930,0.000
2445.000,-34.180,-25.391,-33.203,-20.996,0.000
2449.000,-38.574,-24.414,-31.738,-35.645,0.000
2453.000,-31.738,-22.461,-27.832,-33.203,0.000
2457.000,-29.297,-21.484,-25.879,-28.320,0.000
2461.000,-38.086,-25.879,-23.438,-32.715,0.000
2465.000,-23.438,-30.273,-26.855,-40.039,0.000
2469.000,-21.484,-26.367,-29.785,-37.109,0.000
2473.000,-35.156,-22.461,-31.738,-34.668,0.000
2476.000,-38.574,-23.926,-34.668,-29.785,0.000
2480.000,-41.992,-28.320,-32.227,-27.344,0.000
2484.000,-28.320,-28.809,-32.715,-37.109,0.000
2488.000,-17.578,-30.273,-34.180,-35.156,0.000
2492.000,-38.086,-31.250,-33.203,-23.438,0.000
2496.000,-43.457,-26.367,-31.250,-15.137,0.000
2500.000,-30.273,-21.973,-34.180,-22.949,0.000
2504.000,-31.250,-21.484,-32.715,-36.621,0.000
2508.000,-32.227,-23.438,-33.691,-35.645,0.000
2512.000,-34.668,-26.855,-42.969,-29.785,0.000
2516.000,-31.250,-30.273,-42.969,-26.855,0.000
2519.000,-22.461,-33.203,-38.574,-38.086,0.000
2523.000,-24.414,-32.227,-36.621,-43.945,0.000
2527.000,-44.922,-32.227,-31.250,-30.273,0.000
2531.000,-51.270,-28.809,-25.391,-25.879,0.000
2535.000,-44.434,-29.297,-28.809,-30.762,0.000
2539.000,-37.109,-35.645,-32.715,-32.227,0.000
2543.000,-35.645,-36.133,-30.762,-35.645,0.000
2547.000,-19.043,-28.320,-29.785,-33.691,0.000
2551.000,-6.836,-23.438,-28.809,-34.180,0.000
2555.000,-24.902,-32.227,-28.809,-40.527,0.000
2559.000,-43.457,-42.969,-28.809,-29.785,0.000
2562.000,-42.969,-32.715,-24.414,-22.949,0.000
2566.000,-37.109,-27.344,-25.879,-35.156,0.000
2570.000,-35.156,-29.785,-22.949,-40.039,0.000
2574.000,-45.410,-30.762,-19.531,-33.203,0.000
2578.000,-46.875,-33.203,-22.949,-26.855,0.000
2582.000,-40.039,-28.809,-23.926,-24.902,0.000
2586.000,-41.016,-24.902,-23.926,-29.785,0.000
2590.000,-41.016,-37.109,-23.926,-42.480,0.000
2594.000,-43.945,-39.551,-27.344,-43.945,0.000
2598.000,-50.781,-35.645,-29.297,-36.621,0.000
2601.000,-46.875,-32.715,-28.320,-40.527,0.000
2605.000,-38.086,-25.391,-26.855,-34.668,0.000
2609.000,-34.668,-30.762,-28.809,-34.668,0.000
2613.000,-25.879,-32.715,-27.344,-34.668,0.000
2617.000,-29.297,-27.832,-23.438,-16.113,0.000
2621.000,-33.203,-26.855,-26.855,-12.695,0.000
2625.000,-24.902,-20.996,-30.273,-12.695,0.000
2629.000,-19.531,-21.484,-28.809,-12.207,0.000
2633.000,-25.879,-23.438,-30.762,-18.066,0.000
2637.000,-28.320,-21.484,-32.227,-20.020,0.000
2641.000,-28.809,-22.949,-32.715,-14.648,0.000
2644.000,-31.250,-25.879,-32.227,-19.531,0.000
2648.000,-26.855,-22.461,-32.227,-18.555,0.000
2652.000,-27.344,-20.508,-37.109,-19.531,0.000
2656.000,-34.180,-23.438,-38.574,-27.832,0.000
2660.000,-40.039,-32.227,-36.621,-25.391,0.000
2664.000,-36.133,-30.762,-40.527,-29.297,0.000
2668.000,-33.203,-25.391,-38.574,-34.668,0.000
2672.000,-25.879,-26.367,-33.691,-28.809,0.000
2676.000,-26.855,-28.809,-33.691,-19.531,0.000
2680.000,-30.273,-27.344,-31.738,-20.508,0.000
2684.000,-21.973,-22.461,-28.809,-26.855,0.000
2687.000,-21.973,-20.508,-35.156,-29.297,0.000
2691.000,-14.648,-18.555,-36.133,-26.855,0.000
2695.000,-2.930,-14.648,-31.250,-24.902,0.000
2699.000,-11.719,-18.066,-34.180,-28.320,0.000
2703.000,-21.973,-20.996,-36.621,-31.738,0.000
2707.000,-11.230,-19.531,-31.250,-19.531,0.000
2711.000,-8.789,-22.949,-28.320,-10.742,0.000
2715.000,-20.996,-20.996,-26.855,-12.207,0.000
2719.000,-29.785,-20.020,-23.926,-20.508,0.000
2723.000,-22.949,-21.484,-24.414,-16.602,0.000
2726.000,-25.879,-23.926,-25.879,1.465,0.000
2730.000,-31.738,-28.809,-21.484,-2.930,0.000
2734.000,-23.926,-24.414,-21.973,-19.043,0.000
2738.000,-32.715,-26.855,-28.320,-20.508,0.000
2742.000,-46.387,-33.203,-30.762,-15.625,0.000
2746.000,-46.875,-32.227,-33.203,-28.809,0.000
2750.000,-43.457,-30.762,-29.785,-38.086,0.000
2754.000,-45.410,-26.855,-22.949,-37.598,0.000
2758.000,-48.340,-28.320,-23.438,-38.574,0.000
2762.000,-41.016,-34.668,-28.320,-30.762,0.000
2766.000,-34.180,-39.062,-29.785,-32.227,0.000
2769.000,-34.668,-31.250,-24.414,-40.039,0.000
2773.000,-27.832,-28.809,-21.973,-33.691,0.000
2777.000,-19.531,-31.250,-23.926,-34.668,0.000
2781.000,-18.066,-29.785,-21.484,-53.223,0.000
2785.000,-21.484,-34.180,-22.461,-41.504,0.000
2789.000,-21.973,-31.738,-27.344,-34.180,0.000
2793.000,-16.602,-32.227,-23.438,-39.062,0.000
2797.000,-21.973,-33.691,-19.531,-23.438,0.000
2801.000,-16.602,-28.809,-26.367,-17.090,0.000
2805.000,-10.742,-26.367,-29.297,-18.066,0.000
2809.000,-15.625,-26.367,-28.809,-19.531,0.000
2812.000,-19.531,-24.902,-30.762,-16.113,0.000
2816.000,-37.109,-22.949,-28.320,-19.531,0.000
2820.000,-52.734,-27.832,-29.785,-31.250,0.000
2824.000,-48.828,-30.762,-33.203,-31.738,0.000
2828.000,-46.387,-25.879,-35.645,-33.691,0.000
2832.000,-48.340,-25.391,-32.715,-33.203,0.000
2836.000,-41.992,-23.926,-27.832,-26.367,0.000
2840.000,-32.227,-26.367,-30.273,-27.344,0.000
2844.000,-29.297,-28.809,-33.203,-33.691,0.000
2848.000,-39.551,-29.785,-35.645,-46.875,0.000
2851.000,-45.410,-31.738,-31.250,-56.152,0.000
2855.000,-41.016,-30.273,-25.879,-50.781,0.000
2859.000,-44.922,-27.832,-23.926,-40.527,0.000
2863.000,-45.410,-20.996,-20.996,-29.785,0.000
2867.000,-45.898,-22.461,-26.855,-33.691,0.000
2871.000,-42.480,-19.043,-31.250,-37.598,0.000
2875.000,-30.762,-18.066,-30.762,-33.691,0.000
2879.000,-29.785,-26.367,-36.133,-30.762,0.000
2883.000,-24.414,-25.391,-36.133,-36.133,0.000
2887.000,-18.555,-23.926,-32.715,-41.016,0.000
2891.000,-13.672,-22.949,-30.273,-36.621,0.000
2894.000,-18.555,-20.996,-27.344,-26.367,0.000
2898.000,-19.531,-19.043,-27.832,-25.391,0.000
2902.000,-8.301,-18.066,-25.391,-24.902,0.000
2906.000,-13.184,-24.902,-24.902,-17.578,0.000
2910.000,-20.996,-27.344,-26.855,-25.391,0.000
2914.000,-23.438,-23.438,-29.785,-37.109,0.000
2918.000,-19.531,-19.531,-32.227,-41.016,0.000
2922.000,-35.645,-22.461,-33.691,-44.434,0.000
2926.000,-44.922,-25.879,-37.109,-44.922,0.000
2930.000,-36.621,-20.996,-36.621,-41.016,0.000
2934.000,-42.969,-22.949,-36.133,-33.691,0.000
2937.000,-56.152,-27.344,-32.715,-37.109,0.000
2941.000,-50.781,-27.344,-37.598,-43.457,0.000
2945.000,-49.316,-25.879,-37.109,-41.016,0.000
2949.000,-59.082,-28.320,-31.738,-40.527,0.000
2953.000,-44.922,-28.320,-30.762,-36.621,0.000
2957.000,-41.992,-31.250,-30.273,-34.668,0.000
2961.000,-38.574,-31.250,-31.738,-35.156,0.000
2965.000,-32.227,-32.227,-32.227,-31.738,0.000
2969.000,-29.785,-29.785,-32.227,-29.297,0.000
2973.000,-35.156,-28.320,-33.691,-24.414,0.000
2976.000,-39.062,-33.691,-31.250,-21.973,0.000
2980.000,-37.109,-36.621,-31.738,-19.531,0.000
2984.000,-51.270,-40.039,-27.344,-19.531,0.000
2988.000,-47.363,-37.598,-24.414,-25.879,0.000
2992.000,-42.969,-45.898,-25.879,-24.902,0.000
2996.000,-41.016,-49.316,-22.949,-17.090,0.000
3000.000,-40.039,-39.062,-25.391,-22.461,0.000
3004.000,-42.969,-37.109,-29.785,-27.344,0.000
3008.000,-38.086,-35.156,-28.809,-17.090,0.000
3012.000,-28.809,-32.227,-22.949,-16.602,0.000
3016.000,-22.461,-31.250,-24.902,-25.879,0.000
3019.000,-16.602,-26.855,-29.297,-31.738,0.000
3023.000,-11.719,-22.461,-27.832,-20.996,0.000
3027.000,-28.320,-23.926,-28.320,-16.113,0.000
3031.000,-46.387,-30.273,-32.715,-29.297,0.000
3035.000,-41.504,-31.738,-30.762,-34.180,0.000
3039.000,-34.668,-33.691,-33.691,-42.480,0.000
3043.000,-33.203,-31.250,-34.668,-36.133,0.000
3047.000,-43.457,-24.902,-28.809,-25.879,0.000
3051.000,-56.641,-31.250,-31.738,-32.715,0.000
3055.000,-40.039,-34.668,-33.691,-29.785,0.000
3059.000,-29.297,-26.367,-30.762,-22.949,0.000
3062.000,-33.203,-25.391,-35.156,-28.320,0.000
3066.000,-30.762,-30.273,-39.551,-26.855,0.000
3070.000,-20.996,-31.738,-33.203,-20.508,0.000
3074.000,-22.949,-29.785,-28.809,-12.695,0.000
3078.000,-33.691,-30.762,-31.738,-17.578,0.000
3082.000,-36.621,-31.250,-35.156,-20.508,0.000
3086.000,-32.715,-33.691,-32.227,-18.066,0.000
3090.000,-18.555,-37.598,-33.691,-20.020,0.000
3094.000,-21.484,-31.250,-36.621,-16.602,0.000
3098.000,-31.250,-26.855,-31.250,-12.207,0.000
3101.000,-31.250,-28.320,-32.227,-15.625,0.000
3105.000,-29.785,-31.250,-32.715,-20.996,0.000
3109.000,-35.645,-31.250,-30.762,-28.320,0.000
3113.000,-41.992,-24.414,-29.785,-32.715,0.000
3117.000,-39.551,-23.438,-35.645,-33.691,0.000
3121.000,-49.316,-24.902,-41.016,-41.016,0.000
3125.000,-51.758,-23.926,-41.992,-49.805,0.000
3129.000,-34.180,-25.879,-40.039,-49.805,0.000
3133.000,-34.668,-24.902,-39.062,-49.316,0.000
3137.000,-42.969,-23.926,-36.133,-47.852,0.000
3141.000,-46.387,-28.809,-28.809,-38.574,0.000
3144.000,-44.434,-26.855,-30.762,-30.762,0.000
3148.000,-43.945,-20.508,-32.715,-30.273,0.000
3152.000,-31.738,-23.438,-24.902,-24.902,0.000
3156.000,-22.949,-28.809,-25.391,-21.484,0.000
3160.000,-27.832,-28.809,-32.227,-26.855,0.000
3164.000,-30.273,-28.809,-31.738,-34.180,0.000
3168.000,-25.879,-23.926,-32.227,-36.621,0.000
3172.000,-23.438,-19.531,-34.668,-30.273,0.000
3176.000,-21.973,-16.602,-37.109,-16.602,0.000
3180.000,-19.531,-15.625,-41.016,-15.137,0.000
3184.000,-19.531,-20.020,-44.434,-29.297,0.000
3187.000,-18.066,-23.926,-45.410,-31.250,0.000
3191.000,-28.809,-23.438,-43.945,-20.020,0.000
3195.000,-34.668,-19.531,-39.551,-17.578,0.000
3199.000,-35.645,-21.973,-35.645,-25.879,0.000
3203.000,-26.855,-21.484,-37.109,-21.973,0.000
3207.000,-11.230,-21.484,-36.133,-24.414,0.000
3211.000,-10.254,-29.297,-40.527,-35.645,0.000
3215.000,-23.926,-28.809,-44.434,-39.062,0.000
3219.000,-37.109,-29.785,-39.062,-40.039,0.000
3223.000,-50.293,-35.156,-33.203,-38.574,0.000
3226.000,-45.898,-29.297,-30.273,-36.621,0.000
3230.000,-37.598,-21.973,-34.668,-38.574,0.000
3234.000,-37.598,-22.949,-34.668,-45.410,0.000
3238.000,-28.320,-24.414,-30.762,-41.504,0.000
3242.000,-38.574,-25.391,-30.273,-35.645,0.000
3246.000,-47.852,-28.320,-26.367,-37.109,0.000
3250.000,-45.898,-29.297,-26.855,-32.227,0.000
3254.000,-40.527,-33.203,-27.344,-32.227,0.000
3258.000,-35.645,-33.691,-28.809,-31.738,0.000
3262.000,-37.598,-24.414,-28.320,-24.414,0.000
3266.000,-45.410,-27.832,-29.785,-21.973,0.000
3269.000,-62.500,-38.086,-32.715,-40.039,0.000
3273.000,-48.828,-37.109,-31.250,-40.527,0.000
3277.000,-32.227,-30.273,-32.715,-26.855,0.000
3281.000,-22.949,-28.320,-33.691,-32.227,0.000
3285.000,-30.273,-30.273,-30.762,-33.203,0.000
3289.000,-41.016,-34.180,-30.273,-28.320,0.000
3293.000,-34.180,-38.086,-33.203,-32.227,0.000
3297.000,-41.016,-38.086,-33.691,-38.574,0.000
3301.000,-41.016,-35.645,-31.250,-41.016,0.000
3305.000,-31.250,-31.250,-31.250,-40.039,0.000
3309.000,-26.367,-26.855,-31.738,-30.273,0.000
3312.000,-26.367,-30.273,-33.691,-25.391,0.000
3316.000,-33.203,-34.668,-34.668,-31.738,0.000
3320.000,-36.621,-34.668,-34.180,-28.320,0.000
3324.000,-34.668,-31.738,-29.785,-28.809,0.000
3328.000,-33.203,-30.762,-30.273,-30.762,0.000
3332.000,-23.438,-29.785,-28.809,-18.555,0.000
3336.000,-15.137,-30.762,-19.043,-6.836,0.000
3340.000,-12.207,-28.809,-17.578,0.977,0.000
3344.000,-25.879,-27.344,-17.578,5.371,0.000
3348.000,-36.621,-35.645,-18.066,-6.348,0.000
3351.000,-45.898,-36.621,-24.902,-18.555,0.000
3355.000,-52.734,-30.762,-22.949,-7.324,0.000
3359.000,-42.969,-27.344,-22.461,-2.930,0.000
3363.000,-25.391,-21.973,-25.879,-1.465,0.000
3367.000,-10.742,-24.902,-19.043,0.977,0.000
3371.000,-9.766,-22.461,-18.066,-1.953,0.000
