timestamp,TP9,AF7,AF8,TP10,Right AUX
1673805046.476,-8.301,-16.602,-15.137,17.578,0.000
1673805046.480,-12.207,-8.301,-11.230,12.207,0.000
1673805046.484,-9.277,-14.160,-16.602,0.488,0.000
1673805046.488,-14.160,-25.879,-25.879,0.488,0.000
1673805046.492,-16.113,-29.785,-22.949,-0.977,0.000
1673805046.496,-1.465,-25.391,-18.555,-3.906,0.000
1673805046.500,12.207,-20.508,-17.578,9.277,0.000
1673805046.504,9.277,-16.113,-14.648,20.508,0.000
1673805046.508,-11.230,-20.020,-21.973,4.395,0.000
1673805046.512,-17.090,-18.555,-22.461,-0.488,0.000
1673805046.516,-8.789,-16.113,-13.672,15.137,0.000
1673805046.519,-15.625,-17.578,-15.625,16.113,0.000
1673805046.523,-19.043,-17.090,-18.066,4.395,0.000
1673805046.527,-15.137,-11.719,-13.672,20.508,0.000
1673805046.531,-15.625,-14.160,-14.160,29.785,0.000
1673805046.535,-10.742,-11.230,-18.555,12.207,0.000
1673805046.539,-10.742,-10.742,-21.973,8.789,0.000
1673805046.543,-8.789,-11.719,-19.531,13.672,0.000
1673805046.547,-0.488,-5.371,-12.695,10.254,0.000
1673805046.551,4.883,-6.836,-17.090,-4.883,0.000
1673805046.555,11.230,-13.184,-18.555,-1.465,0.000
1673805046.558,21.973,-9.766,-16.113,-6.836,0.000
1673805046.562,5.371,-13.184,-19.043,-18.066,0.000
1673805046.566,-16.113,-16.602,-18.066,-12.695,0.000
1673805046.570,-24.414,-21.973,-18.555,-14.648,0.000
1673805046.574,-26.855,-16.602,-18.066,-6.836,0.000
1673805046.578,-31.738,-8.789,-19.043,-5.371,0.000
1673805046.582,-28.320,-22.461,-22.949,-11.719,0.000
1673805046.586,-8.301,-18.555,-27.344,-9.766,0.000
1673805046.590,8.301,-2.930,-26.855,-1.953,0.000
1673805046.594,11.719,-10.742,-23.438,-2.930,0.000
1673805046.598,2.441,-17.090,-24.414,-11.230,0.000
1673805046.601,-1.465,-20.020,-27.344,-18.555,0.000
1673805046.605,5.371,-22.461,-19.043,-7.324,0.000
1673805046.609,-0.977,-17.578,-11.719,9.766,0.000
1673805046.613,-22.949,-13.672,-16.602,0.000,0.000
1673805046.617,-23.926,-14.648,-16.113,-5.859,0.000
1673805046.621,-17.578,-17.090,-16.602,-6.836,0.000
1673805046.625,-20.508,-14.648,-19.043,-3.906,0.000
1673805046.629,-13.672,-15.137,-18.555,4.395,0.000
1673805046.633,-4.883,-24.902,-18.555,8.789,0.000
1673805046.637,3.906,-20.996,-18.066,9.766,0.000
1673805046.641,2.441,-18.066,-24.414,3.418,0.000
1673805046.644,-14.648,-24.414,-28.320,-2.930,0.000
1673805046.648,-16.113,-20.020,-24.414,-14.648,0.000
1673805046.652,-9.766,-17.090,-26.367,-9.766,0.000
1673805046.656,-19.531,-19.531,-27.832,2.441,0.000
1673805046.660,-14.648,-20.508,-19.043,3.418,0.000
1673805046.664,-13.184,-16.602,-11.230,4.883,0.000
1673805046.668,-7.324,-20.020,-13.184,7.812,0.000
1673805046.672,-3.418,-17.578,-20.508,9.277,0.000
1673805046.676,-21.973,-13.672,-23.438,8.301,0.000
1673805046.680,-7.812,-22.461,-20.508,1.465,0.000
1673805046.683,13.672,-17.090,-19.531,-5.371,0.000
1673805046.687,14.648,-10.742,-18.066,-3.906,0.000
1673805046.691,-5.371,-13.672,-16.113,5.371,0.000
1673805046.695,-41.016,-20.020,-12.695,7.812,0.000
1673805046.699,-35.645,-14.648,-13.672,5.859,0.000
1673805046.703,-23.926,-13.672,-15.137,5.371,0.000
1673805046.707,-22.461,-23.438,-16.602,9.766,0.000
1673805046.711,-7.324,-22.461,-15.137,15.137,0.000
1673805046.715,-5.371,-14.648,-10.254,13.672,0.000
1673805046.719,-10.254,-16.113,-10.254,14.648,0.000
1673805046.723,4.395,-22.949,-13.672,16.602,0.000
1673805046.726,19.531,-25.391,-18.066,18.066,0.000
1673805046.730,14.648,-21.484,-22.949,20.508,0.000
1673805046.734,0.000,-14.160,-19.531,11.719,0.000
1673805046.738,-10.742,-11.230,-13.672,4.883,0.000
1673805046.742,-16.602,-11.719,-18.555,3.418,0.000
1673805046.746,-17.090,-21.484,-22.461,2.441,0.000
1673805046.750,-12.695,-31.250,-26.367,-1.465,0.000
1673805046.754,-8.789,-25.391,-26.367,-3.418,0.000
1673805046.758,6.836,-15.625,-21.484,-1.465,0.000
1673805046.762,6.836,-20.020,-21.973,-6.836,0.000
1673805046.766,-8.301,-23.926,-23.926,-7.324,0.000
1673805046.769,-5.859,-16.602,-19.531,-3.418,0.000
1673805046.773,-18.555,-23.926,-14.648,1.953,0.000
1673805046.777,-36.133,-26.855,-16.602,3.418,0.000
1673805046.781,-44.922,-22.461,-17.578,0.488,0.000
1673805046.785,-35.645,-20.508,-15.625,-0.488,0.000
1673805046.789,-21.484,-22.949,-19.043,0.000,0.000
1673805046.793,-22.949,-27.344,-21.973,-2.930,0.000
1673805046.797,-18.066,-25.879,-22.461,-5.371,0.000
1673805046.801,-9.277,-19.531,-19.043,-6.348,0.000
1673805046.805,-3.906,-15.625,-16.602,-2.441,0.000
1673805046.808,2.441,-12.695,-21.973,-4.883,0.000
1673805046.812,1.465,-9.766,-23.438,-7.324,0.000
1673805046.816,-4.883,-15.625,-21.973,-13.184,0.000
1673805046.820,-14.160,-21.484,-25.391,-10.742,0.000
1673805046.824,-18.066,-21.484,-24.902,-6.348,0.000
1673805046.828,-12.207,-20.020,-14.648,-4.395,0.000
1673805046.832,-15.625,-22.461,-11.230,0.488,0.000
1673805046.836,-21.973,-22.949,-20.020,-10.254,0.000
1673805046.840,-21.484,-16.602,-21.973,-11.719,0.000
1673805046.844,-6.348,-14.648,-17.578,-2.441,0.000
1673805046.848,-1.953,-16.113,-14.648,-13.184,0.000
1673805046.851,-20.020,-15.137,-14.648,-16.113,0.000
1673805046.855,-22.949,-18.555,-20.508,-6.836,0.000
1673805046.859,-14.160,-18.066,-24.902,-4.883,0.000
1673805046.863,-17.578,-10.254,-23.926,-5.371,0.000
1673805046.867,-8.301,-6.836,-23.438,-12.207,0.000
1673805046.871,8.301,-15.137,-23.438,-14.160,0.000
1673805046.875,-1.465,-21.484,-16.602,-10.254,0.000
1673805046.879,-3.906,-15.137,-13.184,-7.324,0.000
1673805046.883,15.137,-11.230,-20.020,-8.789,0.000
1673805046.887,12.207,-18.066,-23.926,-12.695,0.000
1673805046.891,-3.418,-21.973,-24.902,-9.766,0.000
1673805046.894,-13.672,-22.949,-29.297,-5.371,0.000
1673805046.898,-16.113,-15.625,-25.879,-0.977,0.000
1673805046.902,-25.391,-12.695,-19.531,5.859,0.000
1673805046.906,-19.043,-20.020,-17.090,15.137,0.000
1673805046.910,-2.930,-25.879,-18.066,10.254,0.000
1673805046.914,4.883,-24.414,-21.484,-4.883,0.000
1673805046.918,9.766,-17.578,-28.809,-10.742,0.000
1673805046.922,-2.441,-12.695,-22.461,-4.395,0.000
1673805046.926,-8.301,-7.812,-17.578,7.812,0.000
1673805046.930,0.977,-10.254,-15.137,3.906,0.000
1673805046.933,-2.441,-12.207,-9.277,-11.719,0.000
1673805046.937,-2.930,-12.207,-10.742,-9.766,0.000
1673805046.941,-3.906,-20.508,-17.578,0.977,0.000
1673805046.945,-13.672,-27.832,-20.020,-6.348,0.000
1673805046.949,-4.883,-17.090,-18.555,-7.812,0.000
1673805046.953,6.348,-12.695,-19.531,-7.324,0.000
1673805046.957,8.789,-23.438,-26.855,-7.812,0.000
1673805046.961,0.977,-26.367,-25.391,-4.883,0.000
1673805046.965,7.324,-20.996,-16.602,-1.465,0.000
1673805046.969,14.648,-14.160,-17.090,-6.836,0.000
1673805046.973,-7.812,-18.066,-24.414,-12.207,0.000
1673805046.976,-14.648,-18.555,-21.973,-14.648,0.000
1673805046.980,1.953,-19.043,-20.020,-17.090,0.000
1673805046.984,-0.488,-20.508,-22.461,-11.230,0.000
1673805046.988,-17.578,-33.691,-24.414,-4.883,0.000
1673805046.992,-25.879,-28.809,-30.273,0.000,0.000
1673805046.996,-20.508,-18.555,-36.133,-4.883,0.000
1673805047.000,-8.789,-24.902,-28.320,-13.184,0.000
1673805047.004,-10.254,-21.484,-22.949,-14.648,0.000
1673805047.008,-29.297,-18.066,-28.809,-4.395,0.000
1673805047.012,-10.742,-14.648,-21.484,8.301,0.000
1673805047.016,9.766,-18.555,-20.996,-0.488,0.000
1673805047.019,-12.207,-22.949,-26.367,-6.348,0.000
1673805047.023,-20.020,-24.414,-24.414,0.000,0.000
1673805047.027,-20.020,-29.297,-19.043,2.930,0.000
1673805047.031,-22.949,-26.855,-19.043,-1.953,0.000
1673805047.035,-10.742,-18.555,-20.508,-1.953,0.000
1673805047.039,-3.906,-17.090,-17.578,3.906,0.000
1673805047.043,-4.883,-25.879,-17.090,10.254,0.000
1673805047.047,-10.254,-27.344,-17.578,14.160,0.000
1673805047.051,-17.090,-20.020,-17.090,6.348,0.000
1673805047.055,-5.859,-20.020,-16.113,1.953,0.000
1673805047.058,16.113,-20.020,-15.137,7.324,0.000
1673805047.062,19.043,-19.531,-15.137,-0.488,0.000
1673805047.066,5.859,-20.508,-17.578,-13.672,0.000
1673805047.070,-10.254,-25.391,-11.719,-1.953,0.000
1673805047.074,-15.625,-15.137,-14.648,4.395,0.000
1673805047.078,-17.578,-7.324,-23.438,-9.277,0.000
1673805047.082,-16.113,-11.719,-23.926,-11.719,0.000
1673805047.086,-5.371,-16.113,-18.555,-13.184,0.000
1673805047.090,4.395,-8.301,-17.578,-13.672,0.000
1673805047.094,7.812,-7.324,-24.414,-14.160,0.000
1673805047.098,7.324,-20.020,-27.344,-11.719,0.000
1673805047.101,10.742,-17.578,-22.949,-7.324,0.000
1673805047.105,3.418,-12.695,-21.484,-5.859,0.000
1673805047.109,-26.367,-20.508,-21.973,0.488,0.000
1673805047.113,-30.762,-23.926,-18.066,4.883,0.000
1673805047.117,-10.742,-12.695,-13.672,4.883,0.000
1673805047.121,-3.906,-14.160,-18.555,-3.906,0.000
1673805047.125,5.859,-16.602,-20.996,-4.883,0.000
1673805047.129,17.090,-8.301,-13.184,0.000,0.000
1673805047.133,7.812,-12.695,-13.672,-13.672,0.000
1673805047.137,-6.348,-14.160,-16.602,-12.207,0.000
1673805047.141,-7.324,-14.648,-9.766,7.324,0.000
1673805047.144,-0.977,-18.555,-12.695,1.465,0.000
1673805047.148,-11.719,-19.531,-20.508,-11.230,0.000
1673805047.152,-24.414,-22.461,-15.625,-10.742,0.000
1673805047.156,-20.996,-22.949,-16.113,-5.859,0.000
1673805047.160,-19.043,-28.809,-22.461,-1.465,0.000
1673805047.164,-12.695,-27.344,-20.996,0.488,0.000
1673805047.168,-4.883,-21.973,-19.531,-3.418,0.000
1673805047.172,-15.137,-21.484,-19.531,-8.789,0.000
1673805047.176,-19.531,-19.043,-12.207,-18.555,0.000
1673805047.180,-8.789,-21.973,-8.301,-16.113,0.000
1673805047.183,-4.395,-17.090,-18.066,-20.508,0.000
1673805047.187,6.348,-0.977,-19.043,-17.578,0.000
1673805047.191,9.277,5.371,-12.695,-4.395,0.000
1673805047.195,-7.324,-2.930,-14.160,0.488,0.000
1673805047.199,-16.113,-15.137,-14.648,2.930,0.000
1673805047.203,-13.672,-19.043,-18.066,-6.348,0.000
1673805047.207,3.418,-7.812,-12.207,6.348,0.000
1673805047.211,16.113,-10.742,-11.230,8.301,0.000
1673805047.215,15.625,-21.973,-20.508,-8.301,0.000
1673805047.219,7.812,-24.902,-24.414,-12.207,0.000
1673805047.223,8.301,-13.184,-20.020,-12.695,0.000
1673805047.226,9.277,-0.977,-20.508,-1.465,0.000
1673805047.230,22.949,0.000,-18.066,3.418,0.000
1673805047.234,39.551,8.789,-9.766,0.488,0.000
1673805047.238,24.902,7.324,-6.348,3.418,0.000
1673805047.242,6.348,-2.930,-9.766,4.883,0.000
1673805047.246,-4.883,-8.301,-8.789,5.859,0.000
1673805047.250,-1.465,-14.648,-2.441,6.836,0.000
1673805047.254,-0.488,-20.508,-3.418,15.625,0.000
1673805047.258,-18.066,-15.137,-9.766,8.301,0.000
1673805047.262,-22.949,-6.348,-17.090,-15.137,0.000
1673805047.266,-10.742,0.977,-17.090,-11.719,0.000
1673805047.269,0.488,0.488,-15.625,11.719,0.000
1673805047.273,1.465,-10.254,-12.695,13.672,0.000
1673805047.277,1.465,-10.254,-2.441,18.555,0.000
1673805047.281,1.953,-4.395,1.953,20.508,0.000
1673805047.285,9.766,-1.465,-3.418,4.395,0.000
1673805047.289,14.160,-13.184,-8.301,6.348,0.000
1673805047.293,23.926,-14.648,-6.836,18.066,0.000
1673805047.297,27.832,-8.301,-1.465,18.555,0.000
1673805047.301,17.090,-7.324,-3.906,12.207,0.000
1673805047.305,11.719,-7.812,-10.254,6.836,0.000
1673805047.308,10.742,-6.348,-6.348,17.090,0.000
1673805047.312,19.043,-7.324,-3.418,17.090,0.000
1673805047.316,27.344,-9.277,-6.348,7.324,0.000
1673805047.320,30.762,-11.230,-10.742,0.977,0.000
1673805047.324,15.137,-20.020,-12.207,8.789,0.000
1673805047.328,3.906,-20.020,-13.184,7.324,0.000
1673805047.332,3.418,-13.672,-12.695,-2.930,0.000
1673805047.336,-8.789,-13.184,-11.230,2.441,0.000
1673805047.340,-4.395,-10.742,-13.184,6.348,0.000
1673805047.344,6.348,-9.277,-12.695,1.465,0.000
1673805047.348,7.324,-17.090,-16.113,-12.207,0.000
1673805047.351,2.930,-20.996,-20.020,-23.926,0.000
1673805047.355,-5.859,-22.461,-20.996,-25.391,0.000
1673805047.359,-18.066,-21.973,-20.996,-13.184,0.000
1673805047.363,-18.555,-20.996,-21.973,-8.301,0.000
1673805047.367,-31.738,-21.973,-20.996,-8.789,0.000
1673805047.371,-37.598,-20.508,-13.672,0.488,0.000
1673805047.375,-24.902,-14.160,-9.277,-0.488,0.000
1673805047.379,-26.367,-20.508,-12.695,-12.695,0.000
1673805047.383,-16.602,-28.809,-18.066,-14.648,0.000
1673805047.387,-2.441,-12.695,-17.090,-3.418,0.000
1673805047.391,-6.836,-11.719,-15.625,-1.465,0.000
1673805047.394,-13.184,-15.137,-13.184,-0.488,0.000
1673805047.398,-2.441,-9.766,-9.766,0.488,0.000
1673805047.402,-0.488,-10.742,-5.859,11.719,0.000
1673805047.406,-6.348,-16.602,-9.766,7.812,0.000
1673805047.410,-3.906,-11.230,-20.508,0.977,0.000
1673805047.414,-0.488,-12.695,-27.344,-1.465,0.000
1673805047.418,-3.418,-19.531,-24.414,-10.254,0.000
1673805047.422,-18.066,-20.996,-19.043,-4.395,0.000
1673805047.426,-10.254,-14.648,-16.113,-2.441,0.000
1673805047.430,0.977,-9.766,-13.672,-7.324,0.000
1673805047.433,-2.930,-16.602,-13.184,-7.324,0.000
1673805047.437,3.906,-23.926,-20.020,-2.930,0.000
1673805047.441,18.066,-20.996,-17.090,5.859,0.000
1673805047.445,11.230,-8.301,-5.859,7.324,0.000
1673805047.449,5.371,-1.953,-7.324,13.184,0.000
1673805047.453,1.953,-1.465,-13.672,14.160,0.000
1673805047.457,-4.395,-4.395,-14.648,9.277,0.000
1673805047.461,3.906,-10.254,-15.625,9.277,0.000
1673805047.465,1.465,-16.113,-16.602,8.301,0.000
1673805047.469,3.418,-17.090,-16.113,7.324,0.000
1673805047.473,-2.441,-21.484,-18.555,4.395,0.000
1673805047.476,-5.859,-24.902,-20.508,-9.766,0.000
1673805047.480,-2.441,-18.555,-25.391,-15.137,0.000
1673805047.484,-7.324,-20.508,-26.367,-11.719,0.000
1673805047.488,-0.488,-25.879,-22.461,-5.371,0.000
1673805047.492,-5.371,-22.949,-22.461,-4.883,0.000
1673805047.496,-17.090,-23.438,-22.461,-10.742,0.000
1673805047.500,-19.531,-24.902,-19.531,-2.930,0.000
1673805047.504,-32.715,-22.461,-20.020,-1.465,0.000
1673805047.508,-31.250,-17.578,-23.438,-8.301,0.000
1673805047.512,-27.832,-16.602,-23.926,-6.348,0.000
1673805047.516,-36.621,-20.996,-20.996,-11.230,0.000
1673805047.519,-26.855,-23.926,-23.926,-25.391,0.000
1673805047.523,-18.066,-12.207,-23.926,-14.648,0.000
1673805047.527,-14.648,-10.254,-19.043,-3.906,0.000
1673805047.531,-18.066,-20.020,-24.414,-15.625,0.000
1673805047.535,-25.879,-17.090,-24.414,-10.254,0.000
1673805047.539,-30.273,-15.137,-21.973,1.953,0.000
1673805047.543,-27.344,-19.531,-26.367,0.488,0.000
1673805047.547,-10.254,-18.066,-23.926,7.812,0.000
1673805047.551,-10.254,-14.648,-19.043,7.812,0.000
1673805047.555,-14.648,-17.578,-21.973,0.488,0.000
1673805047.559,-8.789,-19.531,-23.438,7.324,0.000
1673805047.562,-10.254,-22.949,-20.508,11.230,0.000
1673805047.566,-0.977,-17.578,-20.508,0.000,0.000
1673805047.570,8.301,-11.230,-22.949,-10.742,0.000
1673805047.574,-3.906,-17.578,-21.484,-5.859,0.000
1673805047.578,-9.277,-19.531,-20.996,-2.441,0.000
1673805047.582,-7.812,-16.113,-14.160,-2.930,0.000
1673805047.586,-13.184,-18.555,-14.648,-7.812,0.000
1673805047.590,-4.883,-6.836,-17.090,-4.883,0.000
1673805047.594,0.977,-3.906,-8.301,5.859,0.000
1673805047.598,-0.977,-17.090,-9.766,-1.465,0.000
1673805047.601,0.000,-10.254,-16.113,-15.137,0.000
1673805047.605,-10.742,-3.906,-13.184,-8.789,0.000
1673805047.609,-15.625,-14.648,-12.695,-4.395,0.000
1673805047.613,-6.348,-11.230,-11.230,-2.441,0.000
1673805047.617,-1.465,-17.578,-10.742,2.930,0.000
1673805047.621,10.742,-22.461,-17.090,-2.930,0.000
1673805047.625,13.184,-18.555,-21.973,-1.953,0.000
1673805047.629,-3.418,-19.531,-13.672,5.859,0.000
1673805047.633,-7.812,-15.625,-6.836,-4.395,0.000
1673805047.637,-5.371,-18.066,-5.371,-9.766,0.000
1673805047.641,-1.953,-20.996,-1.953,4.395,0.000
1673805047.644,-12.695,-23.438,-5.859,8.301,0.000
1673805047.648,-16.113,-16.602,-16.113,1.465,0.000
1673805047.652,-3.418,-19.531,-21.973,1.953,0.000
1673805047.656,6.348,-17.578,-21.484,8.301,0.000
1673805047.660,-10.254,-17.578,-20.996,12.207,0.000
1673805047.664,-31.738,-27.344,-20.020,-2.930,0.000
1673805047.668,-29.297,-17.578,-19.043,-17.090,0.000
1673805047.672,-13.184,-10.742,-19.043,-6.836,0.000
1673805047.676,-0.488,-13.184,-16.602,3.418,0.000
1673805047.680,-20.508,-25.391,-21.484,-7.812,0.000
1673805047.683,-14.648,-22.949,-24.902,-20.996,0.000
1673805047.687,-4.395,-4.395,-21.484,-18.066,0.000
1673805047.691,-19.531,-3.906,-23.926,-13.672,0.000
1673805047.695,-13.184,-13.672,-23.438,-17.578,0.000
1673805047.699,2.441,-18.555,-23.926,-20.020,0.000
1673805047.703,6.836,-30.273,-25.879,-19.043,0.000
1673805047.707,-14.160,-29.785,-20.020,-7.324,0.000
1673805047.711,-41.504,-12.695,-17.578,10.254,0.000
1673805047.715,-35.156,-7.324,-19.531,6.836,0.000
1673805047.719,-20.996,-10.742,-18.066,-0.977,0.000
1673805047.723,-15.137,-14.160,-22.461,-0.488,0.000
1673805047.726,-20.996,-15.625,-22.461,1.465,0.000
1673805047.730,-18.066,-12.695,-17.578,3.418,0.000
1673805047.734,-10.254,-12.207,-17.090,4.395,0.000
1673805047.738,-12.207,-25.391,-20.508,-2.441,0.000
1673805047.742,-15.625,-27.832,-18.066,0.000,0.000
1673805047.746,-23.438,-25.879,-16.113,11.719,0.000
1673805047.750,-22.949,-29.785,-16.113,1.953,0.000
1673805047.754,-16.113,-30.273,-22.949,-4.883,0.000
1673805047.758,-11.719,-21.484,-31.738,6.348,0.000
1673805047.762,-10.742,-8.789,-17.090,11.719,0.000
1673805047.766,-10.742,-4.395,-7.324,-1.953,0.000
1673805047.769,-7.324,-10.254,-13.184,-1.953,0.000
1673805047.773,-30.273,-12.695,-8.301,14.160,0.000
1673805047.777,-41.016,-8.301,-0.977,15.625,0.000
1673805047.781,-20.996,-18.066,-7.324,14.160,0.000
1673805047.785,-16.113,-26.855,-15.625,9.766,0.000
1673805047.789,-18.555,-27.344,-20.508,-3.906,0.000
1673805047.793,-8.301,-25.879,-17.578,0.488,0.000
1673805047.797,-11.230,-15.625,-15.625,5.371,0.000
1673805047.801,-34.180,-2.441,-16.113,-1.465,0.000
1673805047.805,-37.598,-3.906,-20.020,-10.254,0.000
1673805047.809,-18.555,-16.113,-23.438,-8.789,0.000
1673805047.812,-8.301,-21.484,-24.902,-7.324,0.000
1673805047.816,-4.395,-15.137,-20.020,-14.648,0.000
1673805047.820,-24.414,-20.996,-15.625,-5.371,0.000
1673805047.824,-36.133,-29.297,-17.090,0.488,0.000
1673805047.828,-22.949,-22.461,-16.602,-11.230,0.000
1673805047.832,-17.090,-18.555,-18.555,-9.766,0.000
1673805047.836,-1.953,-13.672,-18.555,0.977,0.000
1673805047.840,-3.418,-18.066,-20.996,1.953,0.000
1673805047.844,-19.043,-30.762,-25.391,-1.953,0.000
1673805047.848,-14.160,-20.020,-23.926,-5.371,0.000
1673805047.851,-5.859,-14.648,-21.973,-13.672,0.000
1673805047.855,-5.371,-21.484,-18.555,-9.766,0.000
1673805047.859,-30.762,-22.949,-21.484,-6.836,0.000
1673805047.863,-40.527,-28.320,-19.531,-14.160,0.000
1673805047.867,-20.508,-25.391,-18.555,-13.672,0.000
1673805047.871,-19.043,-23.926,-19.043,-7.324,0.000
1673805047.875,-22.461,-17.578,-14.648,0.977,0.000
1673805047.879,-22.949,-6.348,-17.090,-4.883,0.000
1673805047.883,-20.996,-8.789,-15.137,-10.254,0.000
1673805047.887,-19.043,-11.230,-16.113,-15.625,0.000
1673805047.891,-20.996,-10.254,-18.066,-14.648,0.000
1673805047.894,-15.625,-10.742,-20.020,-5.371,0.000
1673805047.898,-14.160,-12.207,-18.066,-8.789,0.000
1673805047.902,-25.391,-13.184,-21.973,-19.043,0.000
1673805047.906,-31.738,-3.906,-27.344,-19.043,0.000
1673805047.910,-37.109,-10.742,-24.902,-7.324,0.000
1673805047.914,-31.250,-16.113,-23.438,-11.719,0.000
1673805047.918,-22.949,-24.902,-25.879,-27.344,0.000
1673805047.922,-22.461,-26.855,-22.949,-24.902,0.000
1673805047.926,-21.973,-15.137,-20.020,-6.348,0.000
1673805047.930,-26.367,-6.348,-23.926,-4.395,0.000
1673805047.934,-30.762,-8.789,-23.438,-10.254,0.000
1673805047.937,-31.738,-17.578,-24.902,-11.719,0.000
1673805047.941,-33.691,-20.508,-29.297,-13.672,0.000
1673805047.945,-34.180,-17.090,-29.297,-16.602,0.000
1673805047.949,-26.367,-11.230,-28.809,-16.113,0.000
1673805047.953,-20.508,-20.996,-35.645,-12.695,0.000
1673805047.957,-9.766,-23.926,-40.039,-9.277,0.000
1673805047.961,-16.113,-15.625,-31.738,-4.395,0.000
1673805047.965,-31.250,-18.555,-26.855,-5.859,0.000
1673805047.969,-21.973,-13.672,-32.715,-8.789,0.000
1673805047.973,-22.461,-7.812,-29.297,-5.371,0.000
1673805047.976,-36.133,-11.230,-25.391,-8.789,0.000
1673805047.980,-35.645,-16.602,-24.902,-9.766,0.000
1673805047.984,-29.297,-15.137,-20.996,-5.371,0.000
1673805047.988,-33.203,-12.207,-22.461,-4.395,0.000
1673805047.992,-31.250,-19.043,-30.273,-5.859,0.000
1673805047.996,-18.066,-20.996,-33.203,-6.836,0.000
1673805048.000,-10.254,-19.043,-31.738,-13.184,0.000
1673805048.004,-13.184,-19.043,-30.273,-21.973,0.000
1673805048.008,-6.348,-17.090,-25.879,-21.973,0.000
1673805048.012,6.836,-16.602,-23.438,-16.113,0.000
1673805048.016,-12.207,-16.113,-24.902,-3.418,0.000
1673805048.019,-29.297,-30.273,-27.832,-5.859,0.000
1673805048.023,-36.133,-28.320,-23.438,-12.207,0.000
1673805048.027,-46.387,-19.531,-21.973,-11.719,0.000
1673805048.031,-46.387,-23.926,-20.508,-21.484,0.000
1673805048.035,-45.410,-23.438,-18.555,-30.762,0.000
1673805048.039,-38.086,-20.508,-17.090,-23.438,0.000
1673805048.043,-31.738,-26.367,-16.113,-10.254,0.000
1673805048.047,-15.625,-23.926,-17.578,-10.742,0.000
1673805048.051,-14.648,-26.367,-20.996,-20.996,0.000
1673805048.055,-25.879,-40.527,-17.578,-17.578,0.000
1673805048.059,-23.438,-45.410,-11.719,-10.742,0.000
1673805048.062,-17.090,-29.297,-11.230,-3.906,0.000
1673805048.066,-24.414,-24.414,-16.602,-5.371,0.000
1673805048.070,-22.461,-29.785,-23.926,-4.883,0.000
1673805048.074,-16.113,-34.668,-23.438,-7.812,0.000
1673805048.078,-8.301,-36.133,-22.949,-9.277,0.000
1673805048.082,3.418,-17.090,-33.203,-4.395,0.000
1673805048.086,-8.301,-9.277,-23.438,-0.488,0.000
1673805048.090,-17.090,-16.113,-9.277,0.000,0.000
1673805048.094,-24.414,-23.926,-16.113,-10.742,0.000
1673805048.098,-20.020,-18.066,-19.531,-9.277,0.000
1673805048.101,-10.742,-18.066,-12.207,-9.277,0.000
1673805048.105,-14.648,-33.203,-14.160,-12.207,0.000
1673805048.109,-25.879,-32.227,-23.926,-20.020,0.000
1673805048.113,-36.621,-24.902,-25.391,-19.531,0.000
1673805048.117,-29.297,-26.367,-23.926,-15.137,0.000
1673805048.121,-20.020,-26.855,-23.438,-11.230,0.000
1673805048.125,-19.043,-29.297,-24.414,-11.230,0.000
1673805048.129,-21.973,-37.598,-30.273,-22.461,0.000
1673805048.133,-35.645,-30.762,-30.273,-32.227,0.000
1673805048.137,-42.480,-29.785,-21.973,-31.250,0.000
1673805048.141,-45.898,-35.156,-19.043,-25.391,0.000
1673805048.144,-47.852,-28.809,-18.066,-27.832,0.000
1673805048.148,-47.852,-22.949,-25.391,-28.809,0.000
1673805048.152,-49.316,-21.484,-29.785,-17.578,0.000
1673805048.156,-34.180,-16.602,-20.996,-16.113,0.000
1673805048.160,-17.090,-16.113,-20.508,-20.020,0.000
1673805048.164,-15.137,-19.043,-29.785,-14.160,0.000
1673805048.168,-11.719,-16.113,-27.344,-11.230,0.000
1673805048.172,2.930,-12.695,-23.438,-9.766,0.000
1673805048.176,4.883,-16.602,-17.090,-9.766,0.000
1673805048.180,0.000,-13.184,-14.648,-0.977,0.000
1673805048.184,9.277,-3.906,-13.184,5.371,0.000
1673805048.187,12.207,-4.395,-5.371,0.977,0.000
1673805048.191,4.395,-13.184,-13.184,6.836,0.000
1673805048.195,13.672,-19.531,-18.066,8.789,0.000
1673805048.199,16.113,-13.672,-4.395,0.488,0.000
1673805048.203,7.324,-7.812,-4.395,0.000,0.000
1673805048.207,-19.043,-7.324,-10.254,14.160,0.000
1673805048.211,-24.902,-8.789,-6.348,8.789,0.000
1673805048.215,-15.625,-16.602,-2.930,-4.395,0.000
1673805048.219,-18.066,-18.066,-6.348,-12.695,0.000
1673805048.223,-17.578,-8.789,-13.672,-5.371,0.000
1673805048.226,-24.414,-9.277,-19.043,2.930,0.000
1673805048.230,-20.508,-17.090,-14.160,-1.953,0.000
1673805048.234,-14.160,-24.902,-9.277,-8.301,0.000
1673805048.238,-33.203,-28.320,-20.996,-6.836,0.000
1673805048.242,-27.832,-18.066,-28.320,5.859,0.000
1673805048.246,-28.809,-12.695,-11.719,5.859,0.000
1673805048.250,-43.457,-15.625,-8.301,-12.207,0.000
1673805048.254,-29.785,-15.137,-13.184,-17.578,0.000
1673805048.258,-30.273,-8.789,-14.160,-7.324,0.000
1673805048.262,-28.809,-7.812,-27.832,1.953,0.000
1673805048.266,-16.602,-22.949,-20.508,1.953,0.000
1673805048.269,-13.184,-25.391,-13.184,0.000,0.000
1673805048.273,-13.672,-9.766,-7.324,-1.953,0.000
1673805048.277,-25.391,-0.977,-1.953,-5.859,0.000
1673805048.281,-32.227,-6.348,-5.859,-5.371,0.000
1673805048.285,-17.090,-14.648,-10.254,-7.812,0.000
1673805048.289,-5.859,-17.578,-13.672,-2.441,0.000
1673805048.293,-8.301,-8.789,-20.508,-6.836,0.000
1673805048.297,-13.672,-5.371,-16.113,-13.672,0.000
1673805048.301,-28.320,-14.160,-10.742,-15.625,0.000
1673805048.305,-21.973,-23.926,-14.648,-20.996,0.000
1673805048.309,-13.184,-21.973,-14.648,-19.531,0.000
1673805048.312,-20.020,-17.090,-14.160,-14.648,0.000
1673805048.316,-7.324,-22.949,-12.695,-5.371,0.000
1673805048.320,0.488,-18.555,-17.090,-9.766,0.000
1673805048.324,-34.180,-17.090,-22.949,-9.766,0.000
1673805048.328,-50.293,-20.020,-21.973,-0.977,0.000
1673805048.332,-24.902,-12.207,-22.461,11.230,0.000
1673805048.336,2.930,-5.859,-21.973,15.137,0.000
1673805048.340,6.836,-6.836,-20.020,9.277,0.000
1673805048.344,-23.926,-11.719,-20.996,6.836,0.000
1673805048.348,-41.504,-11.230,-18.066,7.324,0.000
1673805048.351,-30.273,-17.090,-18.066,6.836,0.000
1673805048.355,-26.367,-22.461,-21.484,13.672,0.000
1673805048.359,-24.902,-19.043,-14.648,20.996,0.000
1673805048.363,-17.090,-16.113,-17.578,16.113,0.000
1673805048.367,-17.578,-18.066,-23.926,1.465,0.000
1673805048.371,-10.742,-20.996,-15.625,-10.254,0.000
1673805048.375,-11.719,-12.207,-11.230,0.977,0.000
1673805048.379,-16.602,-15.625,-23.926,7.324,0.000
1673805048.383,-8.301,-26.855,-30.273,-9.277,0.000
1673805048.387,-6.836,-19.531,-26.367,-17.578,0.000
1673805048.391,-8.301,-11.230,-30.762,-13.672,0.000
1673805048.394,-8.301,-14.160,-32.715,-14.648,0.000
1673805048.398,-8.789,-16.113,-21.973,-10.742,0.000
1673805048.402,-16.602,-27.344,-17.090,-8.301,0.000
1673805048.406,-20.508,-27.832,-22.949,-6.348,0.000
1673805048.410,-36.133,-17.090,-26.367,-6.348,0.000
1673805048.414,-45.410,-17.090,-21.973,-17.090,0.000
1673805048.418,-21.484,-16.113,-19.531,-16.113,0.000
1673805048.422,-1.465,-17.578,-25.879,-5.371,0.000
1673805048.426,-4.395,-15.137,-24.414,3.906,0.000
1673805048.430,-23.438,-11.719,-18.555,3.418,0.000
1673805048.434,-34.668,-12.207,-19.043,-8.789,0.000
1673805048.437,-31.738,-19.531,-21.973,-7.812,0.000
1673805048.441,-11.719,-19.531,-16.113,2.930,0.000
1673805048.445,-9.766,-21.484,-13.184,1.953,0.000
1673805048.449,-19.043,-14.648,-14.648,-0.488,0.000
1673805048.453,-19.531,-9.277,-14.648,5.371,0.000
1673805048.457,-8.789,-19.531,-11.719,8.789,0.000
1673805048.461,-15.137,-20.020,-11.230,8.301,0.000
1673805048.465,-46.387,-17.578,-16.113,2.930,0.000
1673805048.469,-47.852,-13.184,-10.254,6.836,0.000
1673805048.473,-25.879,-8.301,-8.789,-2.930,0.000
1673805048.476,-13.184,-15.625,-16.602,-1.465,0.000
1673805048.480,-17.578,-19.531,-14.160,0.977,0.000
1673805048.484,-12.207,-19.531,-11.719,-15.137,0.000
1673805048.488,-10.254,-20.020,-24.414,-18.555,0.000
1673805048.492,-25.879,-25.879,-31.250,-7.324,0.000
1673805048.496,-18.066,-20.508,-15.625,-6.348,0.000
1673805048.500,-8.789,-3.906,-10.254,-11.719,0.000
1673805048.504,-8.789,-3.906,-9.277,-8.301,0.000
1673805048.508,-13.672,-4.395,-1.465,-1.465,0.000
1673805048.512,-27.344,-2.930,1.953,6.836,0.000
1673805048.516,-28.809,-14.648,1.953,11.230,0.000
1673805048.519,-28.809,-26.855,-3.906,4.883,0.000
1673805048.523,-27.832,-20.020,-5.859,2.930,0.000
1673805048.527,-12.207,-12.207,-0.488,17.090,0.000
1673805048.531,3.906,-11.230,2.441,14.648,0.000
1673805048.535,16.602,-11.719,-2.930,8.301,0.000
1673805048.539,6.836,-10.254,-10.254,14.648,0.000
1673805048.543,-14.648,-15.625,-18.066,7.324,0.000
1673805048.547,-24.902,-20.508,-26.367,-9.766,0.000
1673805048.551,-22.949,-15.137,-20.996,-11.230,0.000
1673805048.555,-24.414,-9.766,-12.207,4.883,0.000
1673805048.559,-38.574,-11.230,-12.207,22.461,0.000
1673805048.562,-39.551,-20.996,-19.043,17.090,0.000
1673805048.566,-31.250,-21.973,-25.391,-1.953,0.000
1673805048.570,-33.203,-26.855,-19.531,-6.836,0.000
1673805048.574,-32.227,-32.715,-25.391,-1.465,0.000
1673805048.578,-18.555,-17.090,-36.133,-13.184,0.000
1673805048.582,-14.648,-6.836,-28.320,-25.879,0.000
1673805048.586,-12.207,-8.301,-20.996,-16.602,0.000
1673805048.590,-1.465,-13.184,-23.926,-8.789,0.000
1673805048.594,-19.043,-22.461,-22.461,-16.602,0.000
1673805048.598,-40.039,-27.344,-23.438,-12.207,0.000
1673805048.601,-32.715,-25.879,-30.762,-8.789,0.000
1673805048.605,-40.527,-15.625,-29.785,-17.578,0.000
1673805048.609,-38.574,-12.207,-19.043,-16.602,0.000
1673805048.613,-23.926,-18.066,-16.113,-17.090,0.000
1673805048.617,-21.484,-19.531,-21.484,-14.160,0.000
1673805048.621,-22.461,-18.066,-20.020,-17.090,0.000
1673805048.625,-16.602,-17.578,-20.020,-14.648,0.000
1673805048.629,-16.602,-32.715,-24.902,-6.836,0.000
1673805048.633,-18.066,-46.387,-24.902,-6.348,0.000
1673805048.637,-15.137,-34.668,-19.531,-8.789,0.000
1673805048.641,-18.555,-22.949,-26.367,-12.695,0.000
1673805048.644,-9.277,-24.902,-32.227,-11.230,0.000
1673805048.648,-5.371,-26.367,-24.414,-10.254,0.000
1673805048.652,-19.531,-21.484,-15.137,-14.648,0.000
1673805048.656,-27.832,-22.949,-12.695,-18.066,0.000
1673805048.660,-30.273,-19.043,-10.254,-3.906,0.000
1673805048.664,-34.668,-18.066,-15.625,-3.906,0.000
1673805048.668,-33.203,-26.855,-24.414,-21.484,0.000
1673805048.672,-10.742,-22.461,-21.484,-17.578,0.000
1673805048.676,-6.348,-14.648,-20.508,-8.301,0.000
1673805048.680,-42.480,-11.230,-21.484,-10.742,0.000
1673805048.684,-42.969,-21.484,-19.043,-15.137,0.000
1673805048.687,-25.391,-21.484,-24.902,-9.766,0.000
1673805048.691,-25.879,-10.742,-25.879,1.465,0.000
1673805048.695,-27.344,-16.113,-23.926,5.859,0.000
1673805048.699,-31.250,-23.438,-20.020,6.836,0.000
1673805048.703,-20.508,-24.902,-13.184,4.395,0.000
1673805048.707,0.000,-14.648,-10.254,9.766,0.000
1673805048.711,-4.883,-17.090,-13.184,12.695,0.000
1673805048.715,-10.254,-24.902,-16.602,7.324,0.000
1673805048.719,-11.719,-22.461,-19.043,10.254,0.000
1673805048.723,-5.371,-20.996,-25.879,16.602,0.000
1673805048.726,6.348,-16.602,-22.461,20.508,0.000
1673805048.730,7.812,-13.184,-22.949,16.113,0.000
1673805048.734,2.930,-13.184,-21.973,5.371,0.000
1673805048.738,-15.137,-9.277,-15.137,2.441,0.000
1673805048.742,-26.367,-11.230,-14.648,11.719,0.000
1673805048.746,-7.812,-11.719,-17.090,7.812,0.000
1673805048.750,0.977,-5.859,-16.602,-1.465,0.000
1673805048.754,-10.254,-14.160,-17.090,8.301,0.000
1673805048.758,-20.508,-14.160,-23.926,2.441,0.000
1673805048.762,-11.230,-9.277,-23.926,-5.859,0.000
1673805048.766,-34.180,-23.438,-24.414,-9.277,0.000
1673805048.769,-42.480,-32.227,-26.855,-7.324,0.000
1673805048.773,-25.391,-26.855,-21.973,-10.254,0.000
1673805048.777,-37.109,-24.902,-32.715,-16.113,0.000
1673805048.781,-38.574,-22.949,-38.574,-12.695,0.000
1673805048.785,-31.250,-16.602,-27.344,-14.648,0.000
1673805048.789,-24.902,-17.578,-19.531,-12.207,0.000
1673805048.793,-22.461,-15.137,-21.484,-5.371,0.000
1673805048.797,-27.832,-9.766,-26.367,-2.441,0.000
1673805048.801,-20.996,-16.602,-26.855,-2.930,0.000
1673805048.805,-9.766,-19.531,-27.344,-2.441,0.000
1673805048.809,2.441,-8.301,-27.344,0.977,0.000
1673805048.812,-1.953,-12.695,-35.156,0.488,0.000
1673805048.816,-29.297,-22.949,-39.551,-2.930,0.000
1673805048.820,-27.344,-28.320,-35.156,-7.324,0.000
1673805048.824,-4.883,-28.809,-30.273,0.000,0.000
1673805048.828,-17.578,-20.020,-20.996,5.859,0.000
1673805048.832,-33.691,-10.742,-21.973,-5.371,0.000
1673805048.836,-23.438,-7.324,-21.973,-15.137,0.000
1673805048.840,-15.625,-13.672,-12.695,-1.953,0.000
1673805048.844,-16.113,-18.555,-11.719,0.977,0.000
1673805048.848,-20.020,-32.715,-25.879,-16.602,0.000
1673805048.851,-21.484,-35.156,-25.391,-10.254,0.000
1673805048.855,-23.926,-27.344,-23.926,8.301,0.000
1673805048.859,-31.738,-23.438,-26.367,8.789,0.000
1673805048.863,-28.320,-30.273,-22.949,2.441,0.000
1673805048.867,-11.230,-39.551,-23.438,-4.883,0.000
1673805048.871,-3.418,-34.180,-19.531,-10.254,0.000
1673805048.875,-11.719,-27.832,-18.555,-6.836,0.000
1673805048.879,-24.414,-23.438,-17.578,-4.395,0.000
1673805048.883,-40.527,-20.996,-20.996,-7.812,0.000
1673805048.887,-46.387,-26.367,-16.602,-3.418,0.000
1673805048.891,-31.250,-28.809,-19.531,2.930,0.000
1673805048.894,-31.738,-27.832,-27.344,-1.465,0.000
1673805048.898,-35.156,-27.344,-9.277,9.766,0.000
1673805048.902,-27.832,-20.996,-6.836,2.930,0.000
1673805048.906,-31.738,-20.996,-23.438,-12.695,0.000
1673805048.910,-33.203,-28.809,-23.926,-16.113,0.000
1673805048.914,-32.227,-24.902,-21.973,-20.508,0.000
1673805048.918,-24.902,-21.973,-24.414,-20.508,0.000
1673805048.922,-30.762,-16.602,-25.879,-12.695,0.000
1673805048.926,-38.086,-18.066,-25.391,-1.953,0.000
1673805048.930,-26.367,-24.902,-20.508,-2.930,0.000
1673805048.934,-20.508,-28.809,-23.438,-5.859,0.000
1673805048.937,-22.461,-35.156,-30.273,-9.766,0.000
1673805048.941,0.488,-27.344,-23.438,-8.789,0.000
1673805048.945,0.000,-12.695,-19.531,0.488,0.000
1673805048.949,-10.254,-17.578,-27.344,-3.418,0.000
1673805048.953,10.742,-26.367,-28.320,-5.859,0.000
1673805048.957,17.578,-24.414,-25.391,-3.906,0.000
1673805048.961,-11.719,-16.602,-21.484,3.906,0.000
1673805048.965,-33.691,-11.719,-15.625,14.648,0.000
1673805048.969,-16.113,-12.207,-16.113,1.953,0.000
1673805048.973,-13.672,-12.207,-20.996,-6.836,0.000
1673805048.976,-10.254,-15.137,-22.461,0.000,0.000
1673805048.980,-0.488,-20.020,-19.043,-0.488,0.000
1673805048.984,-4.883,-15.137,-13.184,0.488,0.000
1673805048.988,-5.371,-14.648,-10.254,5.371,0.000
1673805048.992,-9.766,-25.391,-17.090,6.836,0.000
1673805048.996,-13.672,-23.926,-31.250,-9.766,0.000
1673805049.000,-14.160,-28.809,-29.785,-23.926,0.000
1673805049.004,-27.832,-21.484,-17.578,-10.254,0.000
1673805049.008,-35.645,-8.789,-12.207,3.418,0.000
1673805049.012,-35.156,-13.184,-17.578,-8.301,0.000
1673805049.016,-33.691,-10.742,-17.090,-7.812,0.000
1673805049.019,-35.156,-15.625,-24.902,-13.184,0.000
1673805049.023,-26.367,-21.973,-29.297,-18.066,0.000
1673805049.027,-31.738,-20.020,-21.973,-19.043,0.000
1673805049.031,-31.250,-16.602,-26.367,-19.043,0.000
1673805049.035,-9.766,-14.648,-24.902,-8.301,0.000
1673805049.039,-10.254,-17.578,-14.648,-5.859,0.000
1673805049.043,-14.648,-19.043,-18.555,0.000,0.000
1673805049.047,-7.812,-19.531,-20.996,-0.488,0.000
1673805049.051,16.602,-21.973,-14.648,1.953,0.000
1673805049.055,18.555,-13.184,-12.207,11.230,0.000
1673805049.059,-16.113,-9.277,-17.090,16.113,0.000
1673805049.062,-21.484,-19.531,-20.996,17.578,0.000
1673805049.066,-19.043,-20.020,-12.695,9.277,0.000
1673805049.070,-28.320,-13.672,-7.324,6.836,0.000
1673805049.074,-20.020,-10.254,-6.348,5.859,0.000
1673805049.078,-11.719,-13.672,-7.324,7.324,0.000
1673805049.082,-1.465,-16.602,-9.277,14.648,0.000
1673805049.086,-14.648,-16.602,-8.789,7.812,0.000
1673805049.090,-41.016,-23.438,-12.695,-10.742,0.000
1673805049.094,-38.574,-22.461,-22.461,-13.184,0.000
1673805049.098,-22.461,-19.531,-18.066,-9.766,0.000
1673805049.101,-12.207,-24.414,-14.160,-24.414,0.000
1673805049.105,-12.207,-32.715,-20.996,-30.273,0.000
1673805049.109,-18.066,-31.738,-18.555,-22.461,0.000
1673805049.113,-38.086,-27.344,-19.043,-19.531,0.000
1673805049.117,-44.922,-27.832,-30.273,-22.949,0.000
1673805049.121,-35.645,-20.020,-34.180,-22.949,0.000
1673805049.125,-24.414,-13.672,-27.344,-12.207,0.000
1673805049.129,-27.832,-19.531,-22.461,-12.207,0.000
1673805049.133,-25.391,-20.996,-23.438,-13.672,0.000
1673805049.137,4.883,-9.766,-24.902,-6.836,0.000
1673805049.141,10.742,-4.883,-21.484,9.766,0.000
1673805049.144,-3.418,-10.254,-19.043,16.602,0.000
1673805049.148,-5.859,-13.672,-22.461,-5.371,0.000
1673805049.152,-7.812,-17.090,-25.879,-17.090,0.000
1673805049.156,-18.066,-14.648,-20.508,-5.371,0.000
1673805049.160,-34.668,-1.953,-12.207,9.766,0.000
1673805049.164,-36.621,4.883,-11.719,12.695,0.000
1673805049.168,-30.762,0.488,-14.160,8.789,0.000
1673805049.172,-28.809,-2.930,-16.113,0.488,0.000
1673805049.176,-27.832,-15.137,-16.602,1.953,0.000
1673805049.180,-30.273,-20.508,-18.066,1.953,0.000
1673805049.184,-28.320,-9.766,-15.625,-5.371,0.000
1673805049.187,-18.555,-6.836,-10.742,0.488,0.000
1673805049.191,-12.207,-12.695,-15.137,-4.395,0.000
1673805049.195,-19.043,-19.531,-15.625,-7.812,0.000
1673805049.199,-37.598,-26.367,-6.836,-0.977,0.000
1673805049.203,-33.691,-14.648,-9.277,-0.488,0.000
1673805049.207,-13.184,-7.812,-9.277,0.000,0.000
1673805049.211,-8.301,-8.789,-9.766,0.000,0.000
1673805049.215,3.906,-8.301,-13.184,-5.859,0.000
1673805049.219,19.531,-8.789,-7.812,0.977,0.000
1673805049.223,21.973,-20.508,-9.277,19.043,0.000
1673805049.226,12.695,-17.090,-3.906,23.438,0.000
1673805049.230,8.789,1.953,-0.977,12.695,0.000
1673805049.234,0.000,4.395,-4.883,8.789,0.000
1673805049.238,-8.789,-6.348,-2.441,8.789,0.000
1673805049.242,0.977,-11.719,-3.418,15.625,0.000
1673805049.246,0.000,0.977,-10.742,23.438,0.000
1673805049.250,-11.719,-3.418,-24.902,14.160,0.000
1673805049.254,-13.672,-12.207,-21.484,0.488,0.000
1673805049.258,-17.578,-6.836,-2.930,11.230,0.000
1673805049.262,-14.160,-4.395,0.000,20.508,0.000
1673805049.266,-6.836,-5.371,-3.906,17.090,0.000
1673805049.269,-11.230,-9.766,-6.836,2.441,0.000
1673805049.273,0.488,-14.648,-9.277,-5.859,0.000
1673805049.277,5.859,-9.277,-9.277,6.348,0.000
1673805049.281,-19.043,-9.766,-11.230,0.000,0.000
1673805049.285,-20.508,-4.395,-8.301,-0.977,0.000
1673805049.289,-13.184,-0.488,-5.371,15.137,0.000
1673805049.293,-15.625,-11.719,-7.812,12.207,0.000
1673805049.297,-14.648,-17.578,-9.766,15.625,0.000
1673805049.301,-9.766,-11.230,-5.371,22.461,0.000
1673805049.305,5.859,-9.277,-4.395,24.902,0.000
1673805049.309,9.277,-4.883,-10.254,23.438,0.000
1673805049.312,-3.906,-8.301,-8.789,19.531,0.000
1673805049.316,0.000,-18.555,-7.324,14.160,0.000
1673805049.320,-5.859,-13.672,-8.301,6.836,0.000
1673805049.324,-8.789,-6.348,-9.766,16.602,0.000
1673805049.328,0.977,-1.953,-7.324,13.672,0.000
1673805049.332,5.859,0.977,-7.812,5.859,0.000
1673805049.336,10.254,1.953,-12.695,12.207,0.000
1673805049.340,10.254,-1.953,-11.230,13.672,0.000
1673805049.344,4.395,-13.672,-3.906,13.184,0.000
1673805049.348,6.836,-0.977,1.465,13.672,0.000
1673805049.352,7.324,5.371,-6.836,0.977,0.000
1673805049.355,-23.438,-8.301,-11.719,-1.465,0.000
1673805049.359,-30.762,1.953,-6.348,6.348,0.000
1673805049.363,-6.836,5.371,-6.348,0.000,0.000
1673805049.367,4.395,0.488,-9.766,-0.977,0.000
1673805049.371,-8.301,-8.789,-8.301,6.348,0.000
1673805049.375,-41.992,-15.625,-8.301,3.906,0.000
1673805049.379,-55.664,-12.695,-12.695,1.953,0.000
1673805049.383,-41.016,-9.766,-14.160,-6.348,0.000
1673805049.387,-27.344,0.488,-15.625,-6.348,0.000
1673805049.391,-18.066,7.812,-9.766,17.090,0.000
1673805049.394,-15.137,-2.930,-2.441,26.367,0.000
1673805049.398,-4.883,-6.348,-7.812,7.324,0.000
1673805049.402,8.789,-0.488,-13.184,-0.488,0.000
1673805049.406,7.324,-5.859,-13.672,-2.441,0.000
1673805049.410,-9.277,-9.766,-12.695,-8.789,0.000
1673805049.414,-28.320,-9.277,-8.301,-6.836,0.000
1673805049.418,-29.785,-7.812,-9.766,-4.395,0.000
1673805049.422,-18.066,-7.324,-13.672,-3.418,0.000
1673805049.426,-4.883,-2.441,-8.301,4.395,0.000
1673805049.430,3.418,-3.418,-11.230,5.371,0.000
1673805049.434,-2.441,-15.625,-20.508,-16.113,0.000
1673805049.437,-3.418,-12.207,-9.766,-6.348,0.000
1673805049.441,-6.348,-3.418,-1.465,3.418,0.000
1673805049.445,-20.996,-5.371,-7.324,0.977,0.000
1673805049.449,-14.648,-11.230,-9.277,4.395,0.000
1673805049.453,-3.906,-12.207,-7.812,12.695,0.000
1673805049.457,-11.719,-2.930,-17.578,23.926,0.000
1673805049.461,-4.883,0.000,-17.090,20.020,0.000
1673805049.465,5.371,-0.488,-9.277,3.418,0.000
1673805049.469,2.441,-8.301,-3.906,-0.488,0.000
1673805049.473,-10.254,-21.484,-4.395,5.859,0.000
1673805049.477,-27.344,-17.578,-14.160,3.906,0.000
1673805049.480,-23.926,-2.930,-11.230,1.465,0.000
1673805049.484,-14.160,3.418,-6.348,2.930,0.000
1673805049.488,-8.301,1.465,-12.207,12.695,0.000
1673805049.492,2.930,-2.930,-10.254,18.066,0.000
1673805049.496,8.789,0.488,-3.418,17.578,0.000
1673805049.500,5.371,0.000,-9.766,17.578,0.000
1673805049.504,7.324,-0.977,-10.742,16.113,0.000
1673805049.508,7.812,-2.930,-13.672,20.996,0.000
1673805049.512,18.066,-18.555,-6.836,24.414,0.000
1673805049.516,9.277,-15.137,1.953,20.996,0.000
1673805049.519,-8.301,-6.348,0.000,23.926,0.000
1673805049.523,-4.395,-0.977,2.441,26.367,0.000
1673805049.527,10.254,8.301,3.418,28.320,0.000
1673805049.531,11.230,-6.348,-3.418,22.461,0.000
1673805049.535,11.719,-18.555,-9.766,17.578,0.000
1673805049.539,18.066,-0.977,-13.672,16.113,0.000
1673805049.543,14.648,5.859,-6.836,16.602,0.000
1673805049.547,10.254,-0.977,-7.812,10.742,0.000
1673805049.551,6.348,-5.859,-17.578,0.977,0.000
1673805049.555,13.184,-5.371,-14.160,-2.930,0.000
1673805049.559,1.465,-8.301,-9.277,3.418,0.000
1673805049.562,5.371,-7.324,-13.184,12.695,0.000
1673805049.566,10.742,-7.812,-10.254,10.254,0.000
1673805049.570,0.000,-4.883,-7.324,0.488,0.000
1673805049.574,-12.207,-6.348,-18.066,-3.418,0.000
1673805049.578,-23.438,-11.719,-17.578,-0.488,0.000
1673805049.582,-16.113,-11.230,-9.277,-2.441,0.000
1673805049.586,-9.277,-8.301,-17.090,0.488,0.000
1673805049.590,-6.836,-6.348,-19.043,12.207,0.000
1673805049.594,-3.418,-6.348,-13.184,22.461,0.000
1673805049.598,-6.836,-2.441,-10.742,11.719,0.000
1673805049.602,-13.184,-16.113,-7.324,-3.906,0.000
1673805049.605,-15.137,-26.855,-20.508,4.883,0.000
1673805049.609,-13.184,-10.254,-32.715,5.371,0.000
1673805049.613,-12.695,3.906,-21.973,-2.441,0.000
1673805049.617,-5.371,-1.465,-7.812,4.395,0.000
1673805049.621,11.719,-7.812,-7.324,0.488,0.000
1673805049.625,19.043,-1.953,-10.742,2.441,0.000
1673805049.629,-0.977,-0.977,-8.301,5.859,0.000
1673805049.633,-27.832,-7.812,-9.277,-4.395,0.000
1673805049.637,-24.414,-15.137,-20.996,-2.930,0.000
1673805049.641,-15.625,-25.879,-25.879,3.906,0.000
1673805049.644,-12.207,-32.715,-16.602,-3.418,0.000
1673805049.648,-4.395,-20.020,-8.789,-12.207,0.000
1673805049.652,-2.930,-3.418,-14.160,-4.395,0.000
1673805049.656,-13.672,-9.277,-17.578,-4.395,0.000
1673805049.660,-12.695,-20.996,-19.531,-8.789,0.000
1673805049.664,-3.418,-22.949,-18.066,-3.418,0.000
1673805049.668,-29.297,-19.043,-19.531,-2.441,0.000
1673805049.672,-43.945,-18.555,-24.414,3.906,0.000
1673805049.676,-20.996,-11.719,-17.090,20.020,0.000
1673805049.680,-4.395,-11.230,-13.672,9.277,0.000
1673805049.684,7.324,-18.066,-23.438,-5.859,0.000
1673805049.687,-4.883,-16.113,-27.344,-4.883,0.000
1673805049.691,-25.391,-13.672,-18.555,-0.977,0.000
1673805049.695,-21.484,-12.695,-7.812,-0.977,0.000
1673805049.699,-2.441,-8.789,-1.465,1.953,0.000
1673805049.703,6.836,-8.789,-6.836,-9.277,0.000
1673805049.707,9.277,-7.812,-11.230,-1.953,0.000
1673805049.711,-9.766,-6.836,-4.883,15.625,0.000
1673805049.715,-16.113,-5.859,-0.977,4.395,0.000
1673805049.719,-11.719,-15.625,-2.441,-5.371,0.000
1673805049.723,-3.906,-21.484,-12.695,0.488,0.000
1673805049.727,3.418,-5.371,-23.926,11.719,0.000
1673805049.730,-7.324,-7.324,-15.625,10.254,0.000
1673805049.734,-7.324,-17.090,-10.254,-3.418,0.000
1673805049.738,2.441,-12.207,-13.672,0.000,0.000
1673805049.742,4.883,-3.418,-8.789,13.184,0.000
1673805049.746,11.230,2.441,-12.207,15.137,0.000
1673805049.750,8.301,-12.207,-18.066,9.277,0.000
1673805049.754,-4.395,-17.090,-15.137,10.254,0.000
1673805049.758,-12.207,-14.160,-8.789,11.230,0.000
1673805049.762,-5.371,-7.812,-6.348,7.324,0.000
1673805049.766,0.977,-1.465,-6.348,1.465,0.000
1673805049.769,-11.230,-5.371,-9.766,0.000,0.000
1673805049.773,-25.391,-11.719,-11.719,10.742,0.000
1673805049.777,-17.578,-13.672,-16.113,20.020,0.000
1673805049.781,-15.137,-13.672,-22.949,5.859,0.000
1673805049.785,-17.090,-13.184,-14.648,-9.277,0.000
1673805049.789,-13.184,-10.254,-8.789,-9.277,0.000
1673805049.793,-8.789,-14.648,-11.230,-1.465,0.000
1673805049.797,-19.043,-3.418,-9.277,11.719,0.000
1673805049.801,-21.973,-5.371,-11.719,8.789,0.000
1673805049.805,-4.395,-16.602,-14.648,3.418,0.000
1673805049.809,-1.465,5.859,-5.371,10.742,0.000
1673805049.812,-20.508,9.277,-6.836,15.137,0.000
1673805049.816,-15.625,0.977,-19.043,18.066,0.000
1673805049.820,0.000,2.441,-17.090,20.508,0.000
1673805049.824,-0.977,-3.418,-13.672,22.949,0.000
1673805049.828,-6.348,-1.465,-1.953,18.555,0.000
1673805049.832,0.488,0.488,3.906,14.648,0.000
1673805049.836,12.695,-11.230,-7.812,15.137,0.000
1673805049.840,12.207,-15.137,-11.719,10.254,0.000
1673805049.844,-5.859,-5.859,-6.836,17.578,0.000
1673805049.848,-21.484,-6.348,-14.160,13.184,0.000
1673805049.852,-24.414,-13.672,-12.695,7.324,0.000
1673805049.855,-19.043,-19.043,-8.789,11.719,0.000
1673805049.859,-10.254,-26.367,-14.160,11.719,0.000
1673805049.863,-14.648,-26.855,-16.602,1.465,0.000
1673805049.867,-20.508,-18.066,-21.484,-9.277,0.000
1673805049.871,-22.949,-12.695,-20.508,-9.766,0.000
1673805049.875,-22.461,-10.742,-17.090,-1.953,0.000
1673805049.879,-28.809,-13.184,-20.508,3.418,0.000
1673805049.883,-31.738,-19.531,-25.391,-10.742,0.000
1673805049.887,-19.531,-16.113,-20.508,-12.207,0.000
1673805049.891,-14.160,-10.742,-13.672,6.348,0.000
1673805049.894,-11.230,-22.461,-14.160,10.742,0.000
1673805049.898,-0.977,-26.855,-21.973,-11.719,0.000
1673805049.902,0.977,-11.719,-23.438,-10.254,0.000
1673805049.906,-9.766,-0.488,-20.508,0.488,0.000
1673805049.910,-25.391,-4.883,-9.277,-0.977,0.000
1673805049.914,-19.531,-14.160,-12.207,-5.859,0.000
1673805049.918,-4.395,-13.672,-20.508,-7.324,0.000
1673805049.922,12.207,-3.906,-9.766,6.836,0.000
1673805049.926,6.836,-1.953,-6.836,14.648,0.000
1673805049.930,2.930,-12.207,-13.184,4.883,0.000
1673805049.934,6.348,-20.996,-11.230,-8.789,0.000
1673805049.937,-1.465,-22.949,-9.277,8.301,0.000
1673805049.941,-6.836,-12.207,-14.160,25.391,0.000
1673805049.945,-4.395,-3.418,-13.672,20.508,0.000
1673805049.949,2.441,-12.207,-8.789,21.973,0.000
1673805049.953,0.977,-10.254,-7.324,19.531,0.000
1673805049.957,-4.395,-14.160,-10.742,19.043,0.000
1673805049.961,-0.977,-11.230,-16.113,12.695,0.000
1673805049.965,2.441,-14.160,-11.719,8.789,0.000
1673805049.969,12.207,-27.832,-6.348,8.789,0.000
1673805049.973,23.926,-7.324,-10.742,1.465,0.000
1673805049.977,27.832,0.977,-17.090,0.000,0.000
1673805049.980,22.949,-7.812,-16.602,-2.441,0.000
1673805049.984,12.207,-13.672,-18.066,-7.812,0.000
1673805049.988,3.418,-14.648,-23.438,-8.301,0.000
1673805049.992,4.883,-4.883,-20.996,-0.488,0.000
1673805049.996,5.859,-7.324,-9.277,4.883,0.000
1673805050.000,-1.953,-16.602,-12.207,-13.184,0.000
1673805050.004,-5.859,-12.207,-23.438,-16.113,0.000
1673805050.008,-2.930,-9.277,-20.996,-3.906,0.000
1673805050.012,2.441,-11.230,-17.578,-0.488,0.000
1673805050.016,9.277,-12.207,-17.090,-6.836,0.000
1673805050.019,7.324,-16.113,-19.043,-4.883,0.000
1673805050.023,11.230,-19.043,-25.391,2.930,0.000
1673805050.027,14.648,-14.648,-25.879,8.789,0.000
1673805050.031,14.160,-12.695,-21.973,-2.441,0.000
1673805050.035,23.926,-13.184,-15.137,-4.395,0.000
1673805050.039,14.160,-16.113,-12.695,2.930,0.000
1673805050.043,-3.418,-14.160,-14.648,7.812,0.000
1673805050.047,-10.742,-14.160,-20.508,4.395,0.000
1673805050.051,-1.465,-18.066,-19.043,0.000,0.000
1673805050.055,19.043,-13.672,-20.020,1.953,0.000
1673805050.059,35.156,-26.855,-27.832,3.418,0.000
1673805050.062,22.949,-25.879,-30.762,-5.371,0.000
1673805050.066,-7.324,-18.555,-24.902,-10.254,0.000
1673805050.070,-9.277,-18.066,-17.578,-2.930,0.000
1673805050.074,-11.230,-7.324,-16.113,0.977,0.000
1673805050.078,-12.207,-9.277,-19.043,2.441,0.000
1673805050.082,-9.766,-12.695,-19.531,0.977,0.000
1673805050.086,2.441,-4.883,-15.625,-0.977,0.000
1673805050.090,0.000,-4.883,-16.113,1.953,0.000
1673805050.094,-10.254,-17.090,-18.066,5.859,0.000
1673805050.098,-7.812,-15.625,-24.902,11.230,0.000
1673805050.102,-6.836,-7.812,-20.996,4.395,0.000
1673805050.105,-5.859,-6.348,-13.184,-2.441,0.000
1673805050.109,-5.371,-13.672,-16.113,-1.465,0.000
1673805050.113,-15.625,-22.949,-22.461,-10.742,0.000
1673805050.117,-12.207,-14.160,-19.043,-10.742,0.000
1673805050.121,-2.930,-8.301,-15.137,-0.977,0.000
1673805050.125,-5.859,-10.742,-19.531,2.441,0.000
1673805050.129,0.488,-9.277,-17.578,0.000,0.000
1673805050.133,19.043,-15.137,-14.160,0.977,0.000
1673805050.137,26.855,-25.879,-20.020,-1.953,0.000
1673805050.141,23.926,-22.949,-30.762,2.441,0.000
1673805050.144,10.742,-17.090,-25.879,5.859,0.000
1673805050.148,0.000,-20.020,-10.254,5.859,0.000
1673805050.152,2.930,-20.508,-11.230,5.371,0.000
1673805050.156,-12.695,-16.602,-15.137,-5.859,0.000
1673805050.160,-5.859,-5.859,-12.207,-14.160,0.000
1673805050.164,11.719,-9.766,-14.648,-0.977,0.000
1673805050.168,8.301,-15.137,-22.949,-1.953,0.000
1673805050.172,10.254,-7.324,-19.043,-8.301,0.000
1673805050.176,17.578,0.977,-11.719,4.883,0.000
1673805050.180,12.695,-1.953,-11.719,-0.977,0.000
1673805050.184,5.371,-6.348,-15.137,-8.789,0.000
1673805050.187,-7.812,-2.441,-15.625,-1.465,0.000
1673805050.191,-19.043,-4.395,-10.742,18.555,0.000
1673805050.195,-8.789,-6.836,-9.277,19.043,0.000
1673805050.199,0.977,-5.371,-11.230,9.277,0.000
1673805050.203,-4.395,-25.391,-16.602,0.000,0.000
1673805050.207,-1.953,-20.508,-17.578,8.301,0.000
1673805050.211,6.836,-2.441,-12.207,16.602,0.000
1673805050.215,7.812,-3.418,-9.766,1.465,0.000
1673805050.219,3.906,2.930,-10.254,-2.441,0.000
1673805050.223,12.207,3.418,-3.906,11.230,0.000
1673805050.227,17.090,-2.441,-3.906,15.625,0.000
1673805050.230,0.488,2.930,-7.324,10.742,0.000
1673805050.234,4.395,8.301,-7.324,10.742,0.000
1673805050.238,14.648,0.000,-6.348,8.301,0.000
1673805050.242,1.465,-5.859,-10.254,9.766,0.000
1673805050.246,3.906,-1.953,-8.789,20.020,0.000
1673805050.250,9.277,-1.953,0.488,12.207,0.000
1673805050.254,-8.789,-7.812,-0.488,3.418,0.000
1673805050.258,-9.277,-11.719,-10.254,6.836,0.000
1673805050.262,-4.395,-5.859,-17.090,5.371,0.000
1673805050.266,-13.672,-2.441,-10.254,9.277,0.000
1673805050.269,-10.254,-4.883,-6.348,16.113,0.000
1673805050.273,3.906,-6.348,-2.930,26.855,0.000
1673805050.277,12.695,-7.812,-6.348,20.996,0.000
1673805050.281,30.273,-5.371,-12.207,0.000,0.000
1673805050.285,39.062,-1.465,-6.836,1.953,0.000
1673805050.289,10.254,-3.906,0.000,13.184,0.000
1673805050.293,0.977,-6.348,-0.977,20.508,0.000
1673805050.297,-1.465,-9.766,-20.996,19.043,0.000
1673805050.301,-20.996,-10.254,-23.438,9.277,0.000
1673805050.305,-13.184,-5.859,-7.324,12.207,0.000
1673805050.309,3.906,-7.812,-4.395,10.254,0.000
1673805050.312,14.648,-7.812,-4.395,15.625,0.000
1673805050.316,4.883,-7.324,-1.953,20.996,0.000
1673805050.320,-18.066,-20.020,-6.348,16.602,0.000
1673805050.324,-8.301,-17.578,-13.184,24.902,0.000
1673805050.328,1.465,-7.324,-14.160,23.926,0.000
1673805050.332,2.441,-2.441,-13.672,19.043,0.000
1673805050.336,-8.789,-7.812,-14.648,21.973,0.000
1673805050.340,-20.020,-16.602,-17.090,23.438,0.000
1673805050.344,-7.324,-13.672,-15.625,24.902,0.000
1673805050.348,-1.465,-5.859,-12.207,9.277,0.000
1673805050.352,-1.465,-3.418,-18.066,-2.930,0.000
1673805050.355,12.207,-12.695,-18.066,-1.953,0.000
1673805050.359,15.137,-12.695,-16.602,-3.906,0.000
1673805050.363,16.602,-4.883,-25.879,-1.465,0.000
1673805050.367,20.996,-1.465,-15.625,3.418,0.000
1673805050.371,11.719,-0.488,-4.395,2.441,0.000
1673805050.375,-2.930,-5.859,-10.254,5.371,0.000
1673805050.379,-17.090,-16.602,-15.137,1.953,0.000
1673805050.383,-15.137,-17.578,-14.160,-6.836,0.000
1673805050.387,-7.324,-4.883,-9.277,1.953,0.000
1673805050.391,9.766,-0.488,-10.742,1.953,0.000
1673805050.394,21.973,-0.977,-11.719,-4.883,0.000
1673805050.398,10.742,-6.348,-10.254,10.254,0.000
1673805050.402,-7.324,-17.578,-11.719,12.695,0.000
1673805050.406,-9.766,-16.113,-12.695,-4.883,0.000
1673805050.410,-11.719,-12.207,-17.090,-6.348,0.000
1673805050.414,-21.484,-20.508,-15.625,0.977,0.000
1673805050.418,-28.320,-12.207,-10.254,14.160,0.000
1673805050.422,-31.738,-6.836,-8.789,22.461,0.000
1673805050.426,-23.926,-12.207,-8.301,17.090,0.000
1673805050.430,-8.789,-18.066,-13.184,11.719,0.000
1673805050.434,-12.695,-32.227,-13.184,0.488,0.000
1673805050.437,-15.137,-26.855,-8.301,-10.742,0.000
1673805050.441,-15.625,-12.695,-15.137,-13.672,0.000
1673805050.445,-14.648,-12.207,-16.602,-13.672,0.000
1673805050.449,-2.441,-12.695,-14.648,-7.324,0.000
1673805050.453,-0.977,-21.973,-20.020,-6.836,0.000
1673805050.457,-9.277,-24.902,-20.020,0.000,0.000
1673805050.461,-10.742,-10.254,-9.277,4.395,0.000
1673805050.465,0.488,-8.789,-8.789,-2.930,0.000
1673805050.469,8.789,-10.742,-17.090,-12.207,0.000
1673805050.473,10.254,-10.254,-19.531,-8.301,0.000
1673805050.477,13.672,-7.812,-15.137,4.395,0.000
1673805050.480,14.160,-13.672,-14.160,5.371,0.000
1673805050.484,20.508,-14.648,-18.555,1.953,0.000
1673805050.488,16.602,-3.418,-18.066,8.301,0.000
1673805050.492,-1.465,2.930,-8.789,19.531,0.000
1673805050.496,-5.371,-5.371,-13.184,11.719,0.000
1673805050.500,-2.441,-16.602,-22.949,0.977,0.000
1673805050.504,-13.184,-26.367,-21.973,11.719,0.000
1673805050.508,-25.391,-26.855,-27.344,13.184,0.000
1673805050.512,-31.250,-20.020,-24.414,4.395,0.000
1673805050.516,-17.090,-13.672,-17.090,-5.371,0.000
1673805050.519,0.488,-14.160,-16.602,-6.836,0.000
1673805050.523,-4.395,-18.555,-19.531,-1.953,0.000
1673805050.527,-19.043,-11.719,-22.461,-4.883,0.000
1673805050.531,-14.160,-10.742,-18.066,-18.066,0.000
1673805050.535,-0.488,-10.742,-20.020,-14.648,0.000
1673805050.539,-19.043,-15.137,-25.879,0.488,0.000
1673805050.543,-38.086,-24.414,-26.367,-6.836,0.000
1673805050.547,-29.785,-19.043,-16.113,-8.301,0.000
1673805050.551,-24.902,-23.438,-16.602,-9.766,0.000
1673805050.555,-18.555,-20.996,-23.926,-21.484,0.000
1673805050.559,-20.996,-5.859,-20.996,-17.090,0.000
1673805050.562,-17.090,0.000,-16.602,-15.625,0.000
1673805050.566,9.766,-4.395,-18.555,-17.090,0.000
1673805050.570,10.742,-14.160,-24.414,-15.137,0.000
1673805050.574,1.953,-11.719,-24.414,-3.418,0.000
1673805050.578,12.207,-5.371,-22.461,6.836,0.000
1673805050.582,11.230,-10.254,-20.996,10.254,0.000
1673805050.586,-7.812,-14.160,-15.625,10.254,0.000
1673805050.590,-30.762,-19.043,-12.207,-1.465,0.000
1673805050.594,-36.133,-16.113,-17.090,1.465,0.000
1673805050.598,-20.996,-7.812,-23.926,6.836,0.000
1673805050.602,-16.602,-22.949,-21.973,-0.488,0.000
1673805050.605,-7.324,-21.484,-20.020,-6.348,0.000
1673805050.609,-13.672,-8.789,-20.508,-4.395,0.000
1673805050.613,-33.691,-14.648,-19.531,-0.977,0.000
1673805050.617,-35.645,-17.090,-20.508,-4.395,0.000
1673805050.621,-21.973,-8.789,-17.090,-9.277,0.000
1673805050.625,-14.160,-8.301,-12.695,6.348,0.000
1673805050.629,-7.324,-22.949,-9.277,14.648,0.000
1673805050.633,-10.254,-20.996,-8.301,0.488,0.000
1673805050.637,-25.391,-13.184,-11.230,-4.883,0.000
1673805050.641,-37.109,-16.113,-24.414,13.672,0.000
1673805050.644,-33.691,-16.602,-28.809,9.766,0.000
