timestamp,TP9,AF7,AF8,TP10,Right AUX
1673806165.955,-25.391,-33.691,-27.832,-7.812,0.000
1673806165.959,-29.785,-37.598,-26.855,-16.602,0.000
1673806165.963,-55.176,-36.621,-23.438,-12.695,0.000
1673806165.967,-65.918,-33.691,-27.832,-13.672,0.000
1673806165.971,-46.875,-27.344,-24.414,-17.090,0.000
1673806165.975,-43.457,-25.879,-23.438,-9.766,0.000
1673806165.979,-46.875,-24.414,-25.879,9.766,0.000
1673806165.983,-46.387,-25.879,-26.367,13.184,0.000
1673806165.986,-42.969,-26.367,-32.715,-4.395,0.000
1673806165.990,-31.738,-21.484,-32.227,-4.395,0.000
1673806165.994,-31.738,-18.555,-28.320,4.883,0.000
1673806165.998,-30.273,-18.555,-32.715,-0.488,0.000
1673806166.002,-22.949,-22.461,-38.086,-11.230,0.000
1673806166.006,-10.742,-23.438,-38.574,-36.621,0.000
1673806166.010,8.301,-21.973,-35.645,-63.965,0.000
1673806166.014,16.113,-17.578,-31.250,-48.828,0.000
1673806166.018,-3.906,-20.020,-28.320,-29.785,0.000
1673806166.022,-5.371,-23.926,-30.762,-29.297,0.000
1673806166.026,26.367,-17.090,-33.203,-19.531,0.000
1673806166.029,17.090,-15.137,-30.273,-9.766,0.000
1673806166.033,-23.926,-24.414,-33.203,-12.207,0.000
1673806166.037,-26.367,-31.250,-33.203,-11.230,0.000
1673806166.041,-36.621,-30.273,-32.227,-16.113,0.000
1673806166.045,-42.480,-28.809,-34.180,-20.020,0.000
1673806166.049,-28.809,-33.203,-34.180,-7.812,0.000
1673806166.053,-48.828,-39.062,-31.738,3.418,0.000
1673806166.057,-48.828,-39.062,-33.203,-1.465,0.000
1673806166.061,-27.344,-35.156,-36.621,-16.602,0.000
1673806166.065,-28.320,-34.668,-37.109,-28.809,0.000
1673806166.069,-36.133,-33.203,-37.109,-16.113,0.000
1673806166.072,-29.297,-29.785,-29.785,0.000,0.000
1673806166.076,-20.996,-35.645,-29.785,-8.789,0.000
1673806166.080,-17.578,-28.320,-29.297,-14.648,0.000
1673806166.084,-8.789,-20.508,-23.926,-13.184,0.000
1673806166.088,-11.230,-30.273,-24.414,-27.832,0.000
1673806166.092,-16.113,-35.645,-20.020,-38.086,0.000
1673806166.096,-13.184,-34.668,-27.832,-35.645,0.000
1673806166.100,-20.508,-33.691,-32.227,-30.273,0.000
1673806166.104,-32.227,-33.691,-30.762,-32.227,0.000
1673806166.108,-29.297,-29.297,-34.668,-33.203,0.000
1673806166.111,-12.207,-31.738,-34.668,-29.297,0.000
1673806166.115,-6.348,-31.250,-30.762,-33.691,0.000
1673806166.119,-18.555,-29.297,-29.785,-53.223,0.000
1673806166.123,-14.160,-26.855,-29.785,-55.176,0.000
1673806166.127,-4.395,-25.391,-29.297,-44.922,0.000
1673806166.131,-12.207,-22.949,-29.297,-39.551,0.000
1673806166.135,-41.504,-25.879,-30.273,-36.133,0.000
1673806166.139,-52.734,-29.297,-29.785,-38.086,0.000
1673806166.143,-34.668,-26.367,-25.391,-27.832,0.000
1673806166.147,-23.438,-25.391,-21.484,-14.648,0.000
1673806166.151,-24.414,-28.320,-20.996,-13.184,0.000
1673806166.154,-16.602,-29.785,-22.949,-17.578,0.000
1673806166.158,-14.160,-24.902,-28.809,-17.090,0.000
1673806166.162,-34.668,-25.391,-24.902,-1.953,0.000
1673806166.166,-41.016,-25.879,-18.555,5.859,0.000
1673806166.170,-36.621,-27.344,-24.902,-5.371,0.000
1673806166.174,-26.367,-32.715,-25.391,-15.137,0.000
1673806166.178,-15.625,-34.668,-19.043,-20.996,0.000
1673806166.182,-10.742,-29.297,-20.996,-17.578,0.000
1673806166.186,-1.953,-23.926,-24.414,-14.160,0.000
1673806166.190,7.324,-18.066,-25.391,-18.066,0.000
1673806166.194,-3.906,-21.484,-23.438,-13.672,0.000
1673806166.197,-16.113,-27.344,-21.973,-9.766,0.000
1673806166.201,-12.207,-20.996,-20.996,-5.371,0.000
1673806166.205,0.000,-15.137,-20.020,-8.301,0.000
1673806166.209,-4.883,-15.625,-19.043,-15.137,0.000
1673806166.213,-17.578,-19.531,-21.973,-20.996,0.000
1673806166.217,-20.508,-24.414,-24.902,-18.066,0.000
1673806166.221,-12.695,-18.555,-24.902,-12.207,0.000
1673806166.225,1.953,-19.531,-26.367,-29.785,0.000
1673806166.229,1.465,-21.484,-27.832,-44.922,0.000
1673806166.233,-10.742,-23.926,-26.367,-38.086,0.000
1673806166.236,-16.113,-27.832,-23.438,-25.879,0.000
1673806166.240,-9.277,-26.855,-26.367,-21.973,0.000
1673806166.244,-8.789,-25.879,-25.391,-26.367,0.000
1673806166.248,-19.043,-24.414,-25.879,-22.949,0.000
1673806166.252,-20.020,-20.020,-24.902,-14.160,0.000
1673806166.256,-16.113,-21.484,-23.926,-16.113,0.000
1673806166.260,-19.043,-26.367,-27.832,-28.320,0.000
1673806166.264,-10.254,-20.996,-26.367,-20.996,0.000
1673806166.268,-0.977,-14.160,-21.484,-1.465,0.000
1673806166.272,-21.484,-18.066,-20.996,-4.395,0.000
1673806166.276,-28.320,-20.996,-24.902,-10.742,0.000
1673806166.279,-12.207,-17.090,-23.438,-8.789,0.000
1673806166.283,-1.465,-21.484,-23.926,-6.836,0.000
1673806166.287,-0.488,-23.438,-23.438,-26.367,0.000
1673806166.291,-5.859,-21.973,-22.461,-46.875,0.000
1673806166.295,15.625,-21.973,-22.949,-51.270,0.000
1673806166.299,24.414,-20.996,-18.555,-45.410,0.000
1673806166.303,-20.020,-25.879,-22.461,-41.016,0.000
1673806166.307,-58.594,-23.438,-27.832,-40.039,0.000
1673806166.311,-26.367,-14.160,-26.855,-34.668,0.000
1673806166.315,1.953,-18.555,-24.414,-37.598,0.000
1673806166.319,-38.574,-30.273,-28.320,-32.227,0.000
1673806166.322,-71.289,-28.809,-25.391,-29.785,0.000
1673806166.326,-57.129,-22.949,-17.090,-28.809,0.000
1673806166.330,-40.527,-20.508,-23.438,-14.160,0.000
1673806166.334,-36.133,-20.508,-29.785,-11.719,0.000
1673806166.338,-35.156,-23.438,-29.297,-17.578,0.000
1673806166.342,-24.414,-25.391,-24.414,-14.648,0.000
1673806166.346,-15.625,-21.973,-24.414,-12.207,0.000
1673806166.350,-20.508,-18.555,-26.367,-13.184,0.000
1673806166.354,-26.855,-15.137,-20.508,-15.137,0.000
1673806166.358,-21.484,-17.578,-22.461,-20.020,0.000
1673806166.361,-9.277,-19.531,-22.461,-30.273,0.000
1673806166.365,-6.836,-17.578,-20.996,-38.086,0.000
1673806166.369,-8.301,-14.648,-23.438,-45.410,0.000
1673806166.373,1.465,-13.672,-23.438,-39.062,0.000
1673806166.377,-2.930,-23.438,-28.320,-36.133,0.000
1673806166.381,-2.930,-23.438,-33.203,-37.109,0.000
1673806166.385,0.000,-13.672,-26.855,-28.320,0.000
1673806166.389,3.418,-12.207,-21.973,-24.902,0.000
1673806166.393,11.719,-14.160,-22.461,-21.973,0.000
1673806166.397,17.090,-14.160,-20.508,-12.695,0.000
1673806166.401,6.836,-17.090,-20.508,-10.254,0.000
1673806166.404,0.977,-15.625,-18.066,-14.648,0.000
1673806166.408,-1.953,-14.160,-18.555,-17.090,0.000
1673806166.412,-20.508,-16.113,-17.578,-14.648,0.000
1673806166.416,-11.230,-12.207,-15.137,0.000,0.000
1673806166.420,-9.277,-14.648,-16.602,7.324,0.000
1673806166.424,-19.531,-18.066,-18.066,-6.836,0.000
1673806166.428,-11.719,-15.137,-15.137,-6.836,0.000
1673806166.432,-3.906,-16.113,-8.301,6.836,0.000
1673806166.436,-9.766,-15.137,-5.371,13.672,0.000
1673806166.440,-8.789,-13.184,-1.465,6.836,0.000
1673806166.444,8.301,-6.836,0.488,6.348,0.000
1673806166.447,19.531,-3.906,-2.441,12.207,0.000
1673806166.451,16.113,-7.324,-2.930,13.672,0.000
1673806166.455,5.371,-6.348,-4.395,1.953,0.000
1673806166.459,7.324,-1.953,-2.441,3.906,0.000
1673806166.463,15.137,-6.348,0.488,15.137,0.000
1673806166.467,11.230,-8.301,-3.418,3.906,0.000
1673806166.471,11.719,-7.812,-5.371,-8.301,0.000
1673806166.475,15.137,-11.719,-7.324,-14.160,0.000
1673806166.479,10.254,-7.324,-8.301,-12.695,0.000
1673806166.483,0.977,-8.301,-8.789,-3.906,0.000
1673806166.486,-9.277,-12.207,-8.301,2.930,0.000
1673806166.490,-8.789,-5.859,-6.836,-11.230,0.000
1673806166.494,-0.977,-3.418,-14.648,-25.391,0.000
1673806166.498,0.488,-13.184,-14.648,-17.578,0.000
1673806166.502,-17.090,-19.043,-9.277,-8.789,0.000
1673806166.506,-32.227,-14.648,-10.742,-6.348,0.000
1673806166.510,-32.715,-11.719,-12.207,-10.742,0.000
1673806166.514,-28.320,-12.695,-10.742,-13.672,0.000
1673806166.518,-28.320,-14.648,-8.789,-12.695,0.000
1673806166.522,-24.414,-12.207,-12.207,-15.137,0.000
1673806166.526,-25.391,-16.113,-16.602,-19.531,0.000
1673806166.529,-10.742,-21.484,-17.090,-20.020,0.000
1673806166.533,-3.418,-22.949,-17.090,-13.184,0.000
1673806166.537,-10.742,-20.020,-19.043,-6.836,0.000
1673806166.541,-23.926,-18.066,-24.902,-3.418,0.000
1673806166.545,-20.020,-18.555,-28.320,-14.648,0.000
1673806166.549,-6.836,-19.043,-25.391,-18.555,0.000
1673806166.553,-10.742,-14.160,-19.531,-1.465,0.000
1673806166.557,1.465,-6.348,-17.578,-12.207,0.000
1673806166.561,20.508,-5.859,-20.020,-24.902,0.000
1673806166.565,7.324,-10.742,-19.043,-15.137,0.000
1673806166.569,-24.902,-15.137,-17.090,-11.719,0.000
1673806166.572,-35.645,-17.090,-20.996,-9.766,0.000
1673806166.576,-15.625,-22.949,-20.996,-11.719,0.000
1673806166.580,-15.137,-18.555,-20.020,-4.883,0.000
1673806166.584,-34.180,-14.160,-23.438,-5.859,0.000
1673806166.588,-37.109,-18.555,-23.926,-17.578,0.000
1673806166.592,-34.180,-14.648,-21.973,-22.949,0.000
1673806166.596,-33.691,-14.160,-22.461,-18.066,0.000
1673806166.600,-30.273,-20.996,-26.855,-11.230,0.000
1673806166.604,-30.762,-14.648,-23.926,-22.461,0.000
1673806166.608,-26.855,-11.230,-18.066,-30.273,0.000
1673806166.611,-15.137,-9.277,-16.602,-15.625,0.000
1673806166.615,-21.973,-12.207,-19.043,-15.625,0.000
1673806166.619,-27.344,-20.508,-21.484,-20.996,0.000
1673806166.623,-15.625,-16.113,-20.996,-26.367,0.000
1673806166.627,-9.766,-14.160,-18.555,-33.691,0.000
1673806166.631,-9.277,-15.137,-16.602,-25.879,0.000
1673806166.635,-0.977,-13.672,-18.066,-25.879,0.000
1673806166.639,-9.277,-17.090,-18.555,-29.297,0.000
1673806166.643,-12.207,-20.996,-14.648,-16.113,0.000
1673806166.647,-8.301,-21.484,-17.578,-11.230,0.000
1673806166.651,-14.648,-17.090,-21.973,-12.695,0.000
1673806166.654,-16.113,-20.996,-17.090,-2.930,0.000
1673806166.658,-13.672,-23.926,-17.090,-4.883,0.000
1673806166.662,-0.977,-18.555,-18.555,-7.812,0.000
1673806166.666,5.859,-17.578,-15.625,-0.488,0.000
1673806166.670,3.418,-18.555,-16.602,-0.488,0.000
1673806166.674,-3.418,-16.113,-19.043,-7.812,0.000
1673806166.678,-12.207,-22.461,-17.578,-3.906,0.000
1673806166.682,-24.902,-24.414,-13.184,3.418,0.000
1673806166.686,-24.902,-12.695,-12.695,0.977,0.000
1673806166.690,-8.789,-7.324,-8.789,-2.930,0.000
1673806166.693,-11.230,-9.766,-9.277,-11.230,0.000
1673806166.697,-26.855,-10.742,-10.742,-9.766,0.000
1673806166.701,-20.020,-14.648,-8.301,-2.930,0.000
1673806166.705,-21.973,-18.066,-9.766,-3.906,0.000
1673806166.709,-34.180,-17.090,-16.113,-6.836,0.000
1673806166.713,-27.832,-21.973,-17.090,-7.324,0.000
1673806166.717,-9.766,-19.531,-14.160,-6.836,0.000
1673806166.721,1.465,-9.277,-15.625,-9.766,0.000
1673806166.725,13.672,-4.883,-14.160,-12.695,0.000
1673806166.729,16.113,0.488,-10.254,-11.230,0.000
1673806166.733,-7.324,-3.418,-6.348,6.348,0.000
1673806166.736,-15.137,-14.160,-11.719,5.371,0.000
1673806166.740,8.789,-14.648,-16.602,-9.766,0.000
1673806166.744,0.000,-13.184,-15.625,-1.953,0.000
1673806166.748,-12.695,-19.043,-16.113,2.441,0.000
1673806166.752,-4.883,-23.438,-18.066,-7.324,0.000
1673806166.756,-11.719,-22.461,-20.996,-10.742,0.000
1673806166.760,-13.184,-18.555,-20.020,-2.441,0.000
1673806166.764,-16.602,-14.648,-18.066,4.883,0.000
1673806166.768,-31.250,-11.230,-16.602,5.371,0.000
1673806166.772,-22.949,-11.719,-13.672,3.418,0.000
1673806166.776,-11.719,-15.137,-14.160,2.930,0.000
1673806166.779,-18.555,-16.113,-14.160,4.883,0.000
1673806166.783,-26.855,-17.090,-18.066,5.371,0.000
1673806166.787,-36.621,-19.043,-18.066,5.859,0.000
1673806166.791,-41.504,-14.648,-17.090,1.953,0.000
1673806166.795,-27.832,-20.996,-18.555,-5.371,0.000
1673806166.799,-15.137,-26.367,-20.996,-11.719,0.000
1673806166.803,-5.859,-18.066,-19.043,-13.672,0.000
1673806166.807,-4.395,-18.066,-13.184,-15.625,0.000
1673806166.811,-1.953,-21.973,-20.996,-20.996,0.000
1673806166.815,-6.836,-19.531,-24.902,-13.672,0.000
1673806166.818,-12.695,-21.484,-15.625,-13.184,0.000
1673806166.822,-5.859,-18.066,-14.648,-17.578,0.000
1673806166.826,1.953,-18.066,-23.926,-27.832,0.000
1673806166.830,5.859,-20.020,-24.902,-29.785,0.000
1673806166.834,-13.184,-24.902,-21.973,-25.879,0.000
1673806166.838,-36.133,-29.297,-28.809,-35.645,0.000
1673806166.842,-34.668,-24.902,-28.809,-34.668,0.000
1673806166.846,-21.973,-23.926,-26.855,-20.996,0.000
1673806166.850,-23.926,-30.762,-27.832,-20.996,0.000
1673806166.854,-27.344,-26.367,-24.414,-21.484,0.000
1673806166.858,-11.230,-20.996,-21.973,-23.438,0.000
1673806166.861,-10.254,-22.461,-20.996,-15.625,0.000
1673806166.865,-8.789,-23.438,-18.555,0.977,0.000
1673806166.869,0.488,-29.785,-17.090,0.000,0.000
1673806166.873,-0.488,-25.879,-17.090,-14.160,0.000
1673806166.877,-15.137,-16.602,-20.508,-14.648,0.000
1673806166.881,-21.484,-17.090,-22.461,-7.324,0.000
1673806166.885,-15.625,-18.555,-20.996,-1.465,0.000
1673806166.889,-27.832,-17.578,-21.484,-9.766,0.000
1673806166.893,-33.203,-20.020,-22.949,-22.461,0.000
1673806166.897,-13.184,-20.020,-28.809,-20.020,0.000
1673806166.901,-1.465,-20.996,-32.715,-20.996,0.000
1673806166.904,3.418,-20.996,-25.879,-28.809,0.000
1673806166.908,1.953,-20.020,-23.926,-20.020,0.000
1673806166.912,-22.461,-15.625,-26.367,-10.742,0.000
1673806166.916,-34.180,-15.625,-23.926,-18.066,0.000
1673806166.920,-34.180,-18.066,-26.855,-21.973,0.000
1673806166.924,-18.555,-18.555,-29.297,-29.785,0.000
1673806166.928,-14.648,-17.090,-24.902,-21.484,0.000
1673806166.932,-25.391,-20.996,-24.902,-16.113,0.000
1673806166.936,-20.508,-22.949,-27.832,-21.973,0.000
1673806166.940,-14.160,-20.020,-25.391,-20.020,0.000
1673806166.943,-14.648,-19.531,-27.832,-20.508,0.000
1673806166.947,-27.344,-22.949,-32.227,-16.602,0.000
1673806166.951,-27.832,-18.066,-29.785,-5.371,0.000
1673806166.955,-13.672,-12.207,-22.461,-8.301,0.000
1673806166.959,-12.695,-15.625,-20.508,-9.277,0.000
1673806166.963,-14.160,-18.066,-25.391,-9.766,0.000
1673806166.967,-15.625,-24.902,-33.691,-11.230,0.000
1673806166.971,-11.719,-26.855,-36.133,-6.348,0.000
1673806166.975,-16.602,-29.297,-33.691,-15.625,0.000
1673806166.979,-31.250,-37.109,-37.109,-24.902,0.000
1673806166.983,-37.109,-33.203,-34.668,-23.438,0.000
1673806166.986,-31.738,-25.879,-31.250,-25.879,0.000
1673806166.990,-12.207,-27.344,-31.250,-29.297,0.000
1673806166.994,-6.348,-27.344,-27.344,-24.902,0.000
1673806166.998,-4.395,-25.879,-25.879,-16.113,0.000
1673806167.002,-6.836,-26.367,-22.949,-10.254,0.000
1673806167.006,-21.973,-26.855,-20.508,-10.254,0.000
1673806167.010,-27.344,-27.832,-19.531,-14.160,0.000
1673806167.014,-23.926,-26.367,-16.602,-10.742,0.000
1673806167.018,-9.766,-19.043,-13.184,1.953,0.000
1673806167.022,-9.277,-19.043,-16.113,-8.301,0.000
1673806167.026,-23.438,-20.508,-22.461,-18.555,0.000
1673806167.029,-28.320,-19.531,-25.879,-19.043,0.000
1673806167.033,-27.832,-17.578,-21.973,-25.879,0.000
1673806167.037,-28.320,-12.695,-16.602,-29.297,0.000
1673806167.041,-11.719,-14.160,-18.555,-29.297,0.000
1673806167.045,0.977,-15.137,-19.531,-24.902,0.000
1673806167.049,-20.020,-15.625,-23.926,-20.020,0.000
1673806167.053,-22.461,-14.648,-25.879,-17.578,0.000
1673806167.057,-17.578,-12.695,-25.879,-19.531,0.000
1673806167.061,-18.066,-16.113,-26.855,-24.902,0.000
1673806167.065,-20.020,-16.602,-26.367,-32.227,0.000
1673806167.068,-20.020,-17.578,-30.273,-35.645,0.000
1673806167.072,-21.973,-20.508,-27.344,-35.156,0.000
1673806167.076,-20.996,-15.137,-26.367,-29.297,0.000
1673806167.080,-7.324,-11.230,-31.250,-23.438,0.000
1673806167.084,-7.324,-15.625,-26.367,-17.090,0.000
1673806167.088,-8.301,-20.508,-25.391,-22.949,0.000
1673806167.092,-10.254,-18.555,-27.344,-20.508,0.000
1673806167.096,-28.320,-20.020,-27.832,-5.859,0.000
1673806167.100,-38.086,-27.832,-29.297,-4.395,0.000
1673806167.104,-32.227,-29.785,-30.273,0.000,0.000
1673806167.108,-16.602,-23.438,-23.926,3.418,0.000
1673806167.111,-8.789,-17.578,-21.484,2.441,0.000
1673806167.115,-14.648,-21.973,-18.555,4.395,0.000
1673806167.119,-25.391,-18.555,-19.043,0.000,0.000
1673806167.123,-25.879,-15.137,-21.973,-4.395,0.000
1673806167.127,-14.160,-15.137,-21.484,-7.324,0.000
1673806167.131,-5.371,-15.625,-22.949,-6.348,0.000
1673806167.135,-9.277,-17.090,-21.973,-7.812,0.000
1673806167.139,-16.113,-15.137,-22.461,-12.695,0.000
1673806167.143,-17.578,-15.137,-22.461,-13.184,0.000
1673806167.147,-19.043,-12.207,-22.461,-11.719,0.000
1673806167.151,-13.672,-15.137,-23.438,-9.277,0.000
1673806167.154,-13.672,-23.438,-24.902,-9.766,0.000
1673806167.158,-18.066,-20.020,-23.438,-16.113,0.000
1673806167.162,-2.930,-9.766,-20.020,-10.742,0.000
1673806167.166,9.766,-7.324,-17.578,-2.441,0.000
1673806167.170,-14.648,-15.137,-19.531,-7.812,0.000
1673806167.174,-41.504,-23.926,-23.926,-14.160,0.000
1673806167.178,-21.973,-19.043,-23.926,-13.672,0.000
1673806167.182,-9.277,-15.137,-19.043,-5.859,0.000
1673806167.186,-20.508,-17.578,-17.578,-11.719,0.000
1673806167.190,-31.738,-17.090,-19.043,-16.113,0.000
1673806167.193,-30.762,-16.113,-18.066,-13.184,0.000
1673806167.197,-27.832,-21.973,-19.531,-10.254,0.000
1673806167.201,-24.902,-25.879,-29.297,-20.020,0.000
1673806167.205,-24.414,-22.461,-30.273,-29.297,0.000
1673806167.209,-21.484,-20.508,-29.297,-26.367,0.000
1673806167.213,-20.508,-20.996,-33.203,-33.203,0.000
1673806167.217,-21.484,-16.602,-27.832,-32.715,0.000
1673806167.221,-27.832,-21.484,-25.391,-23.926,0.000
1673806167.225,-27.344,-20.508,-22.461,-25.391,0.000
1673806167.229,-17.578,-18.066,-20.020,-26.367,0.000
1673806167.233,-17.090,-19.043,-20.020,-22.461,0.000
1673806167.236,-20.996,-21.484,-19.043,-17.090,0.000
1673806167.240,-4.395,-15.625,-17.578,-8.301,0.000
1673806167.244,-5.371,-11.719,-19.531,-7.812,0.000
1673806167.248,-35.645,-20.020,-20.508,-6.836,0.000
1673806167.252,-37.109,-19.043,-20.020,-1.465,0.000
1673806167.256,-19.043,-15.137,-22.949,-7.812,0.000
1673806167.260,-8.301,-15.625,-21.973,-21.973,0.000
1673806167.264,-0.977,-10.742,-19.043,-29.297,0.000
1673806167.268,-0.977,-9.277,-22.461,-19.043,0.000
1673806167.272,-22.461,-13.184,-22.949,-15.625,0.000
1673806167.276,-28.320,-15.137,-17.090,-14.648,0.000
1673806167.279,-36.621,-14.648,-20.508,-7.812,0.000
1673806167.283,-33.203,-10.742,-20.020,-0.977,0.000
1673806167.287,-18.555,-17.090,-18.066,0.488,0.000
1673806167.291,-34.180,-18.555,-23.438,-3.418,0.000
1673806167.295,-23.926,-13.184,-19.043,3.906,0.000
1673806167.299,-1.465,-5.859,-11.230,10.742,0.000
1673806167.303,-5.859,-2.930,-10.742,0.000,0.000
1673806167.307,-15.625,-9.766,-10.742,-15.137,0.000
1673806167.311,-16.602,-11.719,-10.742,-16.602,0.000
1673806167.315,-0.977,-5.859,-6.836,-7.324,0.000
1673806167.318,7.812,-0.488,-6.348,-10.254,0.000
1673806167.322,7.812,-3.906,-9.277,-27.832,0.000
1673806167.326,9.277,-6.836,-8.301,-29.785,0.000
1673806167.330,-21.484,-4.883,-7.812,-25.391,0.000
1673806167.334,-36.133,-5.859,-5.859,-17.090,0.000
1673806167.338,-20.996,-8.789,-10.742,-12.207,0.000
1673806167.342,-16.113,-5.371,-7.812,-10.254,0.000
1673806167.346,-13.184,-4.883,-0.977,-6.348,0.000
1673806167.350,-9.766,-3.906,-8.301,-7.324,0.000
1673806167.354,1.953,1.953,-8.301,-5.371,0.000
1673806167.358,11.719,5.859,-1.465,-7.324,0.000
1673806167.361,8.789,2.441,2.441,7.812,0.000
1673806167.365,-6.348,-5.371,3.906,27.344,0.000
1673806167.369,-5.859,-4.883,0.000,29.785,0.000
1673806167.373,5.859,0.488,-4.395,24.414,0.000
1673806167.377,21.973,-0.488,-6.836,-5.859,0.000
1673806167.381,28.320,2.441,-9.766,-19.043,0.000
1673806167.385,11.719,-3.418,-8.789,-6.348,0.000
1673806167.389,-3.418,-15.137,-8.789,2.930,0.000
1673806167.393,2.441,-9.766,-7.812,8.789,0.000
1673806167.397,17.090,-6.348,-7.324,4.395,0.000
1673806167.401,7.324,-7.812,-16.113,-0.488,0.000
1673806167.404,-22.949,-2.441,-18.066,0.977,0.000
1673806167.408,-21.484,-7.324,-13.672,9.766,0.000
1673806167.412,-18.555,-14.160,-16.113,0.000,0.000
1673806167.416,-18.066,-6.348,-21.973,-7.812,0.000
1673806167.420,-16.113,-12.695,-22.949,-12.695,0.000
1673806167.424,-14.160,-11.719,-19.043,-17.090,0.000
1673806167.428,-1.465,-9.766,-17.090,-21.973,0.000
1673806167.432,3.418,-8.301,-20.508,-20.020,0.000
1673806167.436,-1.953,-5.859,-20.508,-8.789,0.000
1673806167.440,-16.113,-17.090,-19.043,-16.113,0.000
1673806167.443,-25.879,-15.625,-23.926,-15.137,0.000
1673806167.447,-22.949,-5.371,-20.020,-4.883,0.000
1673806167.451,-20.020,-7.812,-10.742,-0.488,0.000
1673806167.455,-9.277,-15.137,-16.113,-6.836,0.000
1673806167.459,13.672,-13.672,-16.602,-9.766,0.000
1673806167.463,-3.418,-12.695,-10.254,-3.906,0.000
1673806167.467,-29.785,-19.531,-12.695,-0.977,0.000
1673806167.471,-32.227,-23.438,-15.137,-0.488,0.000
1673806167.475,-27.832,-16.602,-14.648,4.883,0.000
1673806167.479,-19.531,-10.742,-13.184,5.371,0.000
1673806167.483,-21.973,-12.695,-15.625,4.883,0.000
1673806167.486,-25.391,-14.160,-17.578,7.324,0.000
1673806167.490,-14.160,-13.184,-16.113,2.930,0.000
1673806167.494,-8.789,-12.695,-24.414,-4.395,0.000
1673806167.498,-18.066,-15.625,-23.926,-0.488,0.000
1673806167.502,-17.578,-20.996,-16.602,-3.418,0.000
1673806167.506,-9.277,-17.090,-20.020,-16.602,0.000
1673806167.510,-7.324,-9.277,-23.438,-16.602,0.000
1673806167.514,-15.625,-20.020,-27.344,-22.461,0.000
1673806167.518,-16.602,-28.809,-29.297,-32.715,0.000
1673806167.522,-15.137,-22.461,-20.996,-31.250,0.000
1673806167.526,-17.578,-18.066,-22.949,-29.785,0.000
1673806167.529,-27.344,-17.090,-28.809,-25.879,0.000
1673806167.533,-27.344,-20.020,-28.809,-18.555,0.000
1673806167.537,-14.648,-28.809,-27.832,-18.066,0.000
1673806167.541,-6.836,-21.973,-21.484,-19.043,0.000
1673806167.545,-27.344,-12.695,-22.461,-15.625,0.000
1673806167.549,-57.617,-15.137,-25.879,-18.555,0.000
1673806167.553,-51.758,-23.438,-25.391,-15.625,0.000
1673806167.557,-35.156,-26.367,-20.996,-0.488,0.000
1673806167.561,-28.320,-17.090,-24.414,3.906,0.000
1673806167.565,-16.113,-19.531,-21.484,4.883,0.000
1673806167.568,-4.883,-20.996,-18.066,1.953,0.000
1673806167.572,-1.953,-16.602,-21.484,-5.859,0.000
1673806167.576,-4.395,-20.508,-22.949,-5.859,0.000
1673806167.580,-17.090,-18.066,-20.020,-6.836,0.000
1673806167.584,-13.672,-12.695,-18.066,-4.395,0.000
1673806167.588,-5.371,-16.113,-20.996,0.000,0.000
1673806167.592,-20.020,-21.484,-22.949,-3.906,0.000
1673806167.596,-17.090,-19.531,-24.902,-2.441,0.000
1673806167.600,-18.066,-20.996,-23.438,-3.418,0.000
1673806167.604,-21.973,-21.484,-24.414,-8.301,0.000
1673806167.608,-25.391,-16.602,-22.461,-8.789,0.000
1673806167.611,-25.391,-13.184,-15.625,-11.719,0.000
1673806167.615,-17.090,-14.648,-14.160,-7.324,0.000
1673806167.619,-14.160,-17.090,-17.090,-3.906,0.000
1673806167.623,-13.672,-21.973,-18.066,-19.043,0.000
1673806167.627,-18.555,-26.367,-17.578,-31.738,0.000
1673806167.631,-11.719,-15.137,-17.578,-13.672,0.000
1673806167.635,-19.531,-11.230,-14.648,-0.977,0.000
1673806167.639,-20.996,-11.719,-13.184,-4.883,0.000
1673806167.643,1.953,-9.766,-7.812,0.488,0.000
1673806167.647,2.930,-13.184,-8.789,-1.465,0.000
1673806167.651,-10.254,-14.648,-18.066,-0.977,0.000
1673806167.654,-18.555,-12.207,-19.043,-4.395,0.000
1673806167.658,-20.020,-15.137,-19.531,-15.137,0.000
1673806167.662,-14.648,-16.113,-17.578,-15.137,0.000
1673806167.666,-21.484,-14.160,-17.578,-13.672,0.000
1673806167.670,-18.066,-12.695,-23.926,-12.207,0.000
1673806167.674,-3.906,-9.766,-22.461,-14.648,0.000
1673806167.678,3.906,-13.184,-20.508,-10.742,0.000
1673806167.682,-5.371,-19.043,-28.320,-11.719,0.000
1673806167.686,-14.648,-17.090,-30.273,-14.160,0.000
1673806167.690,-21.484,-20.508,-25.391,-10.742,0.000
1673806167.693,-14.160,-19.043,-25.879,-12.207,0.000
1673806167.697,-13.672,-15.137,-26.855,-15.625,0.000
1673806167.701,-21.973,-16.113,-22.949,-19.531,0.000
1673806167.705,-20.508,-18.066,-24.902,-11.230,0.000
1673806167.709,-25.391,-21.973,-24.902,-8.301,0.000
1673806167.713,-23.926,-22.461,-18.066,-11.719,0.000
1673806167.717,-26.367,-25.391,-17.578,-8.301,0.000
1673806167.721,-29.297,-25.879,-16.602,-18.555,0.000
1673806167.725,-22.461,-24.414,-20.508,-27.344,0.000
1673806167.729,-26.367,-24.414,-25.391,-21.973,0.000
1673806167.733,-20.996,-19.043,-23.438,-22.949,0.000
1673806167.736,-10.254,-16.602,-22.949,-29.297,0.000
1673806167.740,-10.254,-16.602,-30.273,-34.668,0.000
1673806167.744,-14.648,-17.090,-29.297,-38.086,0.000
1673806167.748,-36.621,-19.043,-20.508,-21.973,0.000
1673806167.752,-46.387,-21.484,-20.508,-11.719,0.000
1673806167.756,-41.992,-17.578,-20.996,-15.625,0.000
1673806167.760,-33.203,-18.555,-23.438,-25.879,0.000
1673806167.764,-23.438,-17.090,-27.344,-23.438,0.000
1673806167.768,-19.531,-13.184,-21.484,-9.277,0.000
1673806167.772,-16.113,-18.066,-24.902,-19.531,0.000
1673806167.776,-26.367,-20.508,-28.809,-35.645,0.000
1673806167.779,-45.410,-20.996,-24.902,-23.438,0.000
1673806167.783,-41.504,-23.926,-29.297,-12.695,0.000
1673806167.787,-29.785,-25.879,-28.809,-27.344,0.000
1673806167.791,-20.020,-24.414,-23.926,-29.785,0.000
1673806167.795,-25.879,-26.855,-21.484,-23.438,0.000
1673806167.799,-47.852,-25.879,-20.508,-15.137,0.000
1673806167.803,-43.945,-17.090,-18.555,-9.766,0.000
1673806167.807,-33.691,-18.066,-20.996,-22.461,0.000
1673806167.811,-29.297,-24.414,-26.367,-27.832,0.000
1673806167.815,-24.902,-23.438,-24.414,-20.996,0.000
1673806167.818,-23.926,-25.391,-22.949,-19.531,0.000
1673806167.822,-21.484,-22.949,-25.391,-29.297,0.000
1673806167.826,-15.137,-17.090,-24.414,-33.691,0.000
1673806167.830,-8.789,-23.926,-21.484,-22.949,0.000
1673806167.834,-14.648,-23.926,-22.461,-21.973,0.000
1673806167.838,-31.738,-18.066,-20.508,-30.273,0.000
1673806167.842,-21.484,-14.160,-16.113,-32.227,0.000
1673806167.846,-12.695,-14.648,-17.578,-30.273,0.000
1673806167.850,-38.574,-16.602,-21.484,-26.367,0.000
1673806167.854,-30.762,-16.602,-23.438,-23.926,0.000
1673806167.858,-18.555,-18.555,-21.484,-20.020,0.000
1673806167.861,-35.645,-23.438,-21.973,-16.602,0.000
1673806167.865,-37.109,-21.973,-22.949,-19.531,0.000
1673806167.869,-18.066,-16.602,-17.578,-22.461,0.000
1673806167.873,-21.484,-16.113,-14.160,-24.414,0.000
1673806167.877,-28.809,-18.066,-16.602,-27.344,0.000
1673806167.881,-14.160,-16.602,-13.184,-17.578,0.000
1673806167.885,-17.090,-10.742,-10.742,-12.695,0.000
1673806167.889,-34.668,-20.508,-13.184,-21.973,0.000
1673806167.893,-23.438,-26.855,-16.602,-26.367,0.000
1673806167.897,-7.324,-16.602,-15.625,-23.438,0.000
1673806167.901,-7.324,-16.113,-16.602,-16.602,0.000
1673806167.904,-16.602,-22.461,-20.996,-11.230,0.000
1673806167.908,-24.414,-20.996,-24.414,-20.508,0.000
1673806167.912,-28.809,-19.531,-25.391,-21.484,0.000
1673806167.916,-27.344,-22.461,-25.879,-19.531,0.000
1673806167.920,-25.879,-25.391,-24.414,-18.555,0.000
1673806167.924,-14.160,-20.996,-22.461,-26.367,0.000
1673806167.928,-1.465,-19.043,-20.996,-27.832,0.000
1673806167.932,5.371,-19.043,-26.855,-20.020,0.000
1673806167.936,-12.207,-14.648,-24.902,-15.625,0.000
1673806167.940,-34.180,-13.672,-19.531,-8.301,0.000
1673806167.943,-25.879,-15.625,-17.090,-4.883,0.000
1673806167.947,-10.742,-14.648,-18.066,-3.906,0.000
1673806167.951,-19.531,-17.090,-26.367,-9.766,0.000
1673806167.955,-28.809,-22.949,-27.344,-12.207,0.000
1673806167.959,-13.672,-16.602,-23.438,-9.277,0.000
1673806167.963,-11.230,-14.648,-21.484,-9.277,0.000
1673806167.967,-35.156,-19.043,-21.484,-9.766,0.000
1673806167.971,-30.273,-14.160,-22.949,-10.254,0.000
1673806167.975,-20.020,-15.137,-20.020,-15.137,0.000
1673806167.979,-30.762,-23.926,-23.926,-17.578,0.000
1673806167.983,-35.156,-27.832,-27.344,-12.207,0.000
1673806167.986,-33.691,-27.344,-22.461,-12.207,0.000
1673806167.990,-20.508,-18.066,-19.531,-12.695,0.000
1673806167.994,-8.789,-12.207,-19.531,-16.602,0.000
1673806167.998,-22.461,-17.090,-21.973,-22.949,0.000
1673806168.002,-24.414,-18.555,-18.066,-18.066,0.000
1673806168.006,-24.414,-17.578,-16.602,-13.672,0.000
1673806168.010,-27.832,-17.578,-20.508,-25.879,0.000
1673806168.014,-23.926,-21.484,-26.855,-40.527,0.000
1673806168.018,-7.812,-21.484,-30.273,-38.574,0.000
1673806168.022,5.859,-12.695,-28.320,-28.320,0.000
1673806168.026,-15.137,-7.324,-26.367,-36.621,0.000
1673806168.029,-35.156,-4.395,-21.973,-28.320,0.000
1673806168.033,-28.809,-3.418,-22.949,-19.531,0.000
1673806168.037,-1.465,0.000,-20.020,-16.602,0.000
1673806168.041,12.207,-0.977,-18.066,-15.625,0.000
1673806168.045,-6.348,-11.230,-20.020,-23.926,0.000
1673806168.049,-36.621,-15.137,-16.113,-10.742,0.000
1673806168.053,-41.504,-8.301,-14.648,-1.465,0.000
1673806168.057,-37.109,-12.695,-20.020,-17.578,0.000
1673806168.061,-35.645,-19.531,-25.391,-22.949,0.000
1673806168.065,-16.602,-15.625,-26.367,-20.996,0.000
1673806168.068,3.906,-10.742,-20.020,-20.996,0.000
1673806168.072,4.395,-13.184,-17.578,-24.414,0.000
1673806168.076,-9.766,-17.578,-22.949,-20.508,0.000
1673806168.080,-19.531,-18.555,-25.879,-9.277,0.000
1673806168.084,-27.344,-20.508,-26.367,-4.395,0.000
1673806168.088,-18.555,-18.066,-24.414,-13.184,0.000
1673806168.092,-9.766,-15.137,-21.973,-27.832,0.000
1673806168.096,-11.719,-16.113,-19.043,-26.367,0.000
1673806168.100,-22.949,-19.531,-23.438,-17.090,0.000
1673806168.104,-38.086,-24.902,-27.832,-19.043,0.000
1673806168.108,-38.574,-30.273,-26.367,-20.508,0.000
1673806168.111,-32.715,-23.926,-20.996,-13.184,0.000
1673806168.115,-20.996,-12.695,-16.113,-3.906,0.000
1673806168.119,-17.090,-13.184,-19.531,-8.789,0.000
1673806168.123,-16.113,-21.484,-21.973,-30.273,0.000
1673806168.127,-16.113,-31.738,-23.926,-25.391,0.000
1673806168.131,-11.230,-32.227,-20.020,-4.395,0.000
1673806168.135,-14.648,-18.066,-15.625,-5.859,0.000
1673806168.139,-19.531,-14.160,-20.020,-15.137,0.000
1673806168.143,-4.883,-12.695,-20.996,-19.043,0.000
1673806168.147,-5.371,-18.555,-25.879,-25.391,0.000
1673806168.151,-20.508,-20.996,-24.414,-26.855,0.000
1673806168.154,-21.973,-19.043,-22.461,-28.320,0.000
1673806168.158,-15.625,-21.973,-21.484,-32.227,0.000
1673806168.162,-14.160,-24.902,-18.555,-38.574,0.000
1673806168.166,-14.160,-26.855,-19.531,-28.809,0.000
1673806168.170,-9.277,-27.344,-23.438,-17.090,0.000
1673806168.174,-11.719,-23.926,-19.531,-20.508,0.000
1673806168.178,-12.695,-15.137,-15.137,-23.438,0.000
1673806168.182,-12.695,-14.160,-16.602,-24.902,0.000
1673806168.186,-37.109,-20.508,-15.137,-16.113,0.000
1673806168.190,-42.480,-22.461,-17.090,-15.137,0.000
1673806168.193,-34.668,-27.832,-19.531,-29.785,0.000
1673806168.197,-20.508,-17.578,-13.672,-19.043,0.000
1673806168.201,-9.766,-13.184,-9.766,-5.859,0.000
1673806168.205,-23.926,-17.090,-15.625,-12.695,0.000
1673806168.209,-29.297,-9.277,-14.648,-22.461,0.000
1673806168.213,-13.672,-4.883,-7.324,-18.066,0.000
1673806168.217,0.000,-0.977,-0.977,-1.953,0.000
1673806168.221,-1.465,-1.465,-2.441,4.395,0.000
1673806168.225,-9.766,-1.465,-3.418,-7.324,0.000
1673806168.229,-2.441,-0.977,-2.930,-17.090,0.000
1673806168.233,-8.301,-4.395,-3.906,-12.695,0.000
1673806168.236,-24.902,-4.883,-10.742,-13.672,0.000
1673806168.240,-13.184,0.000,-15.625,-20.996,0.000
1673806168.244,-0.977,0.000,-14.648,-15.137,0.000
1673806168.248,-2.441,-10.254,-15.137,-10.254,0.000
1673806168.252,-5.371,-10.742,-12.695,-11.230,0.000
1673806168.256,3.906,3.418,-9.766,-6.836,0.000
1673806168.260,17.090,9.277,-7.324,-6.348,0.000
1673806168.264,4.883,2.441,-9.766,-3.418,0.000
1673806168.268,-20.020,-5.371,-10.742,2.441,0.000
1673806168.272,-13.672,0.488,-6.348,4.883,0.000
1673806168.276,-2.441,1.953,-2.441,10.254,0.000
1673806168.279,3.418,-7.324,-0.977,14.648,0.000
1673806168.283,0.488,-10.254,-9.277,5.859,0.000
1673806168.287,6.348,-1.953,-6.348,0.977,0.000
1673806168.291,18.066,0.977,-4.395,2.441,0.000
1673806168.295,-5.859,-7.812,-7.324,4.883,0.000
1673806168.299,-20.020,-8.301,-3.906,12.695,0.000
1673806168.303,-16.602,-4.395,-0.488,14.648,0.000
1673806168.307,-17.090,-8.301,-0.977,9.766,0.000
1673806168.311,-10.254,-9.277,-6.836,10.742,0.000
1673806168.315,0.977,-13.184,-5.859,11.230,0.000
1673806168.318,-1.953,-14.160,-2.930,3.418,0.000
1673806168.322,-1.465,-5.371,-2.930,0.000,0.000
1673806168.326,-2.441,-4.395,-7.812,-10.254,0.000
1673806168.330,-11.719,-5.371,-10.742,-12.207,0.000
1673806168.334,-18.066,-3.418,-2.441,-1.465,0.000
1673806168.338,-36.621,-9.277,-6.348,2.441,0.000
1673806168.342,-36.133,-9.766,-19.531,-10.254,0.000
1673806168.346,-19.531,-10.742,-17.578,-15.137,0.000
1673806168.350,-7.812,-7.324,-10.254,-8.789,0.000
1673806168.354,3.418,-1.465,-11.230,-13.184,0.000
1673806168.358,9.277,-3.906,-10.742,-20.508,0.000
1673806168.361,1.465,-10.742,-13.184,-17.578,0.000
1673806168.365,-6.836,-12.207,-19.043,-20.508,0.000
1673806168.369,-14.648,-10.742,-19.043,-24.414,0.000
1673806168.373,-21.484,-12.695,-18.555,-23.926,0.000
1673806168.377,-23.926,-14.160,-18.555,-21.973,0.000
1673806168.381,-15.137,-12.207,-17.090,-17.090,0.000
1673806168.385,-5.371,-12.207,-19.043,-19.043,0.000
1673806168.389,-14.160,-14.160,-21.973,-23.438,0.000
1673806168.393,-16.602,-16.113,-20.020,-29.297,0.000
1673806168.397,-4.883,-16.602,-20.508,-33.691,0.000
1673806168.401,-15.625,-16.602,-20.508,-22.461,0.000
1673806168.404,-34.180,-21.973,-20.508,-17.090,0.000
1673806168.408,-39.551,-28.809,-25.391,-26.855,0.000
1673806168.412,-41.504,-24.414,-25.391,-14.648,0.000
1673806168.416,-55.176,-27.832,-26.855,-11.230,0.000
1673806168.420,-59.570,-32.227,-32.715,-33.203,0.000
1673806168.424,-41.992,-29.297,-33.203,-47.363,0.000
1673806168.428,-31.738,-31.738,-30.762,-50.781,0.000
1673806168.432,-22.461,-28.320,-32.227,-40.039,0.000
1673806168.436,-14.160,-23.438,-31.250,-29.785,0.000
1673806168.440,-7.324,-15.625,-22.949,-29.785,0.000
1673806168.443,-5.859,-14.648,-20.020,-25.879,0.000
1673806168.447,-5.859,-16.113,-25.879,-20.996,0.000
1673806168.451,-14.160,-14.160,-23.438,-10.742,0.000
1673806168.455,-24.414,-16.113,-20.020,-6.348,0.000
1673806168.459,-5.859,-17.090,-21.973,-12.695,0.000
1673806168.463,12.207,-15.137,-21.973,-18.555,0.000
1673806168.467,-7.812,-18.066,-24.414,-17.090,0.000
1673806168.471,-29.297,-18.555,-30.762,-11.230,0.000
1673806168.475,-19.043,-11.719,-27.832,-10.742,0.000
1673806168.479,-19.531,-15.137,-23.926,-16.602,0.000
1673806168.483,-35.645,-20.996,-21.484,-19.531,0.000
1673806168.486,-39.062,-17.090,-21.973,-14.160,0.000
1673806168.490,-20.996,-10.742,-23.438,-18.555,0.000
1673806168.494,-15.137,-18.555,-24.414,-24.414,0.000
1673806168.498,-15.137,-19.043,-23.438,-13.184,0.000
1673806168.502,-18.555,-10.254,-17.578,1.953,0.000
1673806168.506,-32.227,-8.789,-14.160,6.348,0.000
1673806168.510,-31.250,-9.766,-17.578,-6.836,0.000
1673806168.514,-16.602,-5.859,-19.531,-7.812,0.000
1673806168.518,-8.789,-7.324,-18.555,-4.883,0.000
1673806168.522,-9.766,-14.160,-20.508,-9.277,0.000
1673806168.526,-0.488,-18.066,-21.973,-15.137,0.000
1673806168.529,10.254,-12.695,-20.508,-15.137,0.000
1673806168.533,-4.395,-13.672,-18.066,-7.812,0.000
1673806168.537,-11.230,-20.508,-24.414,-8.789,0.000
1673806168.541,-3.418,-23.438,-25.879,-14.160,0.000
1673806168.545,-15.137,-22.949,-20.508,-12.695,0.000
1673806168.549,-20.020,-21.973,-17.578,-5.859,0.000
1673806168.553,1.465,-15.137,-17.090,-0.488,0.000
1673806168.557,14.160,-10.254,-17.578,-0.488,0.000
1673806168.561,22.461,-17.090,-20.508,0.488,0.000
1673806168.565,11.230,-18.066,-23.438,-1.953,0.000
1673806168.568,-21.484,-12.207,-20.996,-3.418,0.000
1673806168.572,-30.762,-12.207,-20.996,-9.766,0.000
1673806168.576,-31.250,-14.648,-20.508,-13.184,0.000
1673806168.580,-26.367,-13.672,-20.996,-7.324,0.000
1673806168.584,-19.043,-12.207,-22.461,-5.859,0.000
1673806168.588,-17.090,-13.184,-24.902,-14.648,0.000
1673806168.592,-14.160,-13.184,-25.879,-19.043,0.000
1673806168.596,-20.020,-17.090,-26.855,-22.949,0.000
1673806168.600,-20.996,-20.020,-24.902,-22.949,0.000
1673806168.604,-26.367,-19.043,-22.461,-24.414,0.000
1673806168.608,-35.645,-25.391,-22.461,-31.250,0.000
1673806168.611,-28.809,-21.973,-19.531,-28.809,0.000
1673806168.615,-18.066,-13.672,-17.090,-20.020,0.000
1673806168.619,-8.301,-9.766,-15.625,-19.043,0.000
1673806168.623,-8.301,-5.371,-19.531,-13.672,0.000
1673806168.627,-22.949,-11.719,-26.367,-12.207,0.000
1673806168.631,-30.273,-25.879,-24.902,-12.695,0.000
1673806168.635,-25.879,-25.391,-21.484,-9.766,0.000
1673806168.639,-16.602,-14.160,-20.508,-12.695,0.000
1673806168.643,-9.277,-17.578,-19.043,-17.090,0.000
1673806168.647,-14.160,-26.855,-15.625,-16.602,0.000
1673806168.651,-16.602,-23.926,-15.137,-10.742,0.000
1673806168.654,-21.484,-17.578,-21.484,-12.695,0.000
1673806168.658,-26.855,-18.555,-25.879,-15.137,0.000
1673806168.662,-9.277,-18.066,-24.414,-4.395,0.000
1673806168.666,-3.906,-24.414,-20.020,2.930,0.000
1673806168.670,-7.324,-35.645,-21.484,0.000,0.000
1673806168.674,-5.859,-27.344,-20.996,-9.277,0.000
1673806168.678,-12.695,-19.531,-18.555,-16.113,0.000
1673806168.682,-12.695,-21.484,-20.020,-16.602,0.000
1673806168.686,-25.391,-17.578,-18.555,-11.719,0.000
1673806168.690,-29.785,-20.020,-18.066,-20.020,0.000
1673806168.693,-36.621,-20.508,-19.531,-28.809,0.000
1673806168.697,-31.250,-11.719,-21.484,-17.578,0.000
1673806168.701,-16.602,-12.207,-27.832,-19.043,0.000
1673806168.705,-20.996,-17.090,-26.855,-23.438,0.000
1673806168.709,-28.809,-17.090,-21.973,-21.973,0.000
1673806168.713,-29.785,-12.695,-24.414,-19.043,0.000
1673806168.717,-28.320,-15.625,-28.320,-13.184,0.000
1673806168.721,-30.273,-15.625,-20.996,-8.789,0.000
1673806168.725,-26.855,-15.625,-17.578,-8.301,0.000
1673806168.729,-13.184,-19.531,-19.531,-11.230,0.000
1673806168.733,-25.879,-15.625,-22.461,-6.836,0.000
1673806168.736,-42.480,-17.090,-25.879,-5.859,0.000
1673806168.740,-27.832,-14.160,-24.414,-9.277,0.000
1673806168.744,-12.207,-13.184,-22.949,-12.207,0.000
1673806168.748,-14.648,-17.578,-26.367,-10.742,0.000
1673806168.752,-22.949,-16.113,-27.832,-9.277,0.000
1673806168.756,-15.137,-4.395,-19.043,-10.742,0.000
1673806168.760,-20.020,-2.930,-18.066,-11.719,0.000
1673806168.764,-26.367,-15.137,-27.344,-13.672,0.000
1673806168.768,-18.066,-7.812,-24.414,-11.719,0.000
1673806168.772,-3.906,0.488,-17.578,-12.695,0.000
1673806168.775,0.488,-11.719,-20.020,-22.949,0.000
1673806168.779,7.812,-16.602,-21.484,-24.902,0.000
1673806168.783,5.859,-10.254,-20.508,-12.207,0.000
1673806168.787,-11.230,-12.207,-17.090,-6.348,0.000
1673806168.791,-17.090,-16.602,-20.508,-12.207,0.000
1673806168.795,-16.602,-18.066,-25.879,-16.602,0.000
1673806168.799,-6.348,-15.137,-25.879,-7.812,0.000
1673806168.803,-9.766,-12.207,-20.508,3.906,0.000
1673806168.807,-32.715,-14.648,-15.137,-10.254,0.000
1673806168.811,-23.438,-17.578,-16.602,-20.996,0.000
1673806168.815,-3.906,-17.578,-20.508,-16.602,0.000
1673806168.818,-2.441,-18.555,-22.949,-22.461,0.000
1673806168.822,-15.137,-24.414,-22.949,-32.715,0.000
1673806168.826,-20.996,-24.902,-20.996,-29.297,0.000
1673806168.830,-28.320,-27.344,-20.996,-27.344,0.000
1673806168.834,-48.828,-30.273,-22.461,-25.879,0.000
1673806168.838,-38.086,-26.367,-25.879,-29.297,0.000
1673806168.842,-25.391,-25.879,-22.461,-39.062,0.000
1673806168.846,-20.020,-22.949,-26.367,-35.156,0.000
1673806168.850,-22.949,-19.531,-29.297,-19.043,0.000
1673806168.854,-26.855,-21.973,-25.879,-19.043,0.000
1673806168.858,-20.996,-14.160,-21.973,-22.949,0.000
1673806168.861,-14.648,-4.883,-18.066,-21.484,0.000
1673806168.865,-15.137,-6.348,-16.602,-11.719,0.000
1673806168.869,-9.277,-7.812,-13.184,-5.859,0.000
1673806168.873,6.348,-10.254,-13.184,-18.066,0.000
1673806168.877,8.301,-19.043,-18.555,-21.973,0.000
1673806168.881,-6.836,-19.531,-21.973,-22.461,0.000
1673806168.885,-23.926,-18.555,-23.926,-23.926,0.000
1673806168.889,-25.879,-19.531,-20.020,-18.066,0.000
1673806168.893,-19.043,-11.230,-13.672,-17.090,0.000
1673806168.897,-10.742,-16.602,-15.625,-25.391,0.000
1673806168.900,-2.930,-19.531,-20.020,-20.508,0.000
1673806168.904,-7.812,-11.230,-17.090,-12.695,0.000
1673806168.908,-20.996,-10.742,-14.160,-13.672,0.000
1673806168.912,-25.391,-10.254,-15.137,-12.207,0.000
1673806168.916,-16.113,-6.348,-15.625,-4.883,0.000
1673806168.920,-14.160,-3.418,-15.625,-1.465,0.000
1673806168.924,-16.602,-12.695,-19.043,-13.672,0.000
1673806168.928,-5.859,-10.254,-20.996,-19.043,0.000
1673806168.932,2.930,-6.836,-22.461,-11.230,0.000
1673806168.936,-1.953,-17.578,-23.926,-11.719,0.000
1673806168.940,-20.508,-19.043,-21.973,-16.113,0.000
1673806168.943,-28.320,-18.066,-21.484,-20.508,0.000
1673806168.947,-22.949,-23.926,-23.438,-15.137,0.000
1673806168.951,-17.090,-20.020,-27.344,-4.395,0.000
1673806168.955,-20.508,-11.719,-25.879,-7.324,0.000
1673806168.959,-23.438,-13.184,-22.461,-13.184,0.000
1673806168.963,-20.020,-17.578,-20.508,-7.324,0.000
1673806168.967,-14.648,-13.672,-20.020,-5.371,0.000
1673806168.971,-13.672,-13.672,-20.508,-17.578,0.000
1673806168.975,-17.090,-19.531,-20.508,-26.367,0.000
1673806168.979,-6.836,-16.113,-20.996,-17.578,0.000
1673806168.983,-4.395,-7.812,-17.090,0.977,0.000
1673806168.986,-11.719,-4.883,-18.066,0.000,0.000
1673806168.990,-19.531,-15.625,-20.996,-9.277,0.000
1673806168.994,-26.367,-24.414,-14.160,-7.324,0.000
1673806168.998,-19.043,-20.996,-14.648,-8.301,0.000
1673806169.002,-20.508,-22.461,-20.508,-13.184,0.000
1673806169.006,-25.879,-21.973,-20.508,-11.230,0.000
1673806169.010,-12.695,-19.043,-20.996,-6.836,0.000
1673806169.014,8.789,-9.766,-20.996,-9.766,0.000
1673806169.018,4.395,-3.418,-17.578,0.488,0.000
1673806169.022,-42.480,-9.277,-11.719,9.766,0.000
1673806169.025,-42.969,-11.719,-11.719,-4.883,0.000
1673806169.029,-23.438,-13.184,-22.461,-18.555,0.000
1673806169.033,-28.320,-18.066,-26.855,-28.809,0.000
1673806169.037,-23.926,-21.484,-20.508,-23.438,0.000
1673806169.041,-13.184,-18.555,-17.578,-15.625,0.000
1673806169.045,-15.137,-12.695,-22.949,-16.602,0.000
1673806169.049,-13.184,-13.672,-25.391,-16.602,0.000
1673806169.053,-12.207,-19.531,-22.949,-20.508,0.000
1673806169.057,-29.297,-17.090,-18.066,-21.973,0.000
1673806169.061,-37.598,-20.020,-17.090,-19.043,0.000
1673806169.065,-27.344,-24.414,-16.113,-16.602,0.000
1673806169.068,-19.531,-23.926,-11.230,-10.742,0.000
1673806169.072,-6.348,-21.973,-11.719,0.000,0.000
1673806169.076,-13.184,-24.902,-20.020,-15.137,0.000
1673806169.080,-21.484,-22.949,-20.996,-23.926,0.000
1673806169.084,-12.207,-18.555,-21.484,-13.184,0.000
1673806169.088,-13.184,-13.184,-20.996,-13.672,0.000
1673806169.092,-29.785,-11.719,-18.066,-13.184,0.000
1673806169.096,-34.668,-14.648,-17.578,-6.348,0.000
1673806169.100,-21.484,-22.949,-20.508,-8.301,0.000
1673806169.104,-20.996,-15.625,-25.879,-16.113,0.000
1673806169.108,-28.320,-9.277,-24.902,-26.367,0.000
1673806169.111,-23.438,-16.113,-17.090,-21.484,0.000
1673806169.115,-25.391,-17.090,-15.137,-6.348,0.000
1673806169.119,-32.715,-22.461,-20.508,-7.324,0.000
1673806169.123,-38.574,-25.391,-19.531,-12.695,0.000
1673806169.127,-29.297,-18.555,-13.672,-10.254,0.000
1673806169.131,-12.207,-11.719,-14.160,-2.930,0.000
1673806169.135,-3.906,-11.719,-17.578,0.488,0.000
1673806169.139,-9.277,-14.648,-18.066,-8.301,0.000
1673806169.143,-28.320,-16.113,-11.230,-15.137,0.000
1673806169.147,-42.969,-18.066,-8.789,-12.695,0.000
1673806169.150,-39.551,-17.578,-10.254,-6.836,0.000
1673806169.154,-38.574,-17.578,-5.859,-1.465,0.000
1673806169.158,-29.785,-14.648,-3.906,-5.859,0.000
1673806169.162,-17.090,-13.672,-9.277,-6.348,0.000
1673806169.166,-15.625,-12.695,-15.137,0.000,0.000
1673806169.170,-17.578,-8.301,-11.719,-4.395,0.000
1673806169.174,-17.090,-8.301,-11.230,-4.395,0.000
1673806169.178,-7.324,-9.766,-12.207,5.859,0.000
1673806169.182,-10.254,-14.648,-12.207,-1.465,0.000
1673806169.186,-2.930,-9.277,-6.836,0.000,0.000
1673806169.190,-0.977,-1.953,-6.348,3.906,0.000
1673806169.193,-19.531,-6.348,-11.719,-2.441,0.000
1673806169.197,-22.949,-12.207,-11.719,-1.953,0.000
1673806169.201,-14.648,-6.348,-9.766,-6.348,0.000
1673806169.205,-1.465,-2.441,-11.230,-14.648,0.000
1673806169.209,-9.277,-7.324,-12.695,-18.066,0.000
1673806169.213,-13.672,-12.207,-13.184,-15.625,0.000
1673806169.217,-5.859,-9.766,-16.113,-14.648,0.000
1673806169.221,7.812,-0.977,-11.230,-10.254,0.000
1673806169.225,-9.766,-4.883,-6.836,-9.277,0.000
1673806169.229,-31.738,-10.254,-11.230,-12.207,0.000
1673806169.233,-20.996,1.465,-9.277,-3.906,0.000
1673806169.236,-11.719,-1.465,-15.625,-6.348,0.000
1673806169.240,-11.230,-16.602,-18.066,-20.020,0.000
1673806169.244,-18.555,-16.602,-7.812,-20.996,0.000
1673806169.248,-21.973,-15.137,-10.742,-12.207,0.000
1673806169.252,-19.531,-10.254,-17.090,-9.277,0.000
1673806169.256,-17.578,-11.230,-18.555,-17.578,0.000
1673806169.260,-11.230,-15.137,-18.555,-25.391,0.000
1673806169.264,-14.648,-23.438,-22.461,-27.832,0.000
1673806169.268,-13.672,-20.020,-25.879,-14.160,0.000
1673806169.272,-11.719,-12.207,-31.250,-16.113,0.000
1673806169.275,-12.695,-12.695,-37.109,-25.879,0.000
1673806169.279,-10.742,-20.508,-30.762,-12.207,0.000
1673806169.283,-6.348,-23.926,-20.020,10.254,0.000
1673806169.287,-5.371,-22.461,-22.461,6.836,0.000
1673806169.291,-6.836,-12.207,-30.273,-20.996,0.000
1673806169.295,0.977,-6.348,-26.855,-20.020,0.000
1673806169.299,0.000,-13.672,-24.902,-14.648,0.000
1673806169.303,-0.977,-7.812,-25.879,-15.137,0.000
1673806169.307,1.465,1.465,-23.926,-13.184,0.000
1673806169.311,-7.324,-0.977,-15.625,-8.301,0.000
1673806169.315,-29.785,-7.812,-13.672,-2.930,0.000
1673806169.318,-35.156,-6.348,-15.625,-9.277,0.000
1673806169.322,-29.785,-7.812,-17.090,-8.789,0.000
1673806169.326,-23.926,-16.113,-21.973,-18.555,0.000
1673806169.330,-23.438,-20.020,-27.832,-22.949,0.000
1673806169.334,-19.043,-24.414,-29.785,-28.809,0.000
1673806169.338,-20.996,-26.855,-27.344,-35.156,0.000
1673806169.342,-34.180,-19.043,-25.879,-33.691,0.000
1673806169.346,-23.438,-13.184,-21.973,-32.227,0.000
1673806169.350,-16.602,-20.508,-13.672,-24.414,0.000
1673806169.354,-22.461,-15.137,-13.184,-22.949,0.000
1673806169.358,-22.461,-11.719,-16.602,-27.832,0.000
1673806169.361,-32.227,-12.695,-14.160,-27.832,0.000
1673806169.365,-37.598,-9.277,-13.672,-22.461,0.000
1673806169.369,-24.414,-15.625,-18.555,-24.414,0.000
1673806169.373,-7.324,-17.090,-17.090,-27.832,0.000
1673806169.377,-17.090,-11.719,-12.695,-23.438,0.000
1673806169.381,-25.391,-13.184,-15.137,-19.531,0.000
1673806169.385,-6.348,-15.137,-17.090,-19.531,0.000
1673806169.389,-8.301,-18.555,-19.531,-23.438,0.000
1673806169.393,-36.133,-20.996,-18.555,-17.090,0.000
1673806169.397,-41.504,-22.949,-21.973,-17.578,0.000
1673806169.400,-25.879,-27.344,-27.344,-14.648,0.000
1673806169.404,-10.254,-21.484,-28.809,-3.418,0.000
1673806169.408,-14.648,-13.184,-31.250,-14.160,0.000
1673806169.412,-36.133,-13.184,-31.250,-19.531,0.000
1673806169.416,-36.133,-9.766,-28.320,-9.277,0.000
1673806169.420,-44.434,-9.766,-23.926,-4.395,0.000
1673806169.424,-44.434,-11.230,-21.484,-9.277,0.000
1673806169.428,-20.020,-3.418,-22.461,0.488,0.000
1673806169.432,-7.324,2.441,-19.531,8.789,0.000
1673806169.436,-7.324,-3.418,-20.508,-6.348,0.000
1673806169.440,-3.906,-9.277,-20.508,-14.648,0.000
1673806169.443,3.906,-8.301,-15.137,-13.672,0.000
1673806169.447,1.953,-10.742,-12.207,-4.395,0.000
1673806169.451,-10.742,-20.508,-14.648,-7.324,0.000
1673806169.455,-12.207,-20.020,-14.648,-10.742,0.000
1673806169.459,-7.324,-14.648,-13.184,-3.906,0.000
1673806169.463,-9.277,-9.766,-15.137,-9.766,0.000
1673806169.467,-13.184,-9.277,-15.625,-17.090,0.000
1673806169.471,-16.113,-16.113,-18.555,-18.555,0.000
1673806169.475,-10.742,-16.602,-21.973,-17.578,0.000
1673806169.479,-2.930,-10.742,-20.508,-20.508,0.000
1673806169.483,-6.348,-10.254,-24.414,-23.438,0.000
1673806169.486,-13.184,-13.184,-22.949,-17.090,0.000
1673806169.490,-21.973,-9.277,-15.625,-8.789,0.000
1673806169.494,-24.902,-11.719,-14.648,-3.906,0.000
1673806169.498,-28.809,-23.438,-18.555,-8.301,0.000
1673806169.502,-13.672,-19.531,-19.531,-18.066,0.000
1673806169.506,4.883,-10.254,-17.578,-11.719,0.000
1673806169.510,2.441,-12.207,-20.020,-11.230,0.000
1673806169.514,-23.438,-22.949,-20.508,-12.207,0.000
1673806169.518,-26.367,-24.414,-17.578,-2.930,0.000
1673806169.522,-14.648,-17.090,-18.555,-11.719,0.000
1673806169.525,-16.602,-10.742,-24.414,-22.949,0.000
1673806169.529,-13.672,-3.906,-22.949,-22.949,0.000
1673806169.533,-20.508,-9.277,-13.184,-13.184,0.000
1673806169.537,-22.949,-23.438,-10.254,-14.648,0.000
1673806169.541,-10.742,-21.973,-14.160,-18.555,0.000
1673806169.545,-3.906,-14.160,-10.742,-11.719,0.000
1673806169.549,-18.555,-15.137,-9.277,-6.836,0.000
1673806169.553,-25.391,-13.672,-14.648,0.488,0.000
1673806169.557,-22.461,-22.461,-18.555,-5.371,0.000
1673806169.561,-12.207,-25.391,-16.602,-8.301,0.000
1673806169.565,-4.395,-18.555,-15.625,-4.395,0.000
1673806169.568,3.906,-23.926,-16.113,-6.836,0.000
1673806169.572,-2.930,-24.902,-19.043,-17.578,0.000
1673806169.576,-18.555,-22.461,-23.438,-20.996,0.000
1673806169.580,-11.719,-23.926,-20.020,-19.043,0.000
1673806169.584,-4.395,-18.555,-14.160,-16.113,0.000
1673806169.588,-9.277,-17.578,-17.090,-15.137,0.000
1673806169.592,-36.621,-26.367,-22.461,-24.414,0.000
1673806169.596,-53.711,-21.973,-23.438,-31.738,0.000
1673806169.600,-36.621,-15.137,-25.391,-23.926,0.000
1673806169.604,-13.672,-15.625,-24.902,-17.578,0.000
1673806169.608,-20.020,-13.672,-21.484,-20.996,0.000
1673806169.611,-30.762,-8.301,-13.672,-11.719,0.000
1673806169.615,-30.273,-17.090,-9.277,-3.906,0.000
1673806169.619,-27.344,-23.438,-10.742,-4.883,0.000
1673806169.623,-18.066,-24.414,-13.184,-8.301,0.000
1673806169.627,-16.113,-35.645,-19.531,-18.066,0.000
1673806169.631,-20.996,-27.344,-22.461,-19.531,0.000
1673806169.635,-30.762,-21.973,-19.531,-14.160,0.000
1673806169.639,-45.898,-24.902,-18.066,-11.230,0.000
1673806169.643,-35.156,-17.090,-19.043,-10.742,0.000
1673806169.647,-18.555,-18.555,-23.926,-11.719,0.000
1673806169.650,-23.926,-23.438,-20.996,-13.672,0.000
1673806169.654,-12.207,-11.719,-11.719,-10.742,0.000
1673806169.658,-11.230,-12.207,-13.184,-5.859,0.000
1673806169.662,-22.949,-25.879,-18.555,-14.160,0.000
1673806169.666,-16.113,-19.043,-16.602,-9.766,0.000
1673806169.670,-9.766,-8.789,-16.602,-4.883,0.000
1673806169.674,-1.465,-14.648,-16.113,-17.578,0.000
1673806169.678,-7.812,-17.578,-16.602,-22.949,0.000
1673806169.682,-28.320,-16.113,-23.438,-18.066,0.000
1673806169.686,-22.461,-13.672,-20.508,-8.789,0.000
1673806169.690,-9.766,-14.648,-17.090,-7.812,0.000
1673806169.693,-15.137,-20.508,-19.531,-11.719,0.000
1673806169.697,-23.438,-17.578,-15.137,-12.207,0.000
1673806169.701,-14.160,-19.531,-12.695,-1.953,0.000
1673806169.705,-15.137,-31.250,-15.625,-3.906,0.000
1673806169.709,-16.113,-22.949,-20.508,-18.066,0.000
1673806169.713,-1.465,-10.254,-20.508,-19.531,0.000
1673806169.717,-5.859,-10.742,-12.695,-11.719,0.000
1673806169.721,-14.648,-10.742,-14.160,-14.160,0.000
1673806169.725,-23.438,-8.789,-18.066,-16.602,0.000
1673806169.729,-33.691,-12.207,-20.508,-18.066,0.000
1673806169.733,-20.996,-17.578,-25.391,-20.020,0.000
1673806169.736,-8.301,-19.531,-25.391,-18.066,0.000
1673806169.740,-26.367,-21.973,-23.926,-26.855,0.000
1673806169.744,-40.527,-19.043,-24.414,-31.250,0.000
1673806169.748,-28.320,-20.020,-24.902,-7.812,0.000
1673806169.752,-26.855,-23.926,-27.832,-2.930,0.000
1673806169.756,-23.438,-18.066,-20.508,-9.277,0.000
1673806169.760,-3.418,-14.648,-15.625,-11.719,0.000
1673806169.764,5.371,-17.578,-18.555,-26.367,0.000
1673806169.768,-4.395,-19.043,-18.555,-18.555,0.000
1673806169.772,6.836,-20.020,-19.531,-6.348,0.000
1673806169.775,12.695,-9.277,-22.461,-16.113,0.000
1673806169.779,-17.090,-4.883,-21.484,-19.043,0.000
1673806169.783,-29.785,-7.812,-13.672,-12.207,0.000
1673806169.787,-22.461,-13.184,-13.672,-4.883,0.000
1673806169.791,-15.137,-21.484,-13.184,-15.137,0.000
1673806169.795,-10.742,-14.648,-12.207,-18.555,0.000
1673806169.799,-21.484,-11.230,-15.625,-15.625,0.000
1673806169.803,-16.113,-6.836,-8.789,-11.719,0.000
1673806169.807,-2.441,-9.277,-7.324,-6.836,0.000
1673806169.811,-6.348,-10.742,-13.184,-14.648,0.000
1673806169.815,-13.184,-15.137,-17.578,-17.578,0.000
1673806169.818,-7.324,-16.113,-16.113,-14.648,0.000
1673806169.822,-7.324,-7.324,-11.230,-19.043,0.000
1673806169.826,-20.508,-9.277,-15.625,-29.297,0.000
1673806169.830,-19.043,-14.648,-16.602,-27.344,0.000
1673806169.834,-4.883,-16.602,-14.160,-16.113,0.000
1673806169.838,5.371,-13.184,-12.207,-3.418,0.000
1673806169.842,-15.625,-15.137,-12.695,-10.742,0.000
1673806169.846,-18.555,-20.508,-13.672,-14.648,0.000
1673806169.850,-3.418,-14.648,-20.020,-13.672,0.000
1673806169.854,-14.648,-9.766,-22.949,-20.508,0.000
1673806169.858,-21.484,-17.090,-12.207,-20.020,0.000
1673806169.861,-18.066,-23.926,-9.277,-21.484,0.000
1673806169.865,-20.020,-26.367,-14.648,-21.484,0.000
1673806169.869,-16.602,-13.184,-18.066,-13.184,0.000
1673806169.873,-10.254,-2.441,-19.531,-15.137,0.000
1673806169.877,-0.977,-6.836,-17.090,-12.207,0.000
1673806169.881,1.953,-11.230,-17.578,1.465,0.000
1673806169.885,-7.812,-14.648,-20.508,-0.977,0.000
1673806169.889,-23.926,-16.602,-25.391,-18.555,0.000
1673806169.893,-30.273,-15.137,-25.879,-16.113,0.000
1673806169.897,-20.996,-21.973,-17.578,-9.766,0.000
1673806169.900,-16.602,-21.484,-18.555,-9.277,0.000
1673806169.904,-10.742,-13.672,-20.020,-5.371,0.000
1673806169.908,-23.438,-11.230,-20.508,-4.883,0.000
1673806169.912,-34.180,-12.695,-19.531,-2.441,0.000
1673806169.916,-21.973,-15.625,-15.625,0.977,0.000
1673806169.920,-13.672,-19.531,-20.020,-6.348,0.000
1673806169.924,-12.695,-20.996,-20.020,-11.230,0.000
1673806169.928,-16.602,-14.648,-19.043,-3.906,0.000
1673806169.932,-38.574,-18.555,-26.367,-5.371,0.000
1673806169.936,-35.156,-28.809,-22.949,-3.418,0.000
1673806169.940,-27.832,-26.855,-18.066,-1.953,0.000
1673806169.943,-20.508,-23.926,-21.484,-4.883,0.000
1673806169.947,-15.625,-20.020,-20.996,-7.812,0.000
1673806169.951,-27.832,-10.742,-20.996,-11.719,0.000
1673806169.955,-24.414,-7.812,-18.066,-4.883,0.000
1673806169.959,-24.902,-10.254,-14.160,-4.883,0.000
1673806169.963,-17.578,-12.695,-16.113,-10.742,0.000
1673806169.967,-7.324,-10.742,-18.555,-12.207,0.000
1673806169.971,-2.441,-7.324,-16.602,-10.742,0.000
1673806169.975,-3.418,-12.695,-17.090,-14.648,0.000
1673806169.979,-15.625,-15.625,-21.484,-20.996,0.000
1673806169.983,-16.113,-12.207,-22.949,-9.277,0.000
1673806169.986,-8.789,-10.742,-18.555,-3.906,0.000
1673806169.990,-11.230,-9.277,-18.066,-15.137,0.000
1673806169.994,-19.043,-15.137,-22.949,-28.320,0.000
1673806169.998,-20.508,-26.855,-19.043,-29.785,0.000
1673806170.002,-13.184,-21.973,-12.695,-12.207,0.000
1673806170.006,-7.324,-11.719,-16.602,-2.930,0.000
1673806170.010,-2.441,-9.766,-19.531,-11.719,0.000
1673806170.014,-3.906,-10.254,-17.578,-9.766,0.000
1673806170.018,-9.277,-11.719,-18.555,1.953,0.000
1673806170.022,-22.461,-18.066,-17.090,-8.301,0.000
1673806170.025,-22.461,-19.531,-20.020,-25.391,0.000
1673806170.029,-14.160,-18.555,-23.438,-21.973,0.000
1673806170.033,-3.418,-29.785,-19.043,-15.625,0.000
1673806170.037,-6.836,-37.109,-16.602,-12.695,0.000
1673806170.041,-21.484,-21.484,-12.207,-13.184,0.000
1673806170.045,-15.137,-7.324,-11.230,-13.184,0.000
1673806170.049,-18.066,-7.812,-12.695,-7.324,0.000
1673806170.053,-27.832,-9.766,-15.137,-4.395,0.000
1673806170.057,-21.484,-13.672,-14.160,-9.277,0.000
1673806170.061,-5.371,-15.137,-10.742,-10.254,0.000
1673806170.065,0.977,-12.695,-8.789,-5.371,0.000
1673806170.068,-24.902,-11.230,-10.254,2.930,0.000
1673806170.072,-34.668,-11.719,-12.207,6.836,0.000
1673806170.076,-33.203,-18.066,-11.719,-4.395,0.000
1673806170.080,-27.832,-13.184,-12.695,-8.789,0.000
1673806170.084,-22.461,-16.602,-17.578,-17.090,0.000
1673806170.088,-30.762,-16.113,-19.531,-23.438,0.000
1673806170.092,-23.926,-5.859,-16.602,-19.043,0.000
1673806170.096,-21.484,-8.789,-15.625,-13.672,0.000
1673806170.100,-4.883,-2.441,-16.113,-7.324,0.000
1673806170.104,13.184,2.441,-15.625,-14.648,0.000
1673806170.108,-3.906,-0.977,-14.160,-23.926,0.000
1673806170.111,-28.809,-2.441,-16.602,-31.738,0.000
1673806170.115,-27.832,-5.371,-11.230,-24.414,0.000
1673806170.119,-18.066,-10.742,-14.160,-17.090,0.000
1673806170.123,-22.949,-9.766,-20.020,-15.137,0.000
