timestamp,TP9,AF7,AF8,TP10,Right AUX
1673805310.382,1.465,-12.695,-16.113,-11.230,0.000
1673805310.386,-5.859,-12.695,-19.531,-14.648,0.000
1673805310.390,-18.066,-26.855,-28.320,-19.043,0.000
1673805310.394,-10.742,-28.809,-35.645,-21.484,0.000
1673805310.398,-0.977,-13.184,-30.273,-23.438,0.000
1673805310.401,-40.039,-15.137,-24.414,-12.695,0.000
1673805310.405,-58.594,-26.367,-22.949,-0.977,0.000
1673805310.409,-44.434,-18.066,-19.531,-4.395,0.000
1673805310.413,-37.598,-19.043,-22.461,-20.020,0.000
1673805310.417,-33.691,-29.297,-25.391,-13.672,0.000
1673805310.421,-35.645,-33.203,-26.855,-8.789,0.000
1673805310.425,-44.434,-30.762,-28.809,-17.578,0.000
1673805310.429,-42.969,-22.461,-28.809,-26.367,0.000
1673805310.433,-31.250,-28.320,-27.832,-32.715,0.000
1673805310.437,-23.438,-30.273,-29.785,-30.762,0.000
1673805310.441,-4.883,-20.020,-29.297,-27.344,0.000
1673805310.444,8.789,-20.996,-38.574,-23.926,0.000
1673805310.448,2.441,-29.297,-44.922,-25.391,0.000
1673805310.452,-6.836,-27.832,-33.691,-28.320,0.000
1673805310.456,-23.438,-25.879,-29.297,-17.578,0.000
1673805310.460,-21.484,-29.297,-29.785,-14.160,0.000
1673805310.464,-21.973,-32.227,-30.762,-19.531,0.000
1673805310.468,-20.020,-33.203,-33.691,-20.996,0.000
1673805310.472,-28.320,-29.297,-31.738,-20.996,0.000
1673805310.476,-32.227,-26.367,-32.715,-17.090,0.000
1673805310.480,-22.949,-26.855,-35.645,-20.996,0.000
1673805310.483,-7.812,-26.855,-32.715,-26.367,0.000
1673805310.487,-1.465,-30.762,-28.320,-26.367,0.000
1673805310.491,1.465,-31.250,-22.949,-23.926,0.000
1673805310.495,8.301,-19.043,-25.391,-20.996,0.000
1673805310.499,-8.789,-15.625,-39.551,-22.949,0.000
1673805310.503,-45.410,-14.648,-29.785,-17.578,0.000
1673805310.507,-56.641,-19.043,-15.137,-13.672,0.000
1673805310.511,-43.945,-31.250,-19.531,-33.203,0.000
1673805310.515,-19.043,-29.297,-31.738,-47.363,0.000
1673805310.519,2.441,-21.973,-27.344,-31.250,0.000
1673805310.523,-15.137,-18.555,-14.648,-22.949,0.000
1673805310.526,-31.250,-15.137,-17.090,-23.438,0.000
1673805310.530,-47.852,-23.926,-15.625,-25.879,0.000
1673805310.534,-61.523,-38.574,-16.602,-24.902,0.000
1673805310.538,-56.641,-31.738,-21.973,-22.949,0.000
1673805310.542,-47.363,-14.648,-20.996,-22.949,0.000
1673805310.546,-41.504,-11.719,-22.461,-27.344,0.000
1673805310.550,-25.391,-17.578,-23.438,-23.438,0.000
1673805310.554,-12.207,-18.066,-20.020,-1.953,0.000
1673805310.558,-21.484,-20.020,-19.531,-4.395,0.000
1673805310.562,-20.508,-22.949,-19.531,-16.602,0.000
1673805310.566,-11.230,-14.160,-19.531,-3.906,0.000
1673805310.569,-12.695,-13.184,-24.902,-4.883,0.000
1673805310.573,-9.766,-23.926,-26.367,-15.137,0.000
1673805310.577,-5.371,-17.090,-20.996,-11.719,0.000
1673805310.581,-10.742,-26.367,-26.367,-12.207,0.000
1673805310.585,-4.395,-41.016,-31.738,-22.461,0.000
1673805310.589,8.301,-27.832,-31.250,-25.879,0.000
1673805310.593,24.414,-23.438,-31.738,-29.785,0.000
1673805310.597,51.758,-20.996,-26.855,-30.762,0.000
1673805310.601,30.762,-25.391,-31.738,-27.832,0.000
1673805310.605,-26.367,-29.785,-28.809,-13.672,0.000
1673805310.608,-50.781,-28.809,-22.949,-7.812,0.000
1673805310.612,-37.109,-38.574,-29.297,-18.555,0.000
1673805310.616,-17.090,-29.785,-31.250,-18.066,0.000
1673805310.620,-7.324,-22.949,-29.785,-21.973,0.000
1673805310.624,-14.648,-25.391,-30.762,-20.508,0.000
1673805310.628,-49.805,-20.508,-33.691,-12.207,0.000
1673805310.632,-67.383,-19.043,-26.367,-10.742,0.000
1673805310.636,-70.312,-24.414,-16.602,-11.230,0.000
1673805310.640,-57.617,-22.461,-20.020,-9.766,0.000
1673805310.644,-38.086,-24.414,-24.902,-7.324,0.000
1673805310.648,-32.715,-33.691,-28.320,-18.555,0.000
1673805310.651,-26.367,-31.738,-29.785,-15.625,0.000
1673805310.655,-30.762,-25.879,-27.344,-9.766,0.000
1673805310.659,-33.203,-24.902,-26.855,-7.812,0.000
1673805310.663,-31.250,-31.738,-33.691,-16.113,0.000
1673805310.667,-36.621,-39.551,-42.480,-17.090,0.000
1673805310.671,-32.715,-44.922,-29.297,-9.766,0.000
1673805310.675,-24.414,-37.109,-26.367,-13.672,0.000
1673805310.679,-19.043,-31.738,-40.039,-25.879,0.000
1673805310.683,-4.883,-39.062,-39.551,-25.391,0.000
1673805310.687,8.789,-28.809,-36.133,-12.207,0.000
1673805310.691,-1.465,-17.090,-37.109,-17.578,0.000
1673805310.694,-13.184,-20.996,-38.086,-28.809,0.000
1673805310.698,-32.715,-33.691,-39.551,-30.762,0.000
1673805310.702,-29.785,-32.227,-39.062,-28.809,0.000
1673805310.706,-18.066,-34.668,-41.504,-29.785,0.000
1673805310.710,-45.410,-42.969,-39.062,-26.855,0.000
1673805310.714,-69.824,-35.645,-37.598,-23.438,0.000
1673805310.718,-64.453,-31.250,-37.598,-31.738,0.000
1673805310.722,-67.871,-32.715,-37.109,-39.551,0.000
1673805310.726,-54.199,-41.992,-37.109,-45.898,0.000
1673805310.730,-26.855,-47.852,-36.621,-50.781,0.000
1673805310.733,-21.484,-37.598,-36.621,-43.457,0.000
1673805310.737,-55.664,-35.645,-44.434,-35.645,0.000
1673805310.741,-81.055,-36.133,-45.898,-31.738,0.000
1673805310.745,-65.430,-33.691,-39.062,-33.691,0.000
1673805310.749,-57.129,-40.527,-31.250,-34.180,0.000
1673805310.753,-52.246,-50.293,-28.809,-26.855,0.000
1673805310.757,-47.363,-40.039,-37.598,-23.926,0.000
1673805310.761,-31.738,-33.203,-41.016,-32.715,0.000
1673805310.765,-21.973,-37.109,-36.621,-38.574,0.000
1673805310.769,-25.879,-30.762,-38.574,-38.574,0.000
1673805310.773,-33.691,-33.203,-41.016,-40.039,0.000
1673805310.776,-48.340,-36.133,-38.574,-28.809,0.000
1673805310.780,-39.062,-29.297,-30.273,-27.344,0.000
1673805310.784,-14.648,-27.832,-32.227,-40.039,0.000
1673805310.788,3.906,-27.344,-32.227,-34.668,0.000
1673805310.792,-4.395,-22.461,-26.367,-20.996,0.000
1673805310.796,-53.223,-23.926,-27.344,-25.391,0.000
1673805310.800,-62.012,-22.949,-30.762,-23.438,0.000
1673805310.804,-48.828,-27.344,-36.621,-13.672,0.000
1673805310.808,-40.527,-34.668,-36.621,-13.672,0.000
1673805310.812,-24.414,-32.227,-32.715,-20.508,0.000
1673805310.816,-11.719,-22.461,-26.367,-24.902,0.000
1673805310.819,2.930,-8.789,-17.578,-15.137,0.000
1673805310.823,-15.137,-8.789,-20.508,-19.043,0.000
1673805310.827,-29.297,-20.996,-26.367,-40.039,0.000
1673805310.831,-16.602,-24.902,-23.926,-41.016,0.000
1673805310.835,-13.184,-18.066,-28.320,-27.832,0.000
1673805310.839,-24.414,-18.066,-37.109,-22.461,0.000
1673805310.843,-34.668,-25.879,-32.715,-31.738,0.000
1673805310.847,-16.602,-26.855,-28.320,-35.156,0.000
1673805310.851,5.371,-24.414,-41.504,-33.691,0.000
1673805310.855,2.930,-27.832,-41.992,-38.574,0.000
1673805310.858,-20.996,-35.156,-33.203,-41.016,0.000
1673805310.862,-55.664,-32.227,-35.156,-40.039,0.000
1673805310.866,-69.336,-44.434,-35.645,-38.574,0.000
1673805310.870,-58.105,-48.340,-34.180,-41.016,0.000
1673805310.874,-41.016,-31.250,-32.715,-44.922,0.000
1673805310.878,-28.809,-25.391,-30.762,-41.016,0.000
1673805310.882,-28.320,-28.809,-29.785,-29.785,0.000
1673805310.886,-31.250,-38.574,-32.227,-31.738,0.000
1673805310.890,-31.738,-36.133,-43.457,-28.320,0.000
1673805310.894,-22.461,-30.273,-41.992,-31.738,0.000
1673805310.898,-19.531,-27.344,-31.250,-37.598,0.000
1673805310.901,-22.461,-16.113,-30.762,-29.785,0.000
1673805310.905,-27.832,-16.602,-28.320,-21.484,0.000
1673805310.909,-30.762,-31.250,-35.645,-20.020,0.000
1673805310.913,-20.996,-37.109,-41.504,-31.738,0.000
1673805310.917,-16.602,-28.809,-35.156,-26.367,0.000
1673805310.921,-19.531,-20.996,-34.668,-13.672,0.000
1673805310.925,-13.672,-23.926,-31.738,-9.766,0.000
1673805310.929,-15.137,-26.855,-27.344,-8.301,0.000
1673805310.933,-12.695,-26.855,-30.762,-14.160,0.000
1673805310.937,0.488,-27.344,-35.156,-15.625,0.000
1673805310.941,13.672,-23.438,-29.785,-15.137,0.000
1673805310.944,14.648,-16.113,-28.320,-12.695,0.000
1673805310.948,18.555,-18.555,-28.320,-19.043,0.000
1673805310.952,15.625,-13.184,-15.137,-11.230,0.000
1673805310.956,-27.832,-20.996,-17.090,1.465,0.000
1673805310.960,-58.594,-26.855,-28.320,-11.230,0.000
1673805310.964,-43.945,-16.602,-30.273,-19.531,0.000
1673805310.968,-30.273,-20.508,-27.344,-17.578,0.000
1673805310.972,-22.949,-19.043,-25.391,-9.766,0.000
1673805310.976,-18.066,-23.926,-26.855,-13.672,0.000
1673805310.980,-22.949,-24.414,-26.855,-22.461,0.000
1673805310.983,-23.438,-11.719,-26.855,-16.113,0.000
1673805310.987,-14.160,-17.090,-32.227,-10.254,0.000
1673805310.991,-12.207,-28.320,-30.762,-5.859,0.000
1673805310.995,-24.414,-26.367,-20.020,-3.906,0.000
1673805310.999,-46.387,-29.297,-31.738,-17.578,0.000
1673805311.003,-49.316,-39.551,-47.852,-23.926,0.000
1673805311.007,-41.504,-33.691,-34.668,-22.949,0.000
1673805311.011,-33.691,-24.902,-26.367,-28.809,0.000
1673805311.015,-15.625,-22.461,-20.020,-25.879,0.000
1673805311.019,-8.789,-18.555,-17.090,-13.184,0.000
1673805311.023,-11.230,-31.250,-24.414,-16.602,0.000
1673805311.026,-12.695,-35.156,-32.715,-37.598,0.000
1673805311.030,-12.695,-23.926,-36.133,-37.109,0.000
1673805311.034,-17.578,-20.996,-36.621,-22.949,0.000
1673805311.038,-10.254,-35.156,-34.180,-19.531,0.000
1673805311.042,-24.414,-44.434,-25.391,-20.996,0.000
1673805311.046,-37.598,-25.879,-25.879,-20.996,0.000
1673805311.050,-29.297,-9.277,-35.156,-19.531,0.000
1673805311.054,-26.855,-22.461,-37.109,-15.137,0.000
1673805311.058,-11.230,-23.926,-27.344,-14.160,0.000
1673805311.062,-16.602,-22.949,-27.832,-19.043,0.000
1673805311.066,-54.199,-31.250,-34.668,-23.926,0.000
1673805311.069,-55.176,-29.785,-36.621,-28.809,0.000
1673805311.073,-34.668,-33.203,-34.180,-30.273,0.000
1673805311.077,-15.625,-40.527,-36.133,-34.180,0.000
1673805311.081,-15.625,-31.250,-41.992,-43.457,0.000
1673805311.085,-16.602,-28.320,-42.480,-38.574,0.000
1673805311.089,-12.695,-33.691,-41.016,-27.344,0.000
1673805311.093,-18.555,-27.832,-41.504,-26.855,0.000
1673805311.097,-34.668,-23.926,-45.898,-28.809,0.000
1673805311.101,-36.621,-27.344,-34.180,-20.996,0.000
1673805311.105,-25.391,-26.367,-29.785,-14.648,0.000
1673805311.108,-13.672,-18.555,-30.273,-11.230,0.000
1673805311.112,-8.301,-17.090,-29.785,-20.020,0.000
1673805311.116,-15.625,-19.531,-30.273,-26.367,0.000
1673805311.120,-20.996,-31.738,-25.391,-21.484,0.000
1673805311.124,-18.555,-40.527,-26.367,-23.438,0.000
1673805311.128,-21.973,-33.203,-26.367,-20.508,0.000
1673805311.132,-36.621,-17.578,-24.414,-11.719,0.000
1673805311.136,-37.598,-20.508,-23.926,-8.789,0.000
1673805311.140,-17.578,-24.902,-23.438,-14.160,0.000
1673805311.144,-5.371,-19.531,-28.320,-35.645,0.000
1673805311.148,-18.066,-18.555,-38.574,-40.039,0.000
1673805311.151,-24.902,-16.113,-28.320,-34.180,0.000
1673805311.155,-22.949,-19.531,-19.531,-41.504,0.000
1673805311.159,-20.020,-13.672,-21.973,-33.691,0.000
1673805311.163,-36.133,-18.555,-23.926,-27.344,0.000
1673805311.167,-58.105,-26.367,-28.320,-24.414,0.000
1673805311.171,-53.711,-27.344,-28.809,-30.273,0.000
1673805311.175,-37.109,-31.250,-26.367,-35.645,0.000
1673805311.179,-19.043,-27.344,-34.180,-28.809,0.000
1673805311.183,-9.277,-27.344,-35.645,-33.203,0.000
1673805311.187,1.953,-19.043,-19.531,-26.855,0.000
1673805311.191,-24.414,-26.855,-26.855,-16.113,0.000
1673805311.194,-38.574,-43.945,-21.973,-24.902,0.000
1673805311.198,-13.184,-35.645,-16.602,-34.180,0.000
1673805311.202,-25.391,-27.344,-31.738,-37.109,0.000
1673805311.206,-65.918,-26.855,-31.250,-27.344,0.000
1673805311.210,-76.660,-26.367,-28.320,-24.902,0.000
1673805311.214,-50.293,-26.367,-32.227,-28.809,0.000
1673805311.218,-30.273,-25.391,-35.156,-22.461,0.000
1673805311.222,-13.184,-24.902,-32.715,-29.785,0.000
1673805311.226,-3.906,-18.555,-30.273,-32.715,0.000
1673805311.230,-14.160,-18.555,-31.250,-20.020,0.000
1673805311.233,-29.297,-25.391,-29.785,-12.695,0.000
1673805311.237,-37.598,-23.438,-27.832,-15.137,0.000
1673805311.241,-42.480,-23.926,-19.043,-15.625,0.000
1673805311.245,-34.668,-29.785,-17.578,-25.879,0.000
1673805311.249,-24.414,-31.250,-25.879,-31.250,0.000
1673805311.253,-13.184,-26.367,-22.949,-19.531,0.000
1673805311.257,-10.254,-21.484,-18.555,-16.602,0.000
1673805311.261,-24.414,-18.555,-18.066,-15.625,0.000
1673805311.265,-46.387,-21.484,-22.461,-18.066,0.000
1673805311.269,-27.832,-23.926,-20.020,-16.602,0.000
1673805311.273,-10.254,-13.672,-13.672,0.000,0.000
1673805311.276,-3.418,-4.395,-16.602,-18.066,0.000
1673805311.280,8.301,-4.395,-21.973,-35.645,0.000
1673805311.284,-0.977,-8.301,-21.973,-22.461,0.000
1673805311.288,-21.484,-9.277,-21.973,-18.555,0.000
1673805311.292,-29.785,-10.742,-26.855,-19.531,0.000
1673805311.296,-30.762,-20.508,-32.227,-26.367,0.000
1673805311.300,-29.785,-27.832,-40.039,-28.320,0.000
1673805311.304,-20.996,-19.043,-40.527,-19.531,0.000
1673805311.308,-6.348,-17.578,-28.809,-17.578,0.000
1673805311.312,0.977,-11.230,-21.484,-22.461,0.000
1673805311.316,-23.926,-8.301,-22.949,-24.414,0.000
1673805311.319,-53.711,-20.020,-27.344,-23.926,0.000
1673805311.323,-51.270,-20.508,-29.785,-22.461,0.000
1673805311.327,-30.273,-23.926,-25.391,-18.066,0.000
1673805311.331,-25.391,-36.133,-17.578,-11.230,0.000
1673805311.335,-27.344,-22.461,-11.230,-5.859,0.000
1673805311.339,-13.184,-4.395,-17.090,-7.324,0.000
1673805311.343,-10.254,-7.324,-27.832,-6.348,0.000
1673805311.347,-23.926,-18.066,-30.273,-8.301,0.000
1673805311.351,-20.508,-24.414,-30.273,-10.742,0.000
1673805311.355,-10.254,-15.137,-31.250,-3.418,0.000
1673805311.358,-2.441,-11.719,-29.297,0.488,0.000
1673805311.362,-8.301,-11.719,-21.973,0.977,0.000
1673805311.366,-28.809,-17.090,-20.508,-0.488,0.000
1673805311.370,-26.367,-24.414,-28.320,5.371,0.000
1673805311.374,-12.207,-27.344,-29.785,3.906,0.000
1673805311.378,9.277,-29.785,-25.879,-10.742,0.000
1673805311.382,16.602,-23.438,-27.832,-15.625,0.000
1673805311.386,1.953,-17.090,-21.973,-6.836,0.000
1673805311.390,-9.766,-14.648,-15.625,-2.441,0.000
1673805311.394,-15.137,-14.648,-19.043,-3.906,0.000
1673805311.398,-4.395,-16.602,-16.602,-4.883,0.000
1673805311.401,-13.672,-20.020,-9.277,-1.465,0.000
1673805311.405,-21.484,-19.043,-9.766,9.277,0.000
1673805311.409,-19.531,-13.184,-14.160,13.184,0.000
1673805311.413,-21.973,-14.648,-16.602,0.488,0.000
1673805311.417,-22.461,-19.043,-15.625,-3.418,0.000
1673805311.421,-17.578,-14.648,-9.766,0.000,0.000
1673805311.425,-12.695,-11.719,-10.254,0.000,0.000
1673805311.429,-28.320,-14.648,-11.719,-6.836,0.000
1673805311.433,-43.457,-18.555,-13.184,-5.371,0.000
1673805311.437,-51.758,-22.949,-22.461,-10.254,0.000
1673805311.441,-43.945,-22.461,-25.879,-17.090,0.000
1673805311.444,-30.762,-22.949,-23.438,-21.484,0.000
1673805311.448,-30.273,-19.043,-20.996,-23.438,0.000
1673805311.452,-35.156,-15.625,-18.066,-12.207,0.000
1673805311.456,-35.156,-23.438,-22.461,-9.277,0.000
1673805311.460,-23.926,-27.832,-24.902,-21.973,0.000
1673805311.464,-17.090,-29.785,-20.996,-26.367,0.000
1673805311.468,-5.371,-29.785,-27.832,-33.203,0.000
1673805311.472,-7.324,-32.715,-25.391,-37.598,0.000
1673805311.476,-38.086,-46.387,-26.367,-36.621,0.000
1673805311.480,-47.852,-40.039,-37.598,-36.133,0.000
1673805311.483,-34.668,-25.391,-36.621,-29.297,0.000
1673805311.487,-25.391,-27.832,-33.203,-30.273,0.000
1673805311.491,-19.531,-22.949,-28.320,-22.461,0.000
1673805311.495,-22.461,-19.043,-29.785,-20.020,0.000
1673805311.499,-35.645,-17.578,-33.203,-24.902,0.000
1673805311.503,-24.414,-20.508,-35.156,-24.902,0.000
1673805311.507,-31.250,-30.762,-37.109,-25.879,0.000
1673805311.511,-47.363,-34.180,-38.574,-28.809,0.000
1673805311.515,-41.992,-36.133,-39.551,-28.809,0.000
1673805311.519,-47.363,-40.039,-37.109,-36.133,0.000
1673805311.523,-49.805,-33.691,-35.645,-37.598,0.000
1673805311.526,-32.715,-33.691,-35.645,-33.691,0.000
1673805311.530,-31.738,-37.598,-36.621,-45.410,0.000
1673805311.534,-41.992,-39.551,-34.668,-47.852,0.000
1673805311.538,-67.383,-46.387,-34.180,-38.086,0.000
1673805311.542,-83.496,-46.387,-35.645,-36.621,0.000
1673805311.546,-63.965,-29.297,-41.504,-41.016,0.000
1673805311.550,-41.504,-23.438,-42.969,-44.922,0.000
1673805311.554,-30.762,-31.250,-32.227,-40.039,0.000
1673805311.558,-26.367,-37.598,-28.809,-41.504,0.000
1673805311.562,-27.832,-27.344,-30.273,-49.316,0.000
1673805311.566,-33.691,-23.438,-28.809,-39.062,0.000
1673805311.569,-43.945,-40.527,-28.320,-22.461,0.000
1673805311.573,-40.527,-29.785,-26.367,-8.789,0.000
1673805311.577,-43.457,-14.648,-27.832,-0.488,0.000
1673805311.581,-44.434,-17.090,-33.203,-2.930,0.000
1673805311.585,-17.578,-13.672,-28.320,-3.906,0.000
1673805311.589,4.395,-11.230,-22.461,2.930,0.000
1673805311.593,3.906,-20.996,-22.461,-3.418,0.000
1673805311.597,10.742,-26.367,-21.973,-10.254,0.000
1673805311.601,10.254,-26.367,-22.949,-2.441,0.000
1673805311.605,3.418,-18.066,-23.438,-0.488,0.000
1673805311.608,5.859,-10.742,-20.508,-17.578,0.000
1673805311.612,13.184,-15.137,-23.438,-19.531,0.000
1673805311.616,13.672,-20.996,-20.508,-15.625,0.000
1673805311.620,-10.254,-18.066,-17.578,-5.859,0.000
1673805311.624,-24.414,-23.438,-37.109,-4.883,0.000
1673805311.628,-16.602,-22.949,-35.156,-17.578,0.000
1673805311.632,-37.109,-10.742,-18.066,-10.742,0.000
1673805311.636,-37.109,-12.207,-22.949,-8.789,0.000
1673805311.640,-23.926,-15.137,-26.367,-16.602,0.000
1673805311.644,-38.086,-14.648,-29.297,-19.531,0.000
1673805311.648,-29.785,-17.578,-26.855,-24.902,0.000
1673805311.651,-15.625,-18.555,-28.320,-25.879,0.000
1673805311.655,-14.648,-13.672,-30.762,-18.555,0.000
1673805311.659,-25.879,-25.879,-30.762,-15.625,0.000
1673805311.663,-13.184,-26.855,-31.738,-13.672,0.000
1673805311.667,-10.742,-17.578,-26.855,-10.254,0.000
1673805311.671,-13.672,-15.137,-31.738,-8.789,0.000
1673805311.675,10.254,-6.836,-30.762,-18.066,0.000
1673805311.679,16.113,-8.789,-23.926,-25.879,0.000
1673805311.683,-4.883,-18.555,-27.832,-25.391,0.000
1673805311.687,-24.902,-19.043,-21.973,-17.090,0.000
1673805311.691,-20.996,-20.020,-25.391,0.000,0.000
1673805311.694,-19.531,-25.391,-42.480,-3.906,0.000
1673805311.698,-23.926,-29.297,-33.203,-24.902,0.000
1673805311.702,-16.113,-36.133,-23.438,-22.461,0.000
1673805311.706,-18.066,-40.527,-28.809,-21.973,0.000
1673805311.710,-20.020,-28.809,-28.809,-24.414,0.000
1673805311.714,-2.930,-22.949,-35.156,-13.672,0.000
1673805311.718,-28.809,-29.297,-39.551,-9.277,0.000
1673805311.722,-61.035,-20.508,-31.738,-7.812,0.000
1673805311.726,-45.898,-17.578,-32.715,-16.113,0.000
1673805311.730,-26.855,-25.391,-35.156,-21.973,0.000
1673805311.733,-20.996,-25.879,-24.902,-13.672,0.000
1673805311.737,-36.621,-32.227,-27.832,-13.184,0.000
1673805311.741,-45.410,-31.250,-34.668,-24.414,0.000
1673805311.745,-26.855,-22.949,-35.156,-32.227,0.000
1673805311.749,-6.348,-21.973,-33.691,-27.832,0.000
1673805311.753,7.324,-30.762,-31.738,-20.996,0.000
1673805311.757,-4.883,-32.227,-37.598,-26.367,0.000
1673805311.761,-28.809,-26.367,-45.410,-29.785,0.000
1673805311.765,-24.414,-25.391,-43.945,-28.320,0.000
1673805311.769,-13.672,-27.344,-38.086,-21.973,0.000
1673805311.773,-2.441,-25.391,-41.504,-25.879,0.000
1673805311.776,12.207,-16.113,-42.480,-41.504,0.000
1673805311.780,13.184,-20.020,-35.645,-44.922,0.000
1673805311.784,-4.395,-31.738,-32.715,-37.598,0.000
1673805311.788,-42.480,-27.344,-35.645,-27.832,0.000
1673805311.792,-68.848,-27.832,-38.086,-32.715,0.000
1673805311.796,-62.500,-28.320,-35.645,-39.551,0.000
1673805311.800,-69.824,-37.109,-37.109,-38.574,0.000
1673805311.804,-73.242,-47.363,-37.109,-28.320,0.000
1673805311.808,-59.570,-42.480,-29.785,-20.020,0.000
1673805311.812,-52.734,-33.691,-27.344,-23.438,0.000
1673805311.816,-43.945,-35.156,-30.762,-32.715,0.000
1673805311.819,-35.645,-30.762,-28.320,-38.086,0.000
1673805311.823,-25.391,-20.996,-25.879,-27.344,0.000
1673805311.827,-25.879,-27.344,-30.762,-26.367,0.000
1673805311.831,-25.391,-29.785,-32.715,-34.180,0.000
1673805311.835,-17.090,-27.344,-26.855,-28.320,0.000
1673805311.839,-19.043,-31.250,-17.090,-21.973,0.000
1673805311.843,-26.367,-33.691,-15.137,-19.531,0.000
1673805311.847,-33.691,-34.180,-20.996,-21.484,0.000
1673805311.851,-38.574,-39.062,-24.414,-22.461,0.000
1673805311.855,-31.738,-43.945,-28.809,-15.625,0.000
1673805311.858,-23.926,-41.016,-34.180,-30.273,0.000
1673805311.862,-11.719,-29.297,-26.855,-40.039,0.000
1673805311.866,-13.672,-27.344,-26.855,-40.039,0.000
1673805311.870,-20.508,-27.832,-32.227,-39.062,0.000
1673805311.874,-17.090,-32.227,-30.762,-40.039,0.000
1673805311.878,-20.508,-38.086,-27.832,-44.922,0.000
1673805311.882,-43.457,-27.832,-21.973,-40.039,0.000
1673805311.886,-48.828,-23.438,-16.602,-32.227,0.000
1673805311.890,-50.781,-24.902,-24.902,-21.484,0.000
1673805311.894,-61.035,-27.344,-24.414,-24.902,0.000
1673805311.898,-64.941,-32.715,-12.695,-24.414,0.000
1673805311.901,-45.898,-36.133,-15.625,-14.648,0.000
1673805311.905,-39.551,-36.621,-19.043,-16.113,0.000
1673805311.909,-37.109,-30.273,-22.949,-19.531,0.000
1673805311.913,-21.973,-25.879,-29.785,-11.719,0.000
1673805311.917,-16.113,-23.926,-20.996,9.766,0.000
1673805311.921,-13.184,-28.809,-22.949,-5.371,0.000
1673805311.925,-9.766,-21.484,-30.273,-23.438,0.000
1673805311.929,-21.973,-19.531,-24.414,-17.090,0.000
1673805311.933,-31.250,-32.715,-23.438,-11.230,0.000
1673805311.937,-22.461,-28.320,-20.508,3.906,0.000
1673805311.941,-13.184,-20.020,-13.672,4.883,0.000
1673805311.944,4.883,-11.230,-16.113,9.277,0.000
1673805311.948,25.391,-2.441,-19.531,9.277,0.000
1673805311.952,24.902,-14.160,-26.855,-16.113,0.000
1673805311.956,-12.207,-33.203,-31.738,-25.879,0.000
1673805311.960,-30.273,-25.879,-31.738,-14.160,0.000
1673805311.964,-24.902,-11.719,-33.203,-14.160,0.000
1673805311.968,-18.555,-18.066,-36.621,-21.484,0.000
1673805311.972,-27.344,-20.996,-31.250,-15.625,0.000
1673805311.976,-40.039,-22.461,-21.484,-18.555,0.000
1673805311.980,-30.762,-20.508,-27.832,-25.391,0.000
1673805311.983,-32.715,-14.160,-30.273,-19.531,0.000
1673805311.987,-36.621,-8.301,-27.344,-23.926,0.000
1673805311.991,-23.438,-4.883,-31.738,-30.762,0.000
1673805311.995,-18.555,-21.973,-30.273,-32.227,0.000
1673805311.999,-23.438,-30.273,-35.156,-34.180,0.000
1673805312.003,-40.527,-17.090,-35.645,-25.391,0.000
1673805312.007,-48.828,-14.160,-24.902,-20.508,0.000
1673805312.011,-30.762,-20.020,-27.344,-29.297,0.000
1673805312.015,-9.766,-20.508,-34.180,-49.805,0.000
1673805312.019,2.441,-29.297,-34.668,-47.852,0.000
1673805312.023,7.324,-36.133,-35.156,-34.668,0.000
1673805312.026,-13.184,-24.902,-29.785,-33.691,0.000
1673805312.030,-35.645,-20.508,-26.367,-30.273,0.000
1673805312.034,-42.480,-30.762,-29.785,-23.438,0.000
1673805312.038,-37.109,-29.297,-31.250,-21.484,0.000
1673805312.042,-30.762,-27.832,-24.414,-24.414,0.000
1673805312.046,-37.109,-29.785,-25.391,-30.273,0.000
1673805312.050,-41.504,-25.879,-31.250,-25.391,0.000
1673805312.054,-29.297,-27.832,-39.062,-21.973,0.000
1673805312.058,-18.555,-28.809,-42.480,-37.598,0.000
1673805312.062,-31.250,-24.414,-36.621,-40.039,0.000
1673805312.066,-47.363,-40.527,-36.133,-31.738,0.000
1673805312.069,-48.340,-44.434,-35.156,-27.344,0.000
1673805312.073,-51.758,-26.855,-28.320,-20.996,0.000
1673805312.077,-41.992,-26.855,-26.367,-17.578,0.000
1673805312.081,-24.414,-28.320,-27.344,-22.461,0.000
1673805312.085,-18.555,-18.066,-30.273,-20.020,0.000
1673805312.089,-15.625,-24.902,-29.297,-22.949,0.000
1673805312.093,-18.555,-22.949,-17.090,-20.020,0.000
1673805312.097,-7.812,-11.719,-12.207,0.000,0.000
1673805312.101,-1.465,-13.672,-11.719,0.488,0.000
1673805312.105,4.883,-17.090,-6.348,-3.906,0.000
1673805312.108,18.066,-20.020,-6.348,-7.812,0.000
1673805312.112,-17.090,-28.809,-9.766,-8.789,0.000
1673805312.116,-37.598,-27.832,-19.043,-3.418,0.000
1673805312.120,-23.438,-22.461,-23.438,0.488,0.000
1673805312.124,-8.789,-26.855,-11.719,1.953,0.000
1673805312.128,-2.930,-33.691,-6.348,-2.441,0.000
1673805312.132,-4.883,-20.996,-10.742,-6.836,0.000
1673805312.136,-20.508,-12.207,-14.648,-5.859,0.000
1673805312.140,-28.320,-21.973,-16.602,-0.977,0.000
1673805312.144,-20.508,-22.461,-20.508,3.906,0.000
1673805312.148,-6.836,-16.602,-29.297,-0.488,0.000
1673805312.151,-1.953,-15.137,-18.555,-6.348,0.000
1673805312.155,-15.137,-14.160,-13.672,-10.742,0.000
1673805312.159,-18.555,-20.020,-22.949,-9.277,0.000
1673805312.163,-11.719,-20.996,-30.273,-12.695,0.000
1673805312.167,-8.789,-13.672,-30.762,-20.508,0.000
1673805312.171,-6.348,-14.648,-29.297,-22.949,0.000
1673805312.175,-21.484,-19.531,-33.691,-24.902,0.000
1673805312.179,-32.227,-20.996,-31.250,-27.832,0.000
1673805312.183,-17.578,-19.531,-25.879,-26.855,0.000
1673805312.187,-31.250,-20.020,-26.367,-13.184,0.000
1673805312.191,-40.039,-20.508,-35.156,-10.742,0.000
1673805312.194,-29.297,-22.461,-43.945,-20.996,0.000
1673805312.198,-29.785,-22.461,-37.598,-15.625,0.000
1673805312.202,-28.809,-20.996,-21.484,-13.184,0.000
1673805312.206,-14.160,-22.461,-22.461,-10.742,0.000
1673805312.210,-9.766,-18.066,-27.832,-12.695,0.000
1673805312.214,-23.926,-14.160,-24.414,-12.695,0.000
1673805312.218,-26.855,-22.949,-22.461,-3.418,0.000
1673805312.222,-22.949,-29.297,-29.785,-2.930,0.000
1673805312.226,-33.203,-26.367,-29.785,-11.230,0.000
1673805312.230,-33.203,-16.113,-25.391,-19.531,0.000
1673805312.233,-11.230,-19.043,-26.855,-18.066,0.000
1673805312.237,2.930,-25.391,-29.785,-24.902,0.000
1673805312.241,-20.996,-23.926,-24.902,-33.203,0.000
1673805312.245,-50.293,-26.367,-29.297,-30.273,0.000
1673805312.249,-72.266,-31.250,-31.738,-31.738,0.000
1673805312.253,-68.359,-26.367,-26.855,-31.250,0.000
1673805312.257,-43.457,-24.902,-26.367,-32.227,0.000
1673805312.261,-24.902,-27.344,-27.344,-36.621,0.000
1673805312.265,0.977,-30.762,-28.320,-39.062,0.000
1673805312.269,17.090,-27.832,-37.598,-42.969,0.000
1673805312.273,-7.812,-32.715,-34.668,-41.992,0.000
1673805312.276,-44.434,-43.945,-23.926,-25.879,0.000
1673805312.280,-77.148,-31.738,-27.344,-16.602,0.000
1673805312.284,-78.125,-31.250,-30.273,-14.160,0.000
1673805312.288,-69.824,-42.969,-29.297,-3.906,0.000
1673805312.292,-49.316,-35.645,-28.809,-5.371,0.000
1673805312.296,-25.879,-38.086,-30.762,-15.625,0.000
1673805312.300,-50.781,-50.293,-28.809,-7.324,0.000
1673805312.304,-62.988,-35.645,-20.508,3.418,0.000
1673805312.308,-40.039,-18.066,-25.391,0.488,0.000
1673805312.312,-41.504,-23.438,-28.320,-7.812,0.000
1673805312.316,-37.109,-29.297,-16.113,-19.043,0.000
1673805312.319,-31.250,-25.879,-18.066,-24.902,0.000
1673805312.323,-32.227,-30.273,-22.461,-18.555,0.000
1673805312.327,-27.344,-42.969,-23.926,-21.484,0.000
1673805312.331,-9.277,-27.832,-20.996,-23.438,0.000
1673805312.335,10.742,-6.836,-17.090,-23.926,0.000
1673805312.339,-10.742,-17.090,-31.738,-34.180,0.000
1673805312.343,-40.527,-31.250,-37.109,-51.758,0.000
1673805312.347,-34.668,-23.926,-28.320,-49.316,0.000
1673805312.351,-35.156,-27.344,-27.832,-47.363,0.000
1673805312.355,-45.898,-35.156,-30.273,-45.410,0.000
1673805312.359,-55.664,-31.250,-30.273,-50.781,0.000
1673805312.362,-58.594,-34.180,-27.344,-56.152,0.000
1673805312.366,-31.250,-30.762,-31.250,-40.527,0.000
1673805312.370,-23.438,-37.109,-30.762,-30.273,0.000
1673805312.374,-17.578,-30.762,-22.461,-22.949,0.000
1673805312.378,-20.020,-14.160,-21.484,-17.578,0.000
1673805312.382,-35.645,-14.160,-17.090,-13.184,0.000
1673805312.386,-40.039,-20.996,-17.090,-9.766,0.000
1673805312.390,-43.457,-23.926,-20.020,-15.137,0.000
1673805312.394,-29.785,-20.508,-16.113,-17.090,0.000
1673805312.398,-8.789,-16.113,-20.508,-20.508,0.000
1673805312.401,-8.789,-21.973,-26.367,-23.926,0.000
1673805312.405,1.465,-35.156,-26.855,-18.066,0.000
1673805312.409,0.977,-43.945,-31.738,-11.719,0.000
1673805312.413,-30.273,-31.250,-34.668,-10.742,0.000
1673805312.417,-47.363,-16.602,-27.832,-4.883,0.000
1673805312.421,-37.109,-17.090,-18.555,0.000,0.000
1673805312.425,-23.926,-24.902,-15.137,-4.395,0.000
1673805312.429,-1.465,-19.043,-11.719,-7.812,0.000
1673805312.433,3.906,-15.137,-14.648,-6.836,0.000
1673805312.437,-29.297,-21.484,-23.926,-12.207,0.000
1673805312.441,-26.855,-13.672,-24.902,-17.578,0.000
1673805312.444,-18.555,-17.578,-20.020,-24.902,0.000
1673805312.448,-23.438,-36.621,-21.973,-44.434,0.000
1673805312.452,-20.020,-34.180,-23.438,-30.273,0.000
1673805312.456,-29.297,-31.250,-27.344,-13.184,0.000
1673805312.460,-35.645,-36.621,-35.156,-20.508,0.000
1673805312.464,-29.785,-29.785,-34.668,-19.043,0.000
1673805312.468,-36.133,-30.762,-33.203,-11.719,0.000
1673805312.472,-49.316,-40.039,-32.227,-15.625,0.000
1673805312.476,-33.203,-34.668,-26.367,-18.555,0.000
1673805312.480,-13.672,-22.949,-29.297,-29.297,0.000
1673805312.484,-5.859,-17.578,-37.598,-39.062,0.000
1673805312.487,-1.953,-19.043,-36.621,-21.973,0.000
1673805312.491,-22.461,-31.250,-40.039,-20.508,0.000
1673805312.495,-32.227,-34.180,-40.527,-24.414,0.000
1673805312.499,-31.738,-25.879,-29.785,-18.066,0.000
1673805312.503,-42.969,-18.555,-30.273,-17.090,0.000
1673805312.507,-45.898,-20.508,-34.180,-13.184,0.000
1673805312.511,-33.203,-24.902,-32.227,-15.625,0.000
1673805312.515,-14.160,-22.461,-29.785,-25.391,0.000
1673805312.519,-16.113,-25.879,-25.879,-22.461,0.000
1673805312.523,-30.762,-25.391,-30.762,-19.043,0.000
1673805312.526,-22.461,-26.367,-29.297,-25.879,0.000
1673805312.530,-13.672,-32.715,-27.344,-31.250,0.000
1673805312.534,-8.301,-38.086,-33.203,-30.273,0.000
1673805312.538,11.230,-23.438,-35.156,-34.180,0.000
1673805312.542,8.301,-17.090,-32.715,-36.133,0.000
1673805312.546,-32.715,-27.832,-29.297,-34.668,0.000
1673805312.550,-46.875,-24.414,-25.879,-26.367,0.000
1673805312.554,-43.945,-26.855,-28.320,-23.926,0.000
1673805312.558,-36.621,-29.297,-30.273,-25.391,0.000
1673805312.562,-27.344,-26.855,-30.762,-18.066,0.000
1673805312.566,-40.039,-36.621,-30.762,-21.484,0.000
1673805312.569,-43.945,-37.598,-25.391,-24.902,0.000
1673805312.573,-28.320,-31.250,-22.949,-15.625,0.000
1673805312.577,-23.926,-21.973,-19.043,-13.672,0.000
1673805312.581,-47.852,-26.855,-25.879,-25.391,0.000
1673805312.585,-45.410,-32.715,-45.898,-29.297,0.000
1673805312.589,-28.809,-31.738,-48.340,-22.461,0.000
1673805312.593,-20.508,-31.738,-29.297,-20.508,0.000
1673805312.597,-30.762,-23.926,-17.090,-24.414,0.000
1673805312.601,-48.828,-26.855,-21.973,-20.996,0.000
1673805312.605,-29.297,-31.738,-27.344,-15.625,0.000
1673805312.609,-7.812,-27.344,-23.438,-19.531,0.000
1673805312.612,-5.371,-25.879,-27.344,-29.785,0.000
1673805312.616,1.465,-21.484,-32.715,-23.926,0.000
1673805312.620,-18.066,-31.250,-26.367,-12.207,0.000
1673805312.624,-36.133,-44.922,-20.508,-8.789,0.000
1673805312.628,-20.996,-31.250,-29.785,-15.137,0.000
1673805312.632,-2.930,-12.207,-30.273,-21.484,0.000
1673805312.636,-13.672,-12.695,-27.344,-20.508,0.000
1673805312.640,-31.250,-20.508,-29.785,-23.926,0.000
1673805312.644,-23.438,-35.645,-30.762,-24.414,0.000
1673805312.648,-25.391,-28.809,-34.668,-16.602,0.000
1673805312.651,-38.086,-23.438,-38.086,-10.742,0.000
1673805312.655,-32.715,-29.297,-35.156,-12.695,0.000
1673805312.659,-21.484,-31.250,-34.668,-24.902,0.000
1673805312.663,-11.719,-28.320,-39.551,-33.691,0.000
1673805312.667,-6.348,-26.367,-37.598,-29.785,0.000
1673805312.671,-0.488,-25.879,-30.762,-31.738,0.000
1673805312.675,-9.766,-26.855,-32.227,-40.039,0.000
1673805312.679,-29.785,-31.250,-38.574,-35.156,0.000
1673805312.683,-41.016,-36.621,-36.133,-31.738,0.000
1673805312.687,-46.387,-39.551,-36.621,-38.574,0.000
1673805312.691,-49.316,-46.387,-41.992,-34.180,0.000
1673805312.694,-59.570,-53.223,-36.133,-23.926,0.000
1673805312.698,-61.523,-39.062,-27.344,-30.273,0.000
1673805312.702,-40.039,-21.973,-26.855,-36.621,0.000
1673805312.706,-31.250,-25.391,-26.855,-33.203,0.000
1673805312.710,-20.996,-26.855,-22.461,-24.414,0.000
1673805312.714,-25.879,-24.414,-27.832,-16.113,0.000
1673805312.718,-41.504,-35.645,-35.645,-13.184,0.000
1673805312.722,-33.203,-35.156,-33.203,-11.719,0.000
1673805312.726,-20.508,-26.367,-27.344,-16.602,0.000
1673805312.730,-10.742,-30.273,-27.832,-30.762,0.000
1673805312.734,-23.438,-33.691,-31.738,-31.738,0.000
1673805312.737,-24.902,-30.762,-29.785,-16.113,0.000
1673805312.741,-7.324,-15.625,-24.902,-10.254,0.000
1673805312.745,-3.418,-17.578,-31.250,-16.113,0.000
1673805312.749,12.695,-21.484,-34.668,-24.902,0.000
1673805312.753,20.020,-18.555,-22.949,-19.043,0.000
1673805312.757,-6.348,-28.320,-25.879,-6.836,0.000
1673805312.761,-32.715,-28.809,-33.203,-17.578,0.000
1673805312.765,-34.180,-19.531,-20.996,-28.809,0.000
1673805312.769,-32.227,-20.996,-19.531,-17.578,0.000
1673805312.773,-27.832,-22.949,-26.855,-16.602,0.000
1673805312.776,-23.438,-30.762,-26.855,-20.996,0.000
1673805312.780,-38.574,-36.133,-22.949,-22.461,0.000
1673805312.784,-54.199,-21.484,-20.996,-16.113,0.000
1673805312.788,-37.598,-19.531,-23.926,-9.277,0.000
1673805312.792,-20.020,-28.809,-28.320,-19.531,0.000
1673805312.796,-20.020,-23.438,-29.297,-19.043,0.000
1673805312.800,-26.855,-20.020,-27.832,-14.648,0.000
1673805312.804,-19.043,-21.484,-24.902,-13.672,0.000
1673805312.808,-29.785,-23.926,-26.367,-17.578,0.000
1673805312.812,-34.668,-31.250,-28.320,-23.438,0.000
1673805312.816,-40.527,-27.832,-25.391,-16.602,0.000
1673805312.819,-41.992,-32.715,-27.832,-15.625,0.000
1673805312.823,-37.109,-38.574,-29.297,-21.484,0.000
1673805312.827,-24.902,-30.762,-26.367,-23.926,0.000
1673805312.831,-9.766,-18.555,-20.020,-33.203,0.000
1673805312.835,-16.602,-13.184,-16.113,-32.227,0.000
1673805312.839,-15.137,-20.996,-23.438,-23.438,0.000
1673805312.843,-2.930,-24.902,-25.391,-30.762,0.000
1673805312.847,0.488,-22.461,-20.508,-24.414,0.000
1673805312.851,-8.789,-27.832,-25.879,-20.996,0.000
1673805312.855,-4.395,-30.762,-36.133,-26.367,0.000
1673805312.859,1.953,-19.043,-26.367,-20.996,0.000
1673805312.862,-12.207,-29.297,-21.973,-26.367,0.000
1673805312.866,-26.367,-47.363,-29.785,-30.273,0.000
1673805312.870,-31.738,-38.086,-25.391,-22.461,0.000
1673805312.874,-27.832,-35.156,-26.855,-26.367,0.000
1673805312.878,-23.438,-36.621,-36.621,-32.715,0.000
1673805312.882,-24.414,-30.273,-30.762,-26.367,0.000
1673805312.886,-36.133,-30.762,-19.531,-17.578,0.000
1673805312.890,-44.434,-21.484,-22.949,-14.648,0.000
1673805312.894,-29.297,-15.137,-34.668,-10.254,0.000
1673805312.898,-20.508,-31.250,-34.668,-19.531,0.000
1673805312.901,-21.484,-42.480,-28.809,-18.066,0.000
1673805312.905,-8.301,-27.344,-16.602,-7.324,0.000
1673805312.909,5.371,-12.695,-16.113,-13.184,0.000
1673805312.913,-0.977,-15.625,-20.996,-15.137,0.000
1673805312.917,-9.277,-21.484,-23.438,-6.348,0.000
1673805312.921,-8.301,-23.926,-19.531,-7.324,0.000
1673805312.925,-7.812,-20.020,-15.137,-21.484,0.000
1673805312.929,-6.836,-17.090,-15.625,-25.391,0.000
1673805312.933,-5.859,-16.113,-20.020,-24.902,0.000
1673805312.937,6.348,-17.578,-23.926,-17.090,0.000
1673805312.941,-6.348,-19.531,-26.855,-10.742,0.000
1673805312.944,-29.785,-23.438,-27.344,-17.578,0.000
1673805312.948,-12.207,-22.949,-30.762,-20.996,0.000
1673805312.952,5.371,-13.672,-35.645,-19.531,0.000
1673805312.956,-15.625,-13.184,-25.391,-19.043,0.000
1673805312.960,-33.691,-17.090,-26.855,-19.043,0.000
1673805312.964,-22.949,-15.137,-29.785,-12.695,0.000
1673805312.968,-22.461,-22.949,-23.438,-7.324,0.000
1673805312.972,-30.762,-27.344,-22.949,-12.695,0.000
1673805312.976,-22.461,-24.902,-26.855,-19.531,0.000
1673805312.980,-19.531,-17.578,-26.855,-19.531,0.000
1673805312.984,-17.090,-16.602,-22.461,-15.137,0.000
1673805312.987,-20.020,-9.277,-25.879,-5.859,0.000
1673805312.991,-29.785,-10.742,-26.855,-1.465,0.000
1673805312.995,-33.691,-29.785,-24.414,-10.742,0.000
1673805312.999,-25.879,-26.367,-21.484,-10.742,0.000
1673805313.003,-19.043,-21.484,-25.391,-16.113,0.000
1673805313.007,-33.203,-26.367,-29.297,-21.484,0.000
1673805313.011,-40.527,-24.902,-21.973,-15.625,0.000
1673805313.015,-38.086,-30.273,-26.367,-20.020,0.000
1673805313.019,-29.297,-35.156,-38.086,-25.879,0.000
1673805313.023,-4.395,-27.832,-25.879,-20.508,0.000
1673805313.026,1.953,-22.461,-8.301,-20.996,0.000
1673805313.030,-8.789,-21.973,-10.254,-26.367,0.000
1673805313.034,-26.855,-17.090,-16.113,-20.508,0.000
1673805313.038,-41.016,-18.555,-20.020,-13.672,0.000
1673805313.042,-33.691,-16.113,-20.508,-7.324,0.000
1673805313.046,-35.645,-21.484,-18.066,-15.625,0.000
1673805313.050,-29.785,-30.273,-19.043,-27.344,0.000
1673805313.054,-16.113,-20.020,-17.578,-16.113,0.000
1673805313.058,-6.348,-9.766,-24.902,-12.695,0.000
1673805313.062,2.930,-9.766,-32.715,-19.531,0.000
1673805313.066,-6.836,-14.648,-28.809,-16.113,0.000
1673805313.069,-3.418,-24.414,-27.832,-11.230,0.000
1673805313.073,-7.324,-27.344,-30.762,-12.695,0.000
1673805313.077,-33.203,-35.156,-33.691,-25.879,0.000
1673805313.081,-41.504,-34.668,-32.715,-34.668,0.000
1673805313.085,-41.504,-22.461,-31.738,-16.113,0.000
1673805313.089,-33.691,-18.555,-28.320,0.488,0.000
1673805313.093,-35.645,-28.320,-28.809,-3.906,0.000
1673805313.097,-23.438,-33.203,-28.320,-15.625,0.000
1673805313.101,-8.301,-23.438,-26.855,-22.949,0.000
1673805313.105,-25.391,-29.785,-31.250,-26.367,0.000
1673805313.109,-27.344,-42.969,-34.668,-31.250,0.000
1673805313.112,-48.828,-31.250,-32.715,-23.438,0.000
1673805313.116,-62.012,-11.719,-31.738,-11.230,0.000
1673805313.120,-51.758,-18.555,-32.227,-7.324,0.000
1673805313.124,-53.223,-33.691,-27.832,-18.066,0.000
1673805313.128,-49.316,-34.180,-31.250,-29.297,0.000
1673805313.132,-30.762,-33.691,-39.062,-19.531,0.000
1673805313.136,-26.855,-43.945,-41.992,-26.367,0.000
1673805313.140,-29.785,-40.527,-42.969,-30.273,0.000
1673805313.144,-27.832,-27.344,-40.527,-29.297,0.000
1673805313.148,-24.414,-26.367,-36.621,-32.715,0.000
1673805313.151,-26.367,-28.320,-34.668,-28.809,0.000
1673805313.155,-23.438,-27.832,-33.203,-20.508,0.000
1673805313.159,-20.996,-31.250,-28.809,-22.461,0.000
1673805313.163,-21.973,-36.621,-26.855,-24.902,0.000
1673805313.167,-4.395,-37.598,-29.297,-26.367,0.000
1673805313.171,6.348,-34.180,-31.738,-34.668,0.000
1673805313.175,-6.836,-35.156,-30.273,-27.344,0.000
1673805313.179,-16.602,-39.551,-37.598,-15.137,0.000
1673805313.183,-18.555,-31.738,-41.504,-24.902,0.000
1673805313.187,-4.395,-21.484,-27.832,-23.438,0.000
1673805313.191,2.930,-25.879,-23.438,-17.578,0.000
1673805313.194,-32.715,-34.668,-27.832,-24.902,0.000
1673805313.198,-68.848,-32.715,-30.273,-24.414,0.000
1673805313.202,-60.059,-28.809,-33.203,-20.996,0.000
1673805313.206,-40.527,-27.832,-36.621,-18.066,0.000
1673805313.210,-32.715,-29.785,-31.250,-22.461,0.000
1673805313.214,-23.438,-23.438,-29.297,-23.438,0.000
1673805313.218,-26.855,-21.484,-29.297,-20.020,0.000
1673805313.222,-30.273,-27.344,-29.785,-12.695,0.000
1673805313.226,-23.926,-25.879,-29.297,-10.742,0.000
1673805313.230,-4.395,-29.297,-32.227,-13.672,0.000
1673805313.234,-5.859,-30.273,-34.180,-9.766,0.000
1673805313.237,-15.625,-21.973,-29.785,-6.348,0.000
1673805313.241,-25.391,-23.926,-34.180,-14.648,0.000
1673805313.245,-30.762,-25.391,-35.645,-24.414,0.000
1673805313.249,-29.785,-24.902,-29.785,-18.066,0.000
1673805313.253,-31.738,-32.715,-27.344,-14.648,0.000
1673805313.257,-23.926,-26.367,-25.879,-11.230,0.000
1673805313.261,-18.555,-19.531,-28.809,-12.695,0.000
1673805313.265,-10.742,-22.949,-28.320,-25.879,0.000
1673805313.269,-1.465,-25.879,-27.832,-27.344,0.000
1673805313.273,-9.277,-26.855,-28.320,-31.250,0.000
1673805313.276,-13.184,-22.461,-29.297,-33.691,0.000
1673805313.280,-5.371,-33.203,-30.273,-19.531,0.000
1673805313.284,-15.137,-36.621,-28.320,-10.254,0.000
1673805313.288,-18.066,-22.461,-29.785,-16.602,0.000
1673805313.292,-14.160,-23.438,-30.273,-27.344,0.000
1673805313.296,-33.691,-34.668,-31.738,-32.227,0.000
1673805313.300,-44.922,-36.133,-27.832,-28.809,0.000
1673805313.304,-35.645,-18.555,-26.367,-17.578,0.000
1673805313.308,-24.414,-17.090,-28.809,-19.531,0.000
1673805313.312,-21.973,-22.949,-29.785,-16.113,0.000
1673805313.316,-23.438,-23.438,-27.832,-20.996,0.000
1673805313.319,-17.090,-24.902,-24.414,-22.461,0.000
1673805313.323,-7.812,-18.066,-28.320,-9.766,0.000
1673805313.327,-12.695,-18.066,-28.809,-7.812,0.000
1673805313.331,-25.879,-21.484,-22.461,-8.789,0.000
1673805313.335,-25.879,-25.391,-23.926,-3.906,0.000
1673805313.339,-20.996,-31.738,-32.227,-3.906,0.000
1673805313.343,-25.391,-21.973,-34.180,-10.742,0.000
1673805313.347,-36.621,-18.066,-32.227,-17.578,0.000
1673805313.351,-35.645,-24.414,-33.203,-21.973,0.000
1673805313.355,-24.414,-28.809,-31.250,-25.879,0.000
1673805313.359,-14.160,-30.273,-32.227,-31.738,0.000
1673805313.362,-16.113,-20.996,-34.668,-36.621,0.000
1673805313.366,-20.020,-18.066,-31.250,-37.109,0.000
1673805313.370,-15.625,-22.949,-34.668,-40.527,0.000
1673805313.374,-12.207,-29.785,-35.645,-43.457,0.000
1673805313.378,-31.738,-38.086,-35.645,-33.691,0.000
1673805313.382,-42.480,-38.086,-35.645,-25.879,0.000
1673805313.386,-44.922,-35.645,-32.227,-15.137,0.000
1673805313.390,-39.551,-40.039,-31.250,-12.695,0.000
1673805313.394,-20.020,-40.527,-26.367,-19.043,0.000
1673805313.398,-5.371,-35.156,-26.855,-18.066,0.000
1673805313.401,0.977,-25.391,-33.203,-15.137,0.000
1673805313.405,-24.414,-29.297,-29.785,-15.625,0.000
1673805313.409,-51.758,-40.039,-29.297,-24.902,0.000
1673805313.413,-37.598,-41.992,-36.133,-29.297,0.000
1673805313.417,-18.555,-31.738,-35.156,-12.207,0.000
1673805313.421,-16.113,-25.879,-30.273,-13.184,0.000
1673805313.425,-31.250,-27.832,-28.809,-23.438,0.000
1673805313.429,-49.316,-30.273,-28.320,-20.508,0.000
1673805313.433,-43.945,-23.438,-27.344,-10.742,0.000
1673805313.437,-37.598,-23.926,-25.391,-10.742,0.000
1673805313.441,-33.691,-29.297,-29.297,-20.020,0.000
1673805313.444,-39.062,-30.762,-39.551,-20.508,0.000
1673805313.448,-42.969,-47.363,-43.457,-21.484,0.000
1673805313.452,-33.691,-43.945,-37.598,-30.273,0.000
1673805313.456,-33.691,-25.879,-33.691,-31.250,0.000
1673805313.460,-37.598,-30.762,-36.133,-35.156,0.000
1673805313.464,-24.414,-35.156,-42.480,-34.180,0.000
1673805313.468,-13.672,-25.879,-51.270,-24.902,0.000
1673805313.472,-38.086,-33.691,-44.434,-27.832,0.000
1673805313.476,-53.711,-40.527,-29.297,-31.250,0.000
1673805313.480,-36.133,-36.621,-36.621,-43.457,0.000
1673805313.484,-30.273,-37.598,-49.316,-43.457,0.000
1673805313.487,-11.719,-33.691,-42.969,-23.438,0.000
1673805313.491,0.488,-29.785,-29.297,-17.090,0.000
1673805313.495,-8.301,-23.438,-27.832,-14.160,0.000
1673805313.499,-24.902,-21.973,-31.250,-16.113,0.000
1673805313.503,-29.297,-20.508,-26.855,-11.719,0.000
1673805313.507,-31.738,-24.902,-23.438,0.488,0.000
1673805313.511,-33.691,-27.344,-24.902,-3.418,0.000
1673805313.515,-19.531,-27.832,-26.855,-7.812,0.000
1673805313.519,-21.973,-31.250,-26.367,-6.836,0.000
1673805313.523,-13.672,-24.414,-27.344,-5.371,0.000
1673805313.526,-4.883,-23.926,-33.203,-5.371,0.000
1673805313.530,-24.414,-24.414,-30.273,-2.930,0.000
1673805313.534,-25.879,-21.484,-28.320,-0.977,0.000
1673805313.538,-6.836,-23.438,-28.320,-4.883,0.000
1673805313.542,-9.766,-21.484,-21.973,-15.137,0.000
1673805313.546,-10.254,-18.066,-23.926,-20.508,0.000
1673805313.550,0.000,-23.926,-28.320,-14.648,0.000
1673805313.554,1.953,-29.297,-24.902,-10.254,0.000
1673805313.558,-10.742,-26.855,-29.785,-15.137,0.000
1673805313.562,-26.855,-29.297,-37.109,-26.367,0.000
1673805313.566,-27.344,-31.250,-32.227,-20.020,0.000
1673805313.569,-22.461,-35.156,-27.832,-17.090,0.000
1673805313.573,-35.645,-30.273,-26.367,-26.855,0.000
1673805313.577,-43.945,-28.809,-22.949,-29.785,0.000
1673805313.581,-46.387,-31.250,-20.508,-23.926,0.000
1673805313.585,-53.223,-30.273,-23.926,-13.672,0.000
1673805313.589,-40.527,-30.762,-31.738,-9.766,0.000
1673805313.593,-31.250,-35.645,-28.320,-10.742,0.000
1673805313.597,-13.672,-49.316,-16.113,-12.207,0.000
1673805313.601,-7.812,-48.340,-20.996,-18.066,0.000
1673805313.605,-29.297,-24.902,-27.832,-12.207,0.000
1673805313.609,-30.762,-13.672,-28.809,-9.766,0.000
1673805313.612,-27.832,-16.602,-27.344,-15.137,0.000
1673805313.616,-32.715,-26.367,-30.762,-23.926,0.000
1673805313.620,-28.809,-36.621,-40.039,-23.926,0.000
1673805313.624,-22.949,-32.227,-36.621,-25.391,0.000
1673805313.628,-37.109,-27.344,-28.809,-33.691,0.000
1673805313.632,-46.875,-33.203,-33.203,-38.574,0.000
1673805313.636,-21.973,-34.180,-32.227,-45.898,0.000
1673805313.640,4.395,-30.762,-22.949,-41.992,0.000
1673805313.644,-1.953,-23.926,-24.902,-26.367,0.000
1673805313.648,-32.715,-22.949,-32.227,-28.320,0.000
1673805313.651,-32.227,-39.551,-32.227,-39.062,0.000
1673805313.655,-6.836,-38.574,-34.180,-39.551,0.000
1673805313.659,1.953,-27.832,-35.156,-34.668,0.000
1673805313.663,-17.090,-21.484,-31.250,-34.180,0.000
1673805313.667,-26.367,-24.902,-27.344,-23.926,0.000
1673805313.671,-29.785,-34.180,-27.832,-14.648,0.000
1673805313.675,-44.922,-27.344,-25.879,-13.672,0.000
1673805313.679,-33.203,-21.973,-20.020,-10.254,0.000
1673805313.683,-13.672,-22.949,-18.555,-4.883,0.000
1673805313.687,-14.160,-20.020,-18.066,-5.859,0.000
1673805313.691,-7.324,-23.926,-22.461,-19.043,0.000
1673805313.694,-11.719,-33.203,-25.391,-21.973,0.000
1673805313.698,-42.480,-33.691,-28.809,-11.719,0.000
1673805313.702,-39.062,-24.414,-16.113,-5.859,0.000
1673805313.706,-30.273,-26.367,-7.324,-7.812,0.000
1673805313.710,-23.926,-36.621,-18.555,-14.160,0.000
1673805313.714,-15.137,-30.762,-23.926,-16.113,0.000
1673805313.718,-24.902,-27.344,-24.902,-8.301,0.000
1673805313.722,-25.879,-31.250,-16.602,-3.418,0.000
1673805313.726,-20.508,-21.973,-18.066,-10.742,0.000
1673805313.730,-21.484,-23.438,-27.832,-15.137,0.000
1673805313.734,-22.949,-27.344,-32.227,-15.625,0.000
1673805313.737,-20.508,-21.484,-33.691,-12.695,0.000
1673805313.741,-23.926,-23.926,-33.203,-16.113,0.000
1673805313.745,-27.344,-30.762,-36.133,-25.879,0.000
1673805313.749,-22.949,-31.738,-44.922,-29.785,0.000
1673805313.753,-27.832,-31.250,-37.598,-32.227,0.000
1673805313.757,-21.484,-36.133,-28.320,-31.250,0.000
1673805313.761,-13.672,-28.320,-32.227,-21.484,0.000
1673805313.765,-12.695,-20.020,-36.621,-20.020,0.000
1673805313.769,-13.672,-20.020,-34.668,-26.855,0.000
1673805313.773,-19.531,-25.391,-33.691,-20.020,0.000
1673805313.776,-22.949,-31.250,-29.297,-17.578,0.000
1673805313.780,-22.461,-28.320,-37.598,-19.531,0.000
1673805313.784,-19.043,-25.391,-47.852,-18.555,0.000
1673805313.788,-20.020,-20.020,-39.062,-14.648,0.000
1673805313.792,-15.137,-13.672,-27.344,-5.859,0.000
1673805313.796,-8.789,-20.020,-30.762,-11.719,0.000
1673805313.800,-8.789,-26.855,-33.203,-13.672,0.000
1673805313.804,-8.789,-24.414,-26.855,-3.906,0.000
1673805313.808,8.301,-16.602,-21.484,-8.301,0.000
1673805313.812,15.625,-20.996,-25.879,-14.648,0.000
1673805313.816,0.000,-24.414,-29.297,-16.113,0.000
1673805313.819,-32.715,-17.578,-19.531,-12.207,0.000
1673805313.823,-32.227,-18.066,-14.648,-0.488,0.000
1673805313.827,-9.277,-20.508,-23.438,-3.906,0.000
1673805313.831,-30.273,-19.531,-25.879,-5.371,0.000
1673805313.835,-36.621,-23.438,-13.672,0.488,0.000
1673805313.839,-21.484,-23.926,-7.812,-4.395,0.000
1673805313.843,-25.879,-27.832,-19.531,-14.160,0.000
1673805313.847,-25.391,-38.086,-27.344,-21.973,0.000
1673805313.851,-8.301,-23.926,-28.320,-20.020,0.000
1673805313.855,-1.953,-7.812,-22.461,-19.531,0.000
1673805313.859,-23.438,-18.066,-18.066,-21.973,0.000
1673805313.862,-29.785,-17.578,-20.020,-24.414,0.000
1673805313.866,-20.020,-12.207,-20.020,-23.438,0.000
1673805313.870,-31.250,-20.508,-17.090,-16.113,0.000
1673805313.874,-42.480,-25.391,-22.949,-10.742,0.000
1673805313.878,-40.527,-28.320,-23.926,-10.742,0.000
1673805313.882,-22.461,-33.691,-7.324,-12.207,0.000
1673805313.886,-20.508,-25.879,-6.836,-19.531,0.000
1673805313.890,-11.719,-18.555,-18.066,-31.738,0.000
1673805313.894,4.883,-15.137,-22.949,-26.855,0.000
1673805313.898,1.465,-19.043,-23.438,-26.367,0.000
1673805313.901,0.488,-26.367,-27.832,-29.297,0.000
1673805313.905,-37.598,-31.738,-28.809,-22.949,0.000
1673805313.909,-69.824,-31.250,-24.414,-22.461,0.000
1673805313.913,-45.410,-26.367,-20.996,-20.508,0.000
1673805313.917,-33.691,-25.391,-25.879,-19.531,0.000
1673805313.921,-47.363,-30.762,-27.832,-26.367,0.000
1673805313.925,-45.898,-43.457,-25.879,-30.273,0.000
1673805313.929,-41.992,-40.039,-22.949,-20.508,0.000
1673805313.933,-40.039,-25.391,-19.043,-15.625,0.000
1673805313.937,-44.434,-25.391,-17.578,-17.090,0.000
1673805313.941,-33.691,-26.367,-14.160,-18.555,0.000
1673805313.944,-26.855,-24.902,-12.695,-24.414,0.000
1673805313.948,-35.645,-22.461,-16.113,-24.902,0.000
1673805313.952,-25.391,-20.020,-15.137,-24.414,0.000
1673805313.956,-11.230,-20.996,-18.555,-21.484,0.000
1673805313.960,-4.883,-29.785,-18.555,-22.949,0.000
1673805313.964,-8.301,-39.551,-18.066,-29.297,0.000
1673805313.968,1.465,-27.344,-16.113,-26.367,0.000
1673805313.972,-8.301,-19.043,-14.648,-17.578,0.000
1673805313.976,-16.113,-15.625,-19.531,-17.578,0.000
1673805313.980,5.859,-17.578,-18.555,-26.855,0.000
1673805313.984,7.324,-22.461,-20.020,-25.879,0.000
1673805313.987,-16.602,-24.902,-28.320,-20.020,0.000
1673805313.991,-31.250,-16.602,-24.902,-21.484,0.000
1673805313.995,-18.555,-6.836,-18.066,-24.902,0.000
1673805313.999,-22.949,-10.254,-17.578,-18.066,0.000
1673805314.003,-44.434,-18.555,-21.973,-17.578,0.000
1673805314.007,-55.664,-26.855,-26.367,-19.043,0.000
1673805314.011,-50.781,-22.949,-30.273,-10.742,0.000
1673805314.015,-36.133,-24.414,-30.762,-14.648,0.000
1673805314.019,-25.879,-27.344,-29.297,-17.090,0.000
1673805314.023,-16.113,-23.926,-41.016,-18.555,0.000
1673805314.026,-19.043,-29.297,-38.574,-23.926,0.000
1673805314.030,-38.574,-29.785,-26.855,-32.227,0.000
1673805314.034,-38.086,-24.902,-24.414,-26.855,0.000
1673805314.038,-28.320,-31.250,-25.391,-21.484,0.000
1673805314.042,-27.832,-28.320,-29.785,-23.438,0.000
1673805314.046,-36.133,-31.250,-29.785,-29.785,0.000
1673805314.050,-22.949,-32.715,-23.926,-40.527,0.000
1673805314.054,4.883,-34.668,-16.602,-35.645,0.000
1673805314.058,25.879,-36.621,-13.672,-30.762,0.000
1673805314.062,1.953,-22.461,-17.090,-26.855,0.000
1673805314.066,-74.707,-27.344,-20.508,-15.137,0.000
1673805314.069,-81.055,-34.180,-22.949,-15.625,0.000
1673805314.073,-42.969,-18.555,-25.879,-15.137,0.000
1673805314.077,-26.367,-16.113,-33.203,-10.742,0.000
1673805314.081,-4.395,-25.879,-39.062,-20.020,0.000
1673805314.085,-9.277,-37.598,-35.156,-23.926,0.000
1673805314.089,-47.852,-36.133,-34.668,-14.648,0.000
1673805314.093,-55.176,-26.367,-33.203,-18.066,0.000
1673805314.097,-39.551,-28.809,-28.320,-33.203,0.000
1673805314.101,-28.809,-29.297,-30.762,-37.109,0.000
1673805314.105,-12.695,-34.668,-32.227,-24.902,0.000
1673805314.109,-19.531,-28.809,-36.133,-21.973,0.000
1673805314.112,-41.504,-20.508,-41.016,-22.949,0.000
1673805314.116,-41.504,-26.855,-36.133,-22.949,0.000
1673805314.120,-43.945,-29.785,-32.715,-30.273,0.000
1673805314.124,-52.246,-34.180,-34.180,-26.367,0.000
1673805314.128,-41.016,-39.551,-30.762,-22.461,0.000
1673805314.132,-32.227,-36.621,-31.738,-29.297,0.000
1673805314.136,-30.273,-29.297,-38.574,-21.484,0.000
1673805314.140,-29.297,-34.180,-35.645,-15.625,0.000
1673805314.144,-34.180,-40.527,-35.645,-16.602,0.000
1673805314.148,-28.320,-26.855,-30.762,-12.695,0.000
1673805314.151,-22.461,-15.137,-29.785,0.000,0.000
1673805314.155,-22.461,-21.973,-27.832,7.324,0.000
1673805314.159,-15.625,-24.902,-22.461,0.977,0.000
1673805314.163,-27.832,-23.438,-23.926,-7.324,0.000
1673805314.167,-27.832,-26.367,-23.926,-1.953,0.000
1673805314.171,-10.254,-33.691,-25.391,-8.301,0.000
1673805314.175,-6.348,-29.297,-27.344,-15.625,0.000
1673805314.179,-7.324,-20.508,-27.344,-15.625,0.000
1673805314.183,-40.527,-28.809,-22.949,-20.508,0.000
1673805314.187,-49.805,-29.297,-22.949,-14.648,0.000
1673805314.191,-27.832,-25.879,-22.949,-13.672,0.000
1673805314.194,-9.277,-29.297,-29.785,-25.879,0.000
1673805314.198,-5.859,-32.227,-31.738,-25.879,0.000
1673805314.202,-11.719,-34.180,-27.344,-23.926,0.000
1673805314.206,-13.184,-32.227,-27.344,-21.973,0.000
1673805314.210,-30.273,-26.367,-23.438,-14.648,0.000
1673805314.214,-32.227,-22.949,-26.367,-10.742,0.000
1673805314.218,-22.949,-23.438,-28.320,-18.066,0.000
1673805314.222,-25.879,-22.949,-28.809,-17.090,0.000
1673805314.226,-23.438,-20.508,-27.832,-9.766,0.000
1673805314.230,-10.742,-15.137,-28.809,-12.695,0.000
1673805314.234,-23.926,-21.484,-28.320,-20.020,0.000
1673805314.237,-39.062,-29.297,-28.809,-14.648,0.000
1673805314.241,-30.273,-27.344,-39.062,-12.695,0.000
1673805314.245,-19.043,-22.949,-35.156,-31.250,0.000
1673805314.249,-11.719,-34.180,-26.855,-35.156,0.000
1673805314.253,-28.320,-48.828,-29.297,-25.879,0.000
1673805314.257,-20.996,-35.645,-23.926,-21.484,0.000
1673805314.261,-20.996,-22.461,-22.461,-20.020,0.000
1673805314.265,-37.598,-23.438,-24.414,-14.160,0.000
1673805314.269,-30.273,-22.949,-23.438,-8.301,0.000
1673805314.273,-29.297,-29.785,-27.832,-11.719,0.000
1673805314.276,-33.203,-41.504,-29.785,-25.391,0.000
1673805314.280,-25.879,-44.434,-36.133,-33.203,0.000
1673805314.284,-21.484,-45.410,-38.086,-27.344,0.000
1673805314.288,-35.156,-43.945,-33.203,-20.508,0.000
1673805314.292,-41.504,-34.668,-27.832,-34.668,0.000
1673805314.296,-21.973,-38.086,-30.762,-50.781,0.000
1673805314.300,0.977,-40.039,-44.434,-44.434,0.000
1673805314.304,-3.906,-31.250,-44.922,-28.320,0.000
1673805314.308,-34.180,-30.273,-41.016,-37.109,0.000
1673805314.312,-46.875,-37.598,-38.086,-38.574,0.000
1673805314.316,-41.992,-30.762,-37.598,-29.297,0.000
1673805314.319,-44.434,-29.785,-40.039,-27.832,0.000
1673805314.323,-48.340,-27.832,-41.992,-23.926,0.000
1673805314.327,-46.875,-25.879,-40.039,-28.320,0.000
1673805314.331,-20.508,-29.785,-36.621,-29.785,0.000
1673805314.335,-15.625,-36.621,-41.504,-29.785,0.000
1673805314.339,-20.996,-44.434,-49.316,-30.762,0.000
1673805314.343,-24.902,-35.645,-45.898,-29.297,0.000
1673805314.347,-56.152,-31.250,-32.227,-26.367,0.000
1673805314.351,-68.359,-34.668,-26.855,-24.414,0.000
1673805314.355,-62.988,-42.480,-27.344,-30.762,0.000
1673805314.359,-50.293,-41.992,-26.855,-31.738,0.000
1673805314.362,-30.762,-29.297,-32.227,-34.180,0.000
1673805314.366,-29.297,-36.133,-39.062,-42.480,0.000
1673805314.370,-38.086,-39.062,-40.039,-36.621,0.000
1673805314.374,-29.297,-27.344,-32.227,-22.949,0.000
1673805314.378,-21.484,-21.973,-28.809,-19.531,0.000
1673805314.382,-43.945,-25.391,-33.203,-19.043,0.000
1673805314.386,-46.875,-34.668,-34.180,-22.461,0.000
1673805314.390,-7.812,-32.227,-33.203,-29.785,0.000
1673805314.394,9.766,-29.785,-36.133,-23.926,0.000
1673805314.398,-2.441,-41.016,-37.598,-25.879,0.000
1673805314.401,-24.414,-48.828,-36.133,-25.391,0.000
1673805314.405,-43.945,-42.969,-37.109,-13.672,0.000
1673805314.409,-51.270,-26.367,-34.668,-16.602,0.000
1673805314.413,-42.480,-19.531,-30.273,-20.508,0.000
1673805314.417,-29.785,-21.973,-32.227,-14.160,0.000
1673805314.421,-17.578,-18.555,-27.344,-11.230,0.000
1673805314.425,-14.160,-17.090,-26.367,-20.996,0.000
1673805314.429,-14.160,-28.809,-35.156,-26.367,0.000
1673805314.433,-9.277,-30.273,-47.852,-27.344,0.000
1673805314.437,-7.812,-23.926,-36.621,-25.391,0.000
1673805314.441,-18.066,-26.855,-22.949,-18.066,0.000
1673805314.444,-25.391,-27.832,-26.855,-22.461,0.000
1673805314.448,-34.180,-31.250,-38.086,-26.367,0.000
1673805314.452,-30.762,-39.551,-36.621,-22.949,0.000
1673805314.456,-13.672,-38.086,-31.250,-27.344,0.000
1673805314.460,-4.395,-27.344,-28.809,-33.691,0.000
1673805314.464,-24.414,-30.273,-26.855,-30.273,0.000
1673805314.468,-53.223,-35.156,-32.227,-22.461,0.000
1673805314.472,-43.457,-33.203,-35.156,-17.090,0.000
1673805314.476,-38.086,-35.645,-30.762,-23.926,0.000
1673805314.480,-38.574,-38.086,-32.715,-21.484,0.000
1673805314.484,-20.996,-38.086,-30.273,-9.277,0.000
1673805314.487,-21.973,-37.109,-27.832,-7.812,0.000
1673805314.491,-14.160,-36.621,-33.203,-17.090,0.000
1673805314.495,-11.719,-33.203,-31.738,-19.531,0.000
1673805314.499,-29.785,-35.645,-33.203,-21.484,0.000
1673805314.503,-16.113,-33.203,-30.273,-20.020,0.000
1673805314.507,-14.648,-30.273,-30.273,-25.391,0.000
1673805314.511,-25.391,-27.344,-34.180,-40.527,0.000
1673805314.515,-23.926,-30.273,-33.691,-39.551,0.000
1673805314.519,-27.344,-28.320,-35.156,-27.344,0.000
1673805314.523,-34.668,-28.320,-35.156,-16.602,0.000
1673805314.526,-39.062,-34.180,-31.738,-22.949,0.000
1673805314.530,-56.152,-36.133,-32.715,-38.086,0.000
1673805314.534,-44.922,-24.902,-36.133,-41.016,0.000
1673805314.538,-19.531,-21.973,-31.738,-39.551,0.000
1673805314.542,-25.391,-26.367,-33.203,-38.086,0.000
1673805314.546,-41.016,-25.391,-42.969,-41.992,0.000
1673805314.550,-38.574,-43.945,-31.738,-44.434,0.000
