timestamp,TP9,AF7,AF8,TP10,Right AUX
1673805693.440,-48.340,-34.180,-20.508,-30.762,0.000
1673805693.443,-36.621,-39.551,-25.879,-30.762,0.000
1673805693.447,-23.926,-34.668,-28.320,-31.738,0.000
1673805693.451,-19.531,-25.391,-19.531,-27.344,0.000
1673805693.455,-14.648,-22.461,-21.973,-23.438,0.000
1673805693.459,-1.953,-27.832,-29.785,-17.578,0.000
1673805693.463,-7.812,-29.297,-32.715,-18.066,0.000
1673805693.467,-20.020,-47.852,-25.391,-30.762,0.000
1673805693.471,-11.230,-35.156,-15.625,-23.926,0.000
1673805693.475,-8.789,-18.066,-16.113,-16.602,0.000
1673805693.479,-10.742,-24.414,-28.320,-16.602,0.000
1673805693.482,-7.812,-26.855,-31.738,-20.508,0.000
1673805693.486,-8.301,-29.785,-28.809,-28.320,0.000
1673805693.490,2.930,-18.555,-18.555,-12.207,0.000
1673805693.494,1.953,-15.625,-10.742,-5.859,0.000
1673805693.498,-11.230,-20.996,-19.531,-12.207,0.000
1673805693.502,-13.672,-25.879,-22.949,-18.066,0.000
1673805693.506,-23.438,-25.879,-24.414,-23.438,0.000
1673805693.510,-20.020,-14.160,-28.809,-10.254,0.000
1673805693.514,-14.648,-18.066,-35.645,-10.742,0.000
1673805693.518,-20.020,-29.785,-36.133,-21.973,0.000
1673805693.522,-15.137,-21.973,-22.949,-26.855,0.000
1673805693.525,-14.160,-11.719,-20.996,-27.344,0.000
1673805693.529,-15.137,-11.719,-22.949,-16.602,0.000
1673805693.533,-8.789,-6.836,-20.996,-14.648,0.000
1673805693.537,-13.672,-14.160,-28.320,-24.902,0.000
1673805693.541,-13.184,-17.090,-28.320,-24.414,0.000
1673805693.545,-6.836,-8.301,-21.484,-16.113,0.000
1673805693.549,-12.207,-7.812,-21.973,-10.742,0.000
1673805693.553,-13.672,-8.789,-29.297,-27.832,0.000
1673805693.557,-4.395,-9.766,-28.809,-41.016,0.000
1673805693.561,11.230,-6.836,-18.555,-21.484,0.000
1673805693.565,-1.465,-19.531,-25.391,-22.461,0.000
1673805693.568,-4.883,-31.250,-33.203,-31.738,0.000
1673805693.572,3.906,-22.461,-31.738,-28.320,0.000
1673805693.576,-5.371,-16.602,-23.438,-22.461,0.000
1673805693.580,-9.277,-20.508,-18.066,-3.906,0.000
1673805693.584,-3.418,-8.789,-9.766,2.930,0.000
1673805693.588,-5.371,-4.883,-9.277,-13.184,0.000
1673805693.592,-17.090,-18.555,-16.602,-20.996,0.000
1673805693.596,-20.996,-19.531,-17.578,-14.648,0.000
1673805693.600,-10.742,-17.578,-21.973,-10.742,0.000
1673805693.604,-15.625,-25.879,-16.602,-6.836,0.000
1673805693.607,-19.531,-36.133,-11.230,0.000,0.000
1673805693.611,-21.484,-26.855,-16.602,4.395,0.000
1673805693.615,-44.434,-26.855,-24.414,4.883,0.000
1673805693.619,-36.133,-23.926,-16.113,1.953,0.000
1673805693.623,-18.066,-7.812,-9.277,-2.930,0.000
1673805693.627,-20.996,-10.254,-11.719,-7.812,0.000
1673805693.631,-20.508,-25.391,-13.184,-12.695,0.000
1673805693.635,-8.301,-37.598,-25.879,-14.160,0.000
1673805693.639,1.465,-30.762,-29.785,-13.672,0.000
1673805693.643,-3.418,-21.973,-15.625,-12.695,0.000
1673805693.647,2.441,-19.531,-8.301,-10.254,0.000
1673805693.650,8.301,-12.695,-7.324,-10.254,0.000
1673805693.654,-1.465,-24.902,-20.020,-23.926,0.000
1673805693.658,0.488,-24.902,-25.391,-22.949,0.000
1673805693.662,4.395,-12.695,-20.996,-0.977,0.000
1673805693.666,10.254,-8.789,-27.832,4.395,0.000
1673805693.670,13.184,-12.695,-29.785,-9.766,0.000
1673805693.674,8.301,-21.484,-21.973,-18.066,0.000
1673805693.678,4.883,-21.484,-18.066,-18.066,0.000
1673805693.682,-1.465,-21.484,-23.438,-25.391,0.000
1673805693.686,-11.719,-20.996,-26.367,-19.531,0.000
1673805693.690,-18.555,-31.250,-24.414,-7.324,0.000
1673805693.693,-23.926,-34.668,-24.414,-6.836,0.000
1673805693.697,-22.461,-25.391,-29.297,-6.836,0.000
1673805693.701,-24.414,-23.926,-27.344,-10.254,0.000
1673805693.705,-23.926,-28.320,-27.832,-19.531,0.000
1673805693.709,-10.254,-21.973,-33.203,-14.160,0.000
1673805693.713,-17.578,-18.555,-31.250,-3.906,0.000
1673805693.717,-40.039,-20.508,-29.785,-11.230,0.000
1673805693.721,-37.109,-21.973,-33.203,-20.996,0.000
1673805693.725,-27.344,-23.438,-34.668,-15.625,0.000
1673805693.729,-14.648,-27.344,-26.367,-15.625,0.000
1673805693.732,0.000,-23.438,-18.066,-15.137,0.000
1673805693.736,-6.348,-13.672,-20.508,-14.648,0.000
1673805693.740,-10.742,-23.438,-30.762,-26.367,0.000
1673805693.744,-10.254,-34.180,-40.527,-31.738,0.000
1673805693.748,-12.695,-28.320,-37.109,-37.109,0.000
1673805693.752,3.418,-24.902,-25.391,-39.551,0.000
1673805693.756,8.301,-23.438,-30.273,-24.902,0.000
1673805693.760,2.441,-24.902,-36.133,-11.719,0.000
1673805693.764,3.418,-25.391,-28.809,-18.066,0.000
1673805693.768,-0.977,-29.785,-27.832,-24.414,0.000
1673805693.772,-3.906,-39.551,-31.250,-22.461,0.000
1673805693.775,-14.648,-38.574,-34.180,-22.461,0.000
1673805693.779,-27.344,-41.504,-34.668,-24.902,0.000
1673805693.783,-16.602,-40.039,-26.855,-20.508,0.000
1673805693.787,-3.418,-28.320,-23.438,-20.020,0.000
1673805693.791,0.488,-29.785,-30.273,-36.621,0.000
1673805693.795,-10.254,-33.691,-37.109,-30.762,0.000
1673805693.799,-41.016,-35.156,-37.109,-12.207,0.000
1673805693.803,-49.805,-39.551,-35.645,-19.043,0.000
1673805693.807,-45.898,-36.133,-27.832,-23.926,0.000
1673805693.811,-36.621,-23.926,-32.715,-10.742,0.000
1673805693.815,-28.809,-23.926,-41.016,-7.812,0.000
1673805693.818,-21.973,-36.133,-24.414,-14.648,0.000
1673805693.822,-21.484,-38.574,-21.973,-20.020,0.000
1673805693.826,-20.020,-28.320,-20.508,-15.625,0.000
1673805693.830,-13.672,-28.809,-18.555,-3.906,0.000
1673805693.834,-22.949,-28.809,-21.973,-12.207,0.000
1673805693.838,-29.785,-29.785,-27.344,-29.785,0.000
1673805693.842,-29.297,-25.879,-27.832,-25.391,0.000
1673805693.846,-24.414,-22.461,-16.602,-13.184,0.000
1673805693.850,-20.996,-21.484,-30.762,-22.461,0.000
1673805693.854,-22.949,-17.578,-41.992,-26.855,0.000
1673805693.857,-22.949,-22.461,-24.902,-22.949,0.000
1673805693.861,-15.625,-17.090,-23.926,-27.832,0.000
1673805693.865,-8.301,-9.766,-26.855,-26.367,0.000
1673805693.869,-8.789,-19.531,-25.879,-25.879,0.000
1673805693.873,-2.930,-30.762,-26.367,-18.555,0.000
1673805693.877,-17.578,-21.973,-17.090,-9.277,0.000
1673805693.881,-27.344,-17.090,-14.648,-18.555,0.000
1673805693.885,-23.438,-12.695,-21.484,-25.391,0.000
1673805693.889,-16.113,-8.789,-25.879,-18.555,0.000
1673805693.893,-9.766,-32.715,-34.668,-24.414,0.000
1673805693.897,-31.250,-34.668,-30.273,-15.625,0.000
1673805693.900,-42.480,-21.484,-20.996,-12.207,0.000
1673805693.904,-45.410,-20.020,-21.484,-23.926,0.000
1673805693.908,-51.270,-18.066,-19.531,-10.254,0.000
1673805693.912,-38.574,-26.855,-18.066,-2.930,0.000
1673805693.916,-22.949,-26.855,-20.508,-13.184,0.000
1673805693.920,-7.324,-17.090,-30.762,-20.996,0.000
1673805693.924,-6.348,-17.578,-29.785,-10.254,0.000
1673805693.928,-24.902,-32.227,-21.973,-4.395,0.000
1673805693.932,-41.504,-34.180,-27.344,-8.301,0.000
1673805693.936,-30.762,-20.020,-24.414,0.488,0.000
1673805693.940,-23.926,-18.555,-18.555,-5.859,0.000
1673805693.943,-26.855,-18.066,-25.391,-16.602,0.000
1673805693.947,-12.207,-15.137,-29.785,-4.883,0.000
1673805693.951,-7.324,-32.227,-21.973,-10.254,0.000
1673805693.955,-13.672,-40.527,-21.484,-22.461,0.000
1673805693.959,-21.973,-33.203,-27.344,-28.809,0.000
1673805693.963,-25.879,-27.344,-27.832,-26.855,0.000
1673805693.967,-15.137,-23.926,-19.531,-18.555,0.000
1673805693.971,-11.230,-19.043,-2.441,-6.348,0.000
1673805693.975,-16.602,-26.367,-15.137,-17.090,0.000
1673805693.979,-14.648,-28.809,-26.367,-17.578,0.000
1673805693.982,-2.930,-21.973,-19.531,-0.977,0.000
1673805693.986,-0.488,-30.273,-27.832,-18.555,0.000
1673805693.990,4.395,-32.227,-30.273,-17.578,0.000
1673805693.994,-10.254,-36.621,-35.156,-13.184,0.000
1673805693.998,-19.043,-36.621,-42.969,-14.648,0.000
1673805694.002,-11.719,-31.738,-41.504,-19.043,0.000
1673805694.006,-11.719,-13.672,-30.273,-21.973,0.000
1673805694.010,-5.859,-14.648,-21.973,-18.066,0.000
1673805694.014,0.488,-26.855,-28.809,-28.320,0.000
1673805694.018,-4.883,-24.414,-36.133,-32.715,0.000
1673805694.022,-12.695,-25.391,-28.809,-27.832,0.000
1673805694.025,-28.809,-31.738,-28.320,-25.391,0.000
1673805694.029,-31.250,-37.109,-30.273,-18.555,0.000
1673805694.033,-12.207,-35.156,-28.320,-26.367,0.000
1673805694.037,-9.277,-27.832,-37.109,-36.133,0.000
1673805694.041,-13.672,-25.391,-41.992,-23.926,0.000
1673805694.045,-13.184,-16.113,-26.367,-23.926,0.000
1673805694.049,-13.184,-14.160,-26.855,-34.668,0.000
1673805694.053,-15.137,-22.949,-36.133,-37.598,0.000
1673805694.057,-33.691,-24.414,-30.762,-44.434,0.000
1673805694.061,-35.156,-21.484,-26.367,-40.039,0.000
1673805694.065,-30.273,-25.879,-24.414,-33.203,0.000
1673805694.068,-26.855,-37.598,-23.926,-32.227,0.000
1673805694.072,-2.930,-38.574,-24.902,-23.438,0.000
1673805694.076,6.836,-30.273,-19.043,-27.344,0.000
1673805694.080,-2.441,-35.645,-25.879,-27.832,0.000
1673805694.084,-24.902,-34.180,-39.062,-23.926,0.000
1673805694.088,-44.922,-30.762,-32.227,-28.809,0.000
1673805694.092,-39.062,-32.715,-22.949,-35.645,0.000
1673805694.096,-26.855,-35.156,-31.250,-36.133,0.000
1673805694.100,-33.203,-37.598,-39.062,-34.668,0.000
1673805694.104,-24.414,-28.809,-29.785,-38.086,0.000
1673805694.107,-18.066,-28.809,-24.902,-35.156,0.000
1673805694.111,-26.367,-37.109,-33.203,-33.691,0.000
1673805694.115,-19.531,-22.949,-29.785,-34.180,0.000
1673805694.119,-25.879,-22.949,-24.414,-35.645,0.000
1673805694.123,-38.574,-28.809,-27.832,-24.902,0.000
1673805694.127,-44.922,-23.438,-29.297,-11.230,0.000
1673805694.131,-37.109,-31.250,-27.832,-18.555,0.000
1673805694.135,-24.902,-27.344,-15.137,-16.113,0.000
1673805694.139,-27.344,-26.367,-13.672,-6.348,0.000
1673805694.143,-34.180,-38.086,-37.109,-12.695,0.000
1673805694.147,-15.625,-33.203,-37.109,-19.043,0.000
1673805694.150,-10.254,-29.297,-13.672,-27.832,0.000
1673805694.154,-24.414,-29.785,-13.184,-42.969,0.000
1673805694.158,-23.438,-23.438,-18.066,-45.410,0.000
1673805694.162,-25.391,-23.926,-22.461,-37.598,0.000
1673805694.166,-19.531,-26.855,-32.227,-35.156,0.000
1673805694.170,-17.090,-22.461,-26.367,-24.902,0.000
1673805694.174,-25.879,-24.902,-18.066,-4.395,0.000
1673805694.178,-20.020,-24.902,-16.602,0.488,0.000
1673805694.182,0.000,-18.066,-21.484,-8.301,0.000
1673805694.186,-8.789,-12.695,-29.297,-11.719,0.000
1673805694.190,-27.832,-18.066,-25.879,-6.348,0.000
1673805694.193,-39.062,-24.414,-16.602,4.395,0.000
1673805694.197,-46.387,-27.344,-12.695,3.418,0.000
1673805694.201,-45.410,-32.227,-22.949,-14.160,0.000
1673805694.205,-30.273,-34.668,-28.809,-23.926,0.000
1673805694.209,-9.277,-18.555,-21.484,-17.090,0.000
1673805694.213,-12.207,-23.438,-27.832,-23.438,0.000
1673805694.217,-15.625,-28.809,-36.133,-24.902,0.000
1673805694.221,0.488,-19.043,-25.879,-18.555,0.000
1673805694.225,-14.160,-12.207,-16.602,-11.230,0.000
1673805694.229,-46.387,-20.508,-21.484,-13.184,0.000
1673805694.232,-39.062,-23.438,-27.832,-21.973,0.000
1673805694.236,-23.438,-22.461,-22.949,-12.695,0.000
1673805694.240,-24.414,-33.203,-23.926,-12.207,0.000
1673805694.244,-39.551,-36.621,-39.062,-28.809,0.000
1673805694.248,-31.250,-24.902,-28.809,-30.273,0.000
1673805694.252,-20.020,-15.625,-29.785,-27.832,0.000
1673805694.256,-28.320,-26.855,-54.199,-31.250,0.000
1673805694.260,-26.855,-29.785,-38.086,-28.809,0.000
1673805694.264,-35.156,-26.367,-24.902,-31.738,0.000
1673805694.268,-33.691,-29.785,-24.414,-38.086,0.000
1673805694.272,-29.785,-36.133,-23.438,-41.504,0.000
1673805694.275,-35.156,-24.902,-22.949,-29.785,0.000
1673805694.279,-26.855,-16.602,-17.578,-11.230,0.000
1673805694.283,-30.273,-25.391,-20.508,-15.137,0.000
1673805694.287,-35.156,-23.438,-22.461,-22.949,0.000
1673805694.291,-32.715,-23.926,-26.855,-23.438,0.000
1673805694.295,-30.273,-26.367,-28.809,-24.414,0.000
1673805694.299,-21.973,-26.367,-26.855,-22.949,0.000
1673805694.303,-18.555,-17.578,-26.855,-20.020,0.000
1673805694.307,-12.207,-19.531,-27.344,-17.090,0.000
1673805694.311,-12.207,-25.879,-26.367,-12.207,0.000
1673805694.315,-36.133,-27.344,-27.344,-19.531,0.000
1673805694.318,-37.598,-29.785,-37.598,-31.738,0.000
1673805694.322,-33.691,-29.785,-39.551,-36.133,0.000
1673805694.326,-32.715,-31.738,-33.203,-26.367,0.000
1673805694.330,-25.391,-26.367,-25.391,-20.508,0.000
1673805694.334,-25.391,-26.855,-22.461,-19.531,0.000
1673805694.338,-14.648,-37.598,-33.203,-20.508,0.000
1673805694.342,-34.180,-27.832,-37.598,-30.273,0.000
1673805694.346,-51.758,-20.020,-29.785,-28.320,0.000
1673805694.350,-37.598,-19.043,-30.762,-13.184,0.000
1673805694.354,-34.180,-16.113,-29.297,0.000,0.000
1673805694.357,-34.180,-20.020,-22.461,4.395,0.000
1673805694.361,-41.992,-29.785,-27.344,1.465,0.000
1673805694.365,-54.688,-35.156,-31.250,-18.555,0.000
1673805694.369,-49.805,-20.508,-26.367,-21.973,0.000
1673805694.373,-55.664,-24.902,-31.738,-17.578,0.000
1673805694.377,-61.035,-29.297,-37.109,-24.414,0.000
1673805694.381,-45.410,-24.902,-38.086,-26.855,0.000
1673805694.385,-44.922,-31.738,-40.527,-30.273,0.000
1673805694.389,-41.016,-31.738,-37.598,-25.391,0.000
1673805694.393,-43.457,-28.320,-31.250,-24.414,0.000
1673805694.397,-52.246,-34.180,-37.109,-35.156,0.000
1673805694.400,-41.504,-30.273,-39.551,-42.480,0.000
1673805694.404,-29.785,-20.996,-32.715,-37.109,0.000
1673805694.408,-35.645,-27.832,-26.855,-33.203,0.000
1673805694.412,-31.250,-31.738,-20.508,-24.902,0.000
1673805694.416,-19.531,-27.832,-23.438,-20.508,0.000
1673805694.420,-6.348,-16.602,-42.969,-33.691,0.000
1673805694.424,-4.883,-9.277,-54.199,-25.879,0.000
1673805694.428,-24.414,-11.230,-36.621,-12.207,0.000
1673805694.432,-41.016,-14.160,-17.090,-5.859,0.000
1673805694.436,-47.363,-33.691,-19.531,-9.277,0.000
1673805694.440,-33.203,-29.785,-28.809,-26.367,0.000
1673805694.443,-12.207,-6.836,-30.273,-19.043,0.000
1673805694.447,-17.578,-8.789,-27.832,-9.766,0.000
1673805694.451,-34.668,-18.555,-30.762,-13.184,0.000
1673805694.455,-32.227,-10.254,-30.273,-16.602,0.000
1673805694.459,-22.949,-10.254,-22.949,-7.812,0.000
1673805694.463,-28.809,-24.902,-25.391,0.977,0.000
1673805694.467,-36.621,-15.625,-26.367,-8.789,0.000
1673805694.471,-29.785,-11.230,-23.926,-17.578,0.000
1673805694.475,-24.414,-22.949,-24.414,-12.695,0.000
1673805694.479,-21.973,-24.902,-24.902,-7.812,0.000
1673805694.482,-18.066,-24.902,-29.297,-6.348,0.000
1673805694.486,-12.695,-18.555,-32.227,-6.836,0.000
1673805694.490,-18.555,-13.672,-33.203,-6.348,0.000
1673805694.494,-24.414,-19.531,-36.133,-8.789,0.000
1673805694.498,-10.254,-20.508,-29.785,-9.277,0.000
1673805694.502,-15.625,-21.973,-26.855,-13.672,0.000
1673805694.506,-20.508,-21.484,-27.344,-15.625,0.000
1673805694.510,-12.695,-16.602,-26.855,-14.160,0.000
1673805694.514,-8.789,-12.207,-24.902,-19.531,0.000
1673805694.518,-1.465,-13.672,-16.113,-23.438,0.000
1673805694.522,-13.184,-28.320,-18.066,-22.461,0.000
1673805694.525,-30.762,-30.762,-26.855,-25.879,0.000
1673805694.529,-31.738,-26.855,-32.227,-22.461,0.000
1673805694.533,-26.855,-35.156,-31.250,-11.719,0.000
1673805694.537,-25.879,-39.062,-19.531,-11.719,0.000
1673805694.541,-27.344,-29.785,-31.738,-10.742,0.000
1673805694.545,-23.438,-20.020,-36.133,-1.465,0.000
1673805694.549,-11.230,-14.160,-18.555,-16.602,0.000
1673805694.553,-17.578,-17.090,-23.438,-35.645,0.000
1673805694.557,-23.926,-19.043,-30.273,-25.391,0.000
1673805694.561,-11.230,-17.578,-23.438,-12.695,0.000
1673805694.565,-22.461,-14.648,-20.508,-14.160,0.000
1673805694.568,-46.875,-17.090,-22.461,-15.625,0.000
1673805694.572,-45.898,-22.461,-29.297,-10.742,0.000
1673805694.576,-43.457,-26.855,-26.367,2.441,0.000
1673805694.580,-45.410,-25.391,-10.254,6.348,0.000
1673805694.584,-54.199,-16.602,-11.230,-5.859,0.000
1673805694.588,-72.266,-20.020,-19.531,-21.973,0.000
1673805694.592,-78.125,-25.879,-23.438,-20.020,0.000
1673805694.596,-87.891,-23.438,-20.508,1.953,0.000
1673805694.600,-86.426,-22.461,-18.555,7.324,0.000
1673805694.604,-75.195,-19.043,-19.043,2.930,0.000
1673805694.607,-58.105,-18.555,-20.996,2.441,0.000
1673805694.611,-56.152,-17.578,-26.367,0.977,0.000
1673805694.615,-66.895,-10.254,-32.227,-12.695,0.000
1673805694.619,-51.758,-16.113,-31.250,-18.555,0.000
1673805694.623,-33.203,-20.508,-28.809,-6.348,0.000
1673805694.627,-25.391,-17.090,-34.180,2.441,0.000
1673805694.631,-9.766,-25.879,-34.180,-7.812,0.000
1673805694.635,-2.441,-27.832,-22.461,-20.996,0.000
1673805694.639,-7.812,-21.484,-16.113,-20.508,0.000
1673805694.643,-27.344,-35.156,-16.113,-22.949,0.000
1673805694.647,-39.551,-38.086,-29.297,-26.367,0.000
1673805694.650,-21.484,-26.367,-44.922,-21.973,0.000
1673805694.654,-10.742,-28.320,-26.855,-2.930,0.000
1673805694.658,-12.207,-21.484,-18.066,1.953,0.000
1673805694.662,-33.691,-11.719,-33.691,-9.277,0.000
1673805694.666,-48.828,-18.555,-29.785,-16.602,0.000
1673805694.670,-21.484,-23.438,-24.414,-19.043,0.000
1673805694.674,-14.648,-18.066,-23.926,-18.066,0.000
1673805694.678,-33.203,-27.832,-20.996,-20.996,0.000
1673805694.682,-43.945,-38.574,-20.996,-15.625,0.000
1673805694.686,-58.105,-32.227,-27.344,-20.508,0.000
1673805694.690,-49.805,-14.648,-26.855,-23.926,0.000
1673805694.693,-28.320,-10.254,-14.648,3.418,0.000
1673805694.697,-36.133,-26.367,-14.648,6.348,0.000
1673805694.701,-31.738,-28.809,-16.113,-13.184,0.000
1673805694.705,-30.273,-21.484,-16.602,-9.277,0.000
1673805694.709,-46.875,-20.996,-30.762,-16.602,0.000
1673805694.713,-41.992,-22.949,-34.180,-29.785,0.000
1673805694.717,-38.086,-32.715,-21.973,-37.598,0.000
1673805694.721,-35.156,-33.691,-24.414,-46.387,0.000
1673805694.725,-28.320,-26.855,-32.227,-43.945,0.000
1673805694.729,-25.879,-25.391,-23.926,-27.344,0.000
1673805694.732,-31.250,-15.137,-18.066,-20.020,0.000
1673805694.736,-42.480,-19.043,-29.297,-31.250,0.000
1673805694.740,-42.969,-21.973,-41.016,-28.809,0.000
1673805694.744,-34.180,-22.949,-36.621,-20.996,0.000
1673805694.748,-34.668,-25.391,-27.832,-20.508,0.000
1673805694.752,-46.875,-29.297,-37.109,-20.508,0.000
1673805694.756,-39.062,-30.273,-38.086,-14.648,0.000
1673805694.760,-37.109,-21.973,-31.250,-2.930,0.000
1673805694.764,-32.227,-13.672,-20.020,-1.953,0.000
1673805694.768,-29.785,-13.184,-9.277,-23.926,0.000
1673805694.772,-41.016,-37.598,-30.273,-32.715,0.000
1673805694.775,-40.039,-46.387,-38.574,-8.789,0.000
1673805694.779,-37.109,-28.809,-8.789,10.742,0.000
1673805694.783,-38.086,-26.855,1.465,1.465,0.000
1673805694.787,-55.664,-25.879,-13.672,-10.254,0.000
1673805694.791,-62.500,-27.344,-21.484,-16.602,0.000
1673805694.795,-57.617,-32.227,-18.066,-21.973,0.000
1673805694.799,-46.875,-24.414,-20.508,-33.203,0.000
1673805694.803,-35.645,-32.715,-21.484,-39.551,0.000
1673805694.807,-46.875,-39.551,-19.043,-36.133,0.000
1673805694.811,-49.316,-25.391,-17.090,-28.320,0.000
1673805694.815,-46.875,-18.066,-16.113,-22.461,0.000
1673805694.818,-53.711,-23.438,-13.672,-23.926,0.000
1673805694.822,-46.387,-15.625,-12.207,-19.043,0.000
1673805694.826,-37.109,-23.438,-21.484,-24.902,0.000
1673805694.830,-40.527,-30.273,-20.996,-23.926,0.000
1673805694.834,-46.387,-15.625,-16.113,-15.137,0.000
1673805694.838,-23.926,-22.949,-20.508,-19.531,0.000
1673805694.842,-31.250,-32.227,-23.926,-14.160,0.000
1673805694.846,-57.129,-26.367,-29.785,-14.160,0.000
1673805694.850,-35.645,-27.832,-29.785,-18.066,0.000
1673805694.854,-38.086,-36.133,-33.203,-10.742,0.000
1673805694.857,-65.918,-36.621,-46.875,-8.301,0.000
1673805694.861,-48.340,-20.996,-24.414,-3.906,0.000
1673805694.865,-35.645,-17.578,-6.836,-16.113,0.000
1673805694.869,-57.129,-25.391,-14.648,-26.367,0.000
1673805694.873,-62.500,-20.020,-20.020,-9.277,0.000
1673805694.877,-57.617,-19.531,-24.902,-5.859,0.000
1673805694.881,-48.828,-29.297,-20.508,-4.395,0.000
1673805694.885,-43.945,-33.203,-20.996,-8.301,0.000
1673805694.889,-36.621,-28.320,-30.273,-13.184,0.000
1673805694.893,-51.270,-31.250,-30.762,-7.324,0.000
1673805694.897,-59.082,-33.203,-34.668,-7.324,0.000
1673805694.900,-47.852,-29.297,-39.062,-17.578,0.000
1673805694.904,-39.551,-29.297,-38.574,-26.855,0.000
1673805694.908,-26.855,-30.762,-34.668,-20.996,0.000
1673805694.912,-19.531,-21.484,-38.574,-14.648,0.000
1673805694.916,-25.879,-23.438,-31.250,-16.602,0.000
1673805694.920,-32.715,-31.738,-20.508,-28.320,0.000
1673805694.924,-21.484,-28.320,-21.484,-26.367,0.000
1673805694.928,-14.648,-20.508,-32.227,-13.672,0.000
1673805694.932,-10.742,-32.227,-48.340,-24.902,0.000
1673805694.936,-20.020,-46.875,-33.691,-28.320,0.000
1673805694.940,-39.062,-23.926,-19.043,-33.203,0.000
1673805694.943,-55.176,-17.578,-28.809,-45.410,0.000
1673805694.947,-65.430,-30.762,-34.668,-37.598,0.000
1673805694.951,-58.594,-37.598,-36.133,-40.039,0.000
1673805694.955,-56.152,-37.598,-41.016,-41.992,0.000
1673805694.959,-58.594,-27.832,-33.691,-26.367,0.000
1673805694.963,-60.547,-33.203,-33.691,-21.973,0.000
1673805694.967,-62.500,-41.016,-35.156,-30.273,0.000
1673805694.971,-52.246,-30.762,-21.484,-21.973,0.000
1673805694.975,-35.645,-19.043,-20.020,-14.160,0.000
1673805694.979,-34.180,-23.438,-27.344,-22.461,0.000
1673805694.982,-18.066,-25.391,-27.832,-20.020,0.000
1673805694.986,-10.742,-27.344,-20.020,-9.766,0.000
1673805694.990,-29.785,-25.391,-26.367,-18.066,0.000
1673805694.994,-38.574,-23.438,-33.691,-16.113,0.000
1673805694.998,-33.203,-28.320,-23.926,-14.160,0.000
1673805695.002,-27.344,-19.043,-22.461,-19.043,0.000
1673805695.006,-19.043,-9.766,-34.180,-13.184,0.000
1673805695.010,-18.555,-12.695,-40.527,-30.273,0.000
1673805695.014,-14.160,-20.996,-28.809,-34.668,0.000
1673805695.018,1.953,-28.320,-18.066,-30.273,0.000
1673805695.022,-7.812,-27.344,-23.438,-34.668,0.000
1673805695.025,-23.438,-15.625,-29.785,-23.926,0.000
1673805695.029,-16.602,-19.043,-22.461,-17.578,0.000
1673805695.033,0.488,-19.043,-25.391,-13.672,0.000
1673805695.037,6.836,-14.160,-33.203,-18.066,0.000
1673805695.041,5.859,-19.043,-31.250,-18.066,0.000
1673805695.045,0.977,-31.738,-23.926,-10.742,0.000
1673805695.049,-6.836,-38.086,-15.625,-0.977,0.000
1673805695.053,-6.348,-24.414,-18.066,-0.488,0.000
1673805695.057,0.488,-12.207,-20.508,-3.906,0.000
1673805695.061,-3.418,-19.531,-30.762,-7.324,0.000
1673805695.065,-14.160,-35.156,-41.016,-16.113,0.000
1673805695.068,-7.324,-36.133,-39.062,-17.578,0.000
1673805695.072,-1.465,-27.832,-33.203,-17.578,0.000
1673805695.076,-12.695,-28.320,-29.785,-14.160,0.000
1673805695.080,-13.184,-26.855,-23.926,-6.348,0.000
1673805695.084,1.465,-28.320,-27.344,-5.371,0.000
1673805695.088,6.348,-28.809,-42.969,-10.742,0.000
1673805695.092,5.859,-23.926,-32.715,-20.508,0.000
1673805695.096,1.953,-34.668,-19.043,-30.273,0.000
1673805695.100,2.441,-44.922,-25.879,-34.668,0.000
1673805695.104,12.207,-31.738,-24.414,-32.227,0.000
1673805695.107,10.254,-16.602,-17.090,-26.367,0.000
1673805695.111,3.906,-23.926,-21.973,-29.785,0.000
1673805695.115,3.906,-29.297,-29.785,-34.180,0.000
1673805695.119,-4.883,-27.344,-36.621,-30.762,0.000
1673805695.123,-4.883,-31.250,-31.738,-29.785,0.000
1673805695.127,9.277,-25.391,-27.832,-31.738,0.000
1673805695.131,5.859,-30.273,-27.344,-31.738,0.000
1673805695.135,10.742,-40.039,-23.926,-31.250,0.000
1673805695.139,5.371,-34.180,-31.250,-29.785,0.000
1673805695.143,-30.762,-29.785,-39.551,-35.156,0.000
1673805695.147,-26.855,-27.832,-29.297,-31.250,0.000
1673805695.150,-16.113,-17.578,-21.484,-11.719,0.000
1673805695.154,-28.809,-32.227,-38.086,-19.531,0.000
1673805695.158,-19.043,-51.270,-35.645,-11.719,0.000
1673805695.162,-2.930,-38.574,-26.855,-12.695,0.000
1673805695.166,-17.578,-34.180,-42.969,-27.832,0.000
1673805695.170,-19.043,-32.715,-47.363,-30.762,0.000
1673805695.174,-24.414,-26.855,-33.203,-33.691,0.000
1673805695.178,-31.738,-25.879,-34.180,-27.344,0.000
1673805695.182,-22.461,-26.367,-35.156,-15.137,0.000
1673805695.186,-17.578,-30.273,-34.180,-19.531,0.000
1673805695.190,-6.348,-30.762,-40.039,-38.574,0.000
1673805695.193,-4.883,-36.133,-50.781,-39.551,0.000
1673805695.197,1.953,-24.902,-37.109,-32.227,0.000
1673805695.201,13.184,-8.789,-20.020,-32.715,0.000
1673805695.205,8.301,-13.672,-25.879,-34.668,0.000
1673805695.209,5.371,-27.344,-27.832,-26.855,0.000
1673805695.213,25.391,-23.438,-31.738,-19.531,0.000
1673805695.217,8.789,-18.555,-36.621,-36.133,0.000
1673805695.221,-21.973,-18.066,-33.203,-42.969,0.000
1673805695.225,-20.996,-13.184,-29.297,-29.785,0.000
1673805695.229,-20.508,-20.508,-32.227,-27.344,0.000
1673805695.232,-19.531,-24.414,-39.062,-36.621,0.000
1673805695.236,-15.625,-21.973,-43.945,-37.109,0.000
1673805695.240,-22.949,-28.809,-28.320,-26.855,0.000
1673805695.244,-20.996,-45.898,-19.531,-25.879,0.000
1673805695.248,-9.277,-45.898,-25.391,-33.203,0.000
1673805695.252,-13.672,-21.973,-16.113,-28.809,0.000
1673805695.256,-22.461,-16.113,-16.602,-19.531,0.000
1673805695.260,-22.461,-17.090,-25.391,-23.926,0.000
1673805695.264,-28.320,-19.531,-21.484,-25.391,0.000
1673805695.268,-31.250,-30.762,-21.484,-25.391,0.000
1673805695.272,-38.086,-32.227,-28.809,-27.832,0.000
1673805695.275,-36.133,-21.973,-24.902,-16.113,0.000
1673805695.279,-22.949,-23.438,-26.367,-15.625,0.000
1673805695.283,-18.555,-31.738,-35.645,-39.551,0.000
1673805695.287,-23.926,-28.809,-34.180,-46.875,0.000
1673805695.291,-39.551,-33.203,-39.062,-35.645,0.000
1673805695.295,-31.738,-28.320,-23.926,-20.020,0.000
1673805695.299,-21.484,-20.996,-21.973,-26.855,0.000
1673805695.303,-23.926,-25.879,-30.273,-40.527,0.000
1673805695.307,-22.949,-25.391,-25.391,-35.645,0.000
1673805695.311,-20.996,-35.645,-34.180,-22.949,0.000
1673805695.315,-17.090,-40.039,-29.297,-10.742,0.000
1673805695.318,-12.207,-23.926,-18.555,-25.391,0.000
1673805695.322,-9.277,-9.277,-20.996,-38.574,0.000
1673805695.326,-18.555,-14.160,-29.297,-29.297,0.000
1673805695.330,-20.020,-28.320,-33.203,-28.320,0.000
1673805695.334,-20.996,-20.508,-31.250,-27.344,0.000
1673805695.338,-20.020,-11.230,-27.832,-24.414,0.000
1673805695.342,-15.137,-21.484,-24.414,-29.785,0.000
1673805695.346,-18.555,-33.203,-28.320,-28.809,0.000
1673805695.350,-19.531,-30.273,-29.785,-23.438,0.000
1673805695.354,-30.273,-20.996,-31.250,-28.809,0.000
1673805695.357,-27.832,-24.414,-32.715,-20.020,0.000
1673805695.361,-16.602,-23.926,-28.320,-1.465,0.000
1673805695.365,-24.414,-23.438,-27.344,-5.371,0.000
1673805695.369,-28.320,-36.133,-28.809,-4.395,0.000
1673805695.373,-27.344,-41.504,-44.922,0.488,0.000
1673805695.377,-31.250,-34.668,-49.805,-4.883,0.000
1673805695.381,-17.090,-13.672,-16.113,-1.465,0.000
1673805695.385,-19.531,-17.090,-10.254,-23.438,0.000
1673805695.389,-31.250,-24.902,-28.809,-47.363,0.000
1673805695.393,-17.578,-18.555,-23.438,-30.762,0.000
1673805695.397,-16.602,-31.250,-19.531,-15.625,0.000
1673805695.400,-18.066,-31.250,-18.066,-14.160,0.000
1673805695.404,-2.441,-16.602,-4.883,-8.789,0.000
1673805695.408,-8.301,-11.230,-14.160,-3.906,0.000
1673805695.412,-20.020,-22.949,-33.691,-18.066,0.000
1673805695.416,-14.648,-26.855,-36.621,-33.203,0.000
1673805695.420,-13.672,-24.414,-36.133,-41.992,0.000
1673805695.424,-13.184,-18.555,-30.273,-31.250,0.000
1673805695.428,-3.418,-27.832,-25.879,-6.836,0.000
1673805695.432,-4.395,-34.668,-32.715,-14.648,0.000
1673805695.436,-13.672,-20.508,-28.809,-26.855,0.000
1673805695.440,-14.160,-12.695,-18.555,-23.926,0.000
1673805695.443,-18.066,-18.066,-28.809,-32.715,0.000
1673805695.447,-16.113,-21.973,-28.320,-39.551,0.000
1673805695.451,-14.160,-21.484,-25.391,-32.227,0.000
1673805695.455,-16.602,-16.113,-31.738,-24.902,0.000
1673805695.459,-21.973,-19.531,-31.738,-21.484,0.000
1673805695.463,-26.367,-33.203,-23.926,-10.254,0.000
1673805695.467,-25.879,-31.738,-24.414,-6.836,0.000
1673805695.471,-39.551,-25.391,-25.879,-3.418,0.000
1673805695.475,-45.410,-30.273,-19.043,0.488,0.000
1673805695.479,-32.227,-29.297,-20.996,-6.348,0.000
1673805695.482,-23.438,-14.160,-20.996,-8.301,0.000
1673805695.486,-24.902,-9.277,-19.043,-6.836,0.000
1673805695.490,-32.227,-22.949,-25.879,-14.648,0.000
1673805695.494,-28.809,-31.738,-30.762,-26.855,0.000
1673805695.498,-24.902,-27.344,-29.785,-34.180,0.000
1673805695.502,-14.160,-27.344,-38.086,-41.016,0.000
1673805695.506,-9.766,-28.809,-37.109,-36.621,0.000
1673805695.510,-11.230,-20.996,-26.367,-26.855,0.000
1673805695.514,-23.926,-29.297,-24.414,-12.695,0.000
1673805695.518,-47.363,-32.715,-19.531,-11.230,0.000
1673805695.522,-34.668,-21.973,-12.695,-11.230,0.000
1673805695.525,-20.508,-19.531,-14.160,-8.789,0.000
1673805695.529,-28.809,-19.043,-19.531,-9.277,0.000
1673805695.533,-44.434,-22.949,-16.602,-7.324,0.000
1673805695.537,-31.738,-22.949,-18.555,1.465,0.000
1673805695.541,-14.648,-23.438,-21.484,-2.930,0.000
1673805695.545,-11.230,-13.672,-6.348,-1.465,0.000
1673805695.549,-11.719,-19.043,-12.695,1.465,0.000
1673805695.553,-18.066,-41.016,-39.062,-19.531,0.000
1673805695.557,-22.949,-33.691,-41.504,-25.879,0.000
1673805695.561,-25.391,-19.043,-26.855,-13.672,0.000
1673805695.564,-31.738,-25.879,-23.438,-15.625,0.000
1673805695.568,-19.043,-22.461,-16.602,-13.672,0.000
1673805695.572,-11.719,-13.672,-12.207,0.488,0.000
1673805695.576,-28.320,-22.949,-16.602,1.953,0.000
1673805695.580,-26.367,-24.902,-18.066,-6.348,0.000
1673805695.584,-18.066,-29.785,-23.926,-15.625,0.000
1673805695.588,-29.297,-26.855,-31.250,-19.531,0.000
1673805695.592,-35.156,-18.555,-38.574,-20.508,0.000
1673805695.596,-19.043,-35.156,-28.320,-23.438,0.000
1673805695.600,-12.695,-36.621,-20.508,-39.551,0.000
1673805695.604,-14.648,-9.277,-23.438,-45.410,0.000
1673805695.607,-24.902,-16.113,-25.391,-55.176,0.000
1673805695.611,-26.855,-26.367,-20.020,-49.316,0.000
1673805695.615,-20.996,-17.578,-15.137,-18.555,0.000
1673805695.619,-24.902,-14.160,-27.832,-24.414,0.000
1673805695.623,-24.414,-26.367,-35.645,-34.180,0.000
1673805695.627,-14.160,-33.203,-30.762,-33.203,0.000
1673805695.631,-14.648,-15.625,-30.762,-26.367,0.000
1673805695.635,-21.484,-13.184,-31.250,-25.391,0.000
1673805695.639,-7.812,-19.531,-24.414,-22.461,0.000
1673805695.643,1.953,-25.391,-25.879,-22.949,0.000
1673805695.647,-0.977,-36.133,-30.762,-27.344,0.000
1673805695.650,-4.395,-40.527,-41.504,-30.762,0.000
1673805695.654,-1.465,-26.367,-45.410,-32.715,0.000
1673805695.658,5.371,-7.324,-24.414,-13.672,0.000
1673805695.662,-5.371,-8.301,-19.043,3.418,0.000
1673805695.666,-25.879,-15.625,-26.367,-0.488,0.000
1673805695.670,-20.508,-17.578,-22.949,-11.719,0.000
1673805695.674,-7.324,-15.625,-20.020,-5.859,0.000
1673805695.678,1.953,-17.090,-17.578,11.230,0.000
1673805695.682,-0.488,-18.066,-20.020,1.953,0.000
1673805695.686,-13.672,-15.625,-26.855,-5.859,0.000
1673805695.690,-16.113,-20.508,-27.344,-0.977,0.000
1673805695.693,-17.090,-23.926,-25.879,-5.371,0.000
1673805695.697,-35.645,-33.691,-32.227,-6.836,0.000
1673805695.701,-27.344,-40.039,-37.109,-13.672,0.000
1673805695.705,-9.766,-40.039,-27.344,-11.230,0.000
1673805695.709,-4.395,-30.762,-20.996,-13.184,0.000
1673805695.713,-4.395,-20.996,-24.902,-21.973,0.000
1673805695.717,-19.043,-19.043,-22.949,-24.902,0.000
1673805695.721,-26.367,-20.020,-22.949,-26.367,0.000
1673805695.725,-26.855,-20.996,-26.855,-22.949,0.000
1673805695.729,-26.367,-26.855,-35.156,-22.949,0.000
1673805695.732,-24.414,-32.227,-36.133,-24.902,0.000
1673805695.736,-22.949,-33.203,-28.320,-25.879,0.000
1673805695.740,-16.113,-30.273,-29.297,-22.949,0.000
1673805695.744,-21.973,-27.344,-32.227,-21.973,0.000
1673805695.748,-23.926,-24.902,-26.855,-20.996,0.000
1673805695.752,-29.785,-34.180,-27.344,-26.855,0.000
1673805695.756,-23.926,-34.668,-41.504,-21.973,0.000
1673805695.760,-28.809,-25.879,-36.621,-17.090,0.000
1673805695.764,-37.598,-23.926,-25.391,-21.973,0.000
1673805695.768,-22.949,-31.738,-20.508,-20.996,0.000
1673805695.772,-27.344,-39.062,-26.367,-24.414,0.000
1673805695.775,-33.691,-31.738,-38.574,-25.391,0.000
1673805695.779,-30.273,-24.902,-31.738,-26.855,0.000
1673805695.783,-39.551,-16.602,-20.020,-26.367,0.000
1673805695.787,-34.180,-17.090,-28.809,-24.902,0.000
1673805695.791,-30.273,-29.297,-40.527,-25.879,0.000
1673805695.795,-43.457,-36.133,-36.133,-28.809,0.000
1673805695.799,-37.109,-38.574,-28.809,-21.973,0.000
1673805695.803,-22.461,-34.668,-23.926,-20.996,0.000
1673805695.807,-25.879,-19.531,-26.855,-32.715,0.000
1673805695.811,-27.832,-17.578,-24.902,-27.832,0.000
1673805695.814,-21.484,-33.691,-25.879,-22.949,0.000
1673805695.818,-19.531,-24.414,-28.320,-26.855,0.000
1673805695.822,-31.250,-23.438,-27.832,-30.762,0.000
1673805695.826,-25.879,-30.762,-29.297,-26.855,0.000
1673805695.830,-15.625,-19.043,-19.531,-14.648,0.000
1673805695.834,-26.367,-16.113,-31.250,-18.066,0.000
1673805695.838,-13.672,-23.926,-50.781,-28.320,0.000
1673805695.842,0.977,-26.855,-30.762,-23.438,0.000
1673805695.846,-24.414,-18.555,-8.789,-14.160,0.000
1673805695.850,-43.457,-20.508,-2.441,-14.160,0.000
1673805695.854,-26.367,-22.949,-6.348,-8.301,0.000
1673805695.857,-20.508,-16.602,-21.484,-0.977,0.000
1673805695.861,-18.555,-18.066,-30.273,-11.719,0.000
1673805695.865,-7.324,-21.973,-32.715,-11.230,0.000
1673805695.869,-3.418,-32.715,-23.438,0.000,0.000
1673805695.873,-2.930,-33.203,-17.578,5.371,0.000
1673805695.877,-16.113,-18.555,-29.785,-5.371,0.000
1673805695.881,-30.273,-18.066,-37.598,-19.531,0.000
1673805695.885,-22.461,-15.625,-35.156,-28.320,0.000
1673805695.889,-16.602,-15.137,-34.180,-38.086,0.000
1673805695.893,-20.508,-20.020,-17.090,-21.973,0.000
1673805695.897,-19.531,-21.484,-11.719,-27.832,0.000
1673805695.900,-24.414,-27.832,-24.414,-38.086,0.000
1673805695.904,-31.250,-32.227,-34.180,-34.180,0.000
1673805695.908,-14.648,-27.344,-32.227,-40.039,0.000
1673805695.912,-0.488,-24.902,-25.879,-32.715,0.000
1673805695.916,-15.137,-36.133,-41.992,-29.297,0.000
1673805695.920,-20.996,-40.039,-48.828,-40.527,0.000
1673805695.924,-18.555,-36.133,-32.227,-31.250,0.000
1673805695.928,-40.039,-42.969,-21.973,-12.695,0.000
1673805695.932,-45.898,-40.527,-32.715,-19.043,0.000
1673805695.936,-24.414,-18.555,-37.598,-5.859,0.000
1673805695.939,-9.766,-9.766,-18.066,6.836,0.000
1673805695.943,-17.090,-24.902,-24.414,-4.395,0.000
1673805695.947,-24.902,-37.109,-38.574,-15.137,0.000
1673805695.951,-31.250,-33.691,-35.645,-20.996,0.000
1673805695.955,-28.320,-24.414,-28.809,-11.719,0.000
1673805695.959,-18.066,-20.508,-29.785,0.488,0.000
1673805695.963,-18.555,-20.020,-34.180,-5.859,0.000
1673805695.967,-21.973,-29.297,-29.297,-29.785,0.000
1673805695.971,-24.414,-27.832,-21.973,-38.086,0.000
1673805695.975,-28.809,-22.949,-23.438,-33.691,0.000
1673805695.979,-34.180,-31.738,-22.949,-31.250,0.000
1673805695.982,-44.434,-34.180,-34.668,-30.762,0.000
1673805695.986,-43.457,-28.809,-35.156,-29.785,0.000
1673805695.990,-28.320,-33.691,-20.020,-22.461,0.000
1673805695.994,-14.160,-39.551,-21.973,-21.484,0.000
1673805695.998,-13.184,-27.344,-23.438,-25.391,0.000
1673805696.002,-24.902,-13.184,-31.738,-26.367,0.000
1673805696.006,-30.762,-13.184,-29.297,-19.043,0.000
1673805696.010,-31.250,-27.832,-24.414,-14.648,0.000
1673805696.014,-35.156,-38.574,-29.785,-20.020,0.000
1673805696.018,-32.715,-21.484,-20.996,-19.531,0.000
1673805696.022,-38.574,-23.926,-20.996,-22.949,0.000
1673805696.025,-42.969,-30.273,-20.508,-17.578,0.000
1673805696.029,-29.785,-10.254,-17.090,-6.348,0.000
1673805696.033,-28.320,-16.602,-38.574,-16.113,0.000
1673805696.037,-23.926,-44.434,-43.457,-26.367,0.000
1673805696.041,-16.113,-36.621,-32.715,-21.484,0.000
1673805696.045,-30.273,-15.625,-28.809,-17.578,0.000
1673805696.049,-29.785,-18.066,-22.461,-13.184,0.000
1673805696.053,-24.414,-24.902,-26.367,-13.184,0.000
1673805696.057,-32.715,-33.691,-40.039,-19.043,0.000
1673805696.061,-35.645,-43.457,-47.852,-23.926,0.000
1673805696.064,-30.273,-21.973,-32.227,-23.438,0.000
1673805696.068,-11.230,-7.324,-18.066,-17.578,0.000
1673805696.072,-9.766,-23.926,-27.832,-30.273,0.000
1673805696.076,-15.625,-23.926,-34.668,-26.367,0.000
1673805696.080,-16.602,-25.879,-28.320,-10.254,0.000
1673805696.084,-19.043,-31.738,-26.855,-12.207,0.000
1673805696.088,-25.879,-27.832,-37.109,-26.367,0.000
1673805696.092,-30.762,-24.414,-37.109,-26.855,0.000
1673805696.096,-30.762,-24.414,-32.715,-24.902,0.000
1673805696.100,-19.043,-29.297,-26.855,-34.180,0.000
1673805696.104,-8.789,-29.297,-24.414,-45.410,0.000
1673805696.107,-5.859,-28.320,-28.320,-39.062,0.000
1673805696.111,-8.301,-31.250,-44.434,-24.414,0.000
1673805696.115,-17.578,-20.996,-33.203,-14.648,0.000
1673805696.119,-25.879,-15.625,-11.719,-10.742,0.000
1673805696.123,-27.344,-17.090,-10.254,-4.395,0.000
1673805696.127,-23.438,-29.785,-14.648,0.488,0.000
1673805696.131,-12.207,-34.180,-19.531,-4.883,0.000
1673805696.135,-21.973,-23.926,-23.926,-24.414,0.000
1673805696.139,-11.719,-25.879,-32.715,-29.785,0.000
1673805696.143,3.906,-27.832,-38.574,-21.973,0.000
1673805696.147,-8.301,-31.738,-38.574,-23.926,0.000
1673805696.150,-11.719,-30.273,-21.973,-15.625,0.000
1673805696.154,-11.230,-23.926,-20.020,-14.648,0.000
1673805696.158,-23.438,-24.414,-31.250,-18.066,0.000
1673805696.162,-23.926,-25.879,-32.227,-11.230,0.000
1673805696.166,-8.301,-19.043,-31.250,-15.625,0.000
1673805696.170,-3.418,-10.742,-20.508,-23.926,0.000
1673805696.174,1.465,-21.973,-24.414,-9.277,0.000
1673805696.178,4.395,-33.203,-16.113,6.836,0.000
1673805696.182,-0.488,-25.391,-18.555,-4.883,0.000
1673805696.186,0.000,-17.090,-45.410,-13.184,0.000
1673805696.189,-4.883,-27.344,-38.086,-12.207,0.000
1673805696.193,-7.324,-30.273,-17.090,-22.461,0.000
1673805696.197,-18.555,-21.484,-13.184,-22.949,0.000
1673805696.201,-36.133,-22.949,-15.137,-21.973,0.000
1673805696.205,-36.133,-25.879,-20.020,-19.043,0.000
1673805696.209,-31.738,-29.785,-29.785,-14.160,0.000
1673805696.213,-19.043,-29.785,-31.738,-12.207,0.000
1673805696.217,1.465,-16.602,-33.203,-12.695,0.000
1673805696.221,-2.930,-34.180,-34.668,-13.672,0.000
1673805696.225,-20.020,-41.016,-25.879,-7.324,0.000
1673805696.229,-32.715,-24.902,-24.414,-7.812,0.000
1673805696.232,-36.621,-29.297,-33.691,-19.531,0.000
1673805696.236,-23.438,-26.367,-38.086,-20.020,0.000
1673805696.240,-36.133,-20.508,-34.668,-15.625,0.000
1673805696.244,-46.875,-31.250,-40.527,-10.742,0.000
1673805696.248,-32.227,-26.855,-35.645,0.000,0.000
1673805696.252,-25.879,-12.207,-20.996,6.348,0.000
1673805696.256,-23.438,-18.066,-26.855,-9.277,0.000
1673805696.260,-14.648,-32.715,-41.504,-16.113,0.000
1673805696.264,-10.254,-43.945,-47.852,-18.555,0.000
1673805696.268,-2.930,-37.109,-35.645,-30.273,0.000
1673805696.272,1.953,-21.973,-26.855,-20.508,0.000
1673805696.275,-9.766,-18.066,-30.762,-1.465,0.000
1673805696.279,-18.555,-35.645,-34.668,-8.301,0.000
1673805696.283,-26.855,-36.133,-39.551,-26.855,0.000
1673805696.287,-26.855,-27.344,-39.551,-39.062,0.000
1673805696.291,-20.020,-27.344,-33.691,-47.363,0.000
1673805696.295,-21.484,-17.578,-34.180,-40.039,0.000
1673805696.299,-23.926,-24.902,-36.621,-37.598,0.000
1673805696.303,-28.320,-38.086,-38.574,-36.133,0.000
1673805696.307,-27.832,-33.691,-40.039,-33.691,0.000
1673805696.311,-16.602,-27.832,-35.645,-20.508,0.000
1673805696.314,-19.043,-35.156,-34.668,-19.043,0.000
1673805696.318,-16.113,-39.062,-28.809,-33.691,0.000
1673805696.322,-2.441,-19.043,-20.020,-27.344,0.000
1673805696.326,-14.160,-7.812,-22.949,-16.602,0.000
1673805696.330,-20.996,-17.578,-25.391,-9.277,0.000
1673805696.334,-25.879,-35.156,-25.391,-19.043,0.000
1673805696.338,-32.227,-38.574,-27.344,-21.973,0.000
1673805696.342,-21.973,-26.367,-28.320,-20.996,0.000
1673805696.346,-26.367,-23.926,-28.320,-20.996,0.000
1673805696.350,-29.785,-26.367,-35.156,-13.184,0.000
1673805696.354,-31.738,-18.066,-25.391,-16.113,0.000
1673805696.357,-46.387,-14.648,-3.906,-21.973,0.000
1673805696.361,-51.758,-21.484,-7.324,-23.926,0.000
1673805696.365,-40.039,-25.391,-13.672,-27.832,0.000
1673805696.369,-32.227,-27.832,-14.648,-23.438,0.000
1673805696.373,-23.926,-26.855,-13.672,-21.973,0.000
1673805696.377,-17.090,-20.508,-10.742,-22.949,0.000
1673805696.381,-23.438,-23.926,-23.438,-22.949,0.000
1673805696.385,-25.879,-31.250,-28.809,-37.109,0.000
1673805696.389,-21.973,-37.109,-21.484,-37.109,0.000
1673805696.393,-17.090,-41.504,-26.367,-24.414,0.000
1673805696.397,-20.020,-23.438,-29.297,-24.414,0.000
1673805696.400,-32.715,-11.230,-23.926,-36.621,0.000
1673805696.404,-21.973,-6.836,-15.137,-25.879,0.000
1673805696.408,3.418,0.000,-4.395,-9.766,0.000
1673805696.412,2.930,-5.371,-5.371,-17.578,0.000
1673805696.416,-8.789,-22.949,-20.508,-31.738,0.000
1673805696.420,-4.883,-18.066,-20.020,-31.250,0.000
1673805696.424,-22.461,-20.996,-24.414,-34.668,0.000
1673805696.428,-26.367,-34.180,-32.715,-32.715,0.000
1673805696.432,-4.883,-23.438,-36.621,-18.555,0.000
1673805696.436,-13.672,-16.602,-40.039,-28.320,0.000
1673805696.439,-29.297,-16.602,-29.297,-25.879,0.000
1673805696.443,-25.879,-30.762,-22.949,-17.578,0.000
1673805696.447,-24.414,-32.227,-26.367,-25.879,0.000
1673805696.451,-28.809,-20.020,-32.715,-28.809,0.000
1673805696.455,-42.480,-17.578,-32.227,-26.367,0.000
1673805696.459,-47.852,-31.738,-21.973,-18.066,0.000
1673805696.463,-44.922,-28.320,-28.320,-4.883,0.000
1673805696.467,-50.293,-13.184,-34.668,-21.973,0.000
1673805696.471,-45.410,-16.602,-25.879,-36.621,0.000
1673805696.475,-39.062,-23.438,-22.461,-30.273,0.000
1673805696.479,-27.832,-17.578,-14.648,-24.902,0.000
1673805696.482,-21.973,-21.973,-13.672,-27.832,0.000
1673805696.486,-34.180,-33.691,-22.949,-30.273,0.000
1673805696.490,-35.645,-34.180,-26.367,-25.879,0.000
1673805696.494,-40.039,-42.969,-28.809,-30.762,0.000
1673805696.498,-41.016,-37.109,-28.809,-33.691,0.000
1673805696.502,-35.156,-40.039,-34.668,-39.551,0.000
1673805696.506,-34.180,-48.340,-45.410,-38.086,0.000
1673805696.510,-23.926,-17.578,-34.668,-28.809,0.000
1673805696.514,-23.926,-5.859,-28.809,-36.621,0.000
1673805696.518,-38.574,-26.855,-31.738,-41.016,0.000
1673805696.522,-35.645,-33.691,-22.461,-25.391,0.000
1673805696.525,-18.555,-31.250,-19.043,-21.973,0.000
1673805696.529,-5.371,-24.902,-20.020,-27.344,0.000
1673805696.533,-12.695,-25.391,-21.973,-17.578,0.000
1673805696.537,-20.996,-39.551,-27.344,-18.555,0.000
1673805696.541,-14.160,-33.691,-26.855,-16.602,0.000
1673805696.545,-10.254,-12.207,-20.020,-1.465,0.000
1673805696.549,-20.508,-16.602,-10.254,0.000,0.000
1673805696.553,-24.902,-38.086,-17.578,-16.602,0.000
1673805696.557,-29.785,-37.598,-25.391,-25.879,0.000
1673805696.561,-35.645,-26.367,-27.344,-26.855,0.000
1673805696.564,-20.996,-19.531,-28.320,-21.973,0.000
1673805696.568,-9.766,-9.277,-22.949,-7.812,0.000
1673805696.572,-16.113,-30.762,-17.578,-3.418,0.000
1673805696.576,-27.344,-44.434,-23.926,0.000,0.000
1673805696.580,-26.367,-18.555,-36.133,2.441,0.000
1673805696.584,-23.438,-5.371,-24.902,-1.953,0.000
1673805696.588,-30.762,-25.879,-15.625,-11.230,0.000
1673805696.592,-27.832,-44.922,-27.832,-18.066,0.000
1673805696.596,-11.719,-25.391,-23.926,-26.855,0.000
1673805696.600,-20.508,-15.625,-20.996,-38.574,0.000
1673805696.604,-22.461,-14.160,-21.973,-34.180,0.000
1673805696.607,-15.625,-16.113,-20.508,-27.344,0.000
1673805696.611,-9.766,-27.832,-26.367,-19.043,0.000
1673805696.615,-2.930,-29.785,-25.391,-21.484,0.000
1673805696.619,-16.113,-27.344,-27.832,-36.133,0.000
1673805696.623,-28.809,-27.344,-47.852,-35.645,0.000
1673805696.627,-32.227,-32.715,-46.875,-38.086,0.000
1673805696.631,-28.809,-44.922,-26.367,-41.016,0.000
1673805696.635,-27.344,-33.203,-17.090,-34.668,0.000
1673805696.639,-24.414,-20.020,-15.137,-28.809,0.000
1673805696.643,-16.602,-19.531,-16.113,-23.438,0.000
1673805696.647,-26.855,-22.949,-18.555,-15.625,0.000
1673805696.650,-34.180,-36.621,-26.855,-25.391,0.000
1673805696.654,-30.762,-27.344,-34.668,-33.691,0.000
1673805696.658,-36.621,-18.066,-32.227,-24.902,0.000
1673805696.662,-39.062,-25.879,-28.320,-17.090,0.000
1673805696.666,-37.109,-29.297,-29.297,-14.648,0.000
1673805696.670,-24.414,-26.367,-31.738,-15.137,0.000
1673805696.674,-17.578,-20.020,-37.109,-16.602,0.000
1673805696.678,-23.438,-27.832,-38.086,-24.902,0.000
1673805696.682,-16.113,-48.828,-26.855,-32.227,0.000
1673805696.686,-19.043,-49.805,-21.973,-30.273,0.000
1673805696.689,-27.344,-22.949,-21.484,-18.555,0.000
1673805696.693,-22.949,-19.043,-24.902,-10.742,0.000
1673805696.697,-26.367,-28.320,-31.738,-18.555,0.000
1673805696.701,-30.762,-18.066,-30.762,-26.367,0.000
1673805696.705,-20.020,-19.531,-30.273,-27.832,0.000
1673805696.709,-4.395,-23.438,-27.344,-19.043,0.000
1673805696.713,-14.648,-33.203,-35.645,-23.438,0.000
1673805696.717,-32.227,-43.457,-35.645,-39.062,0.000
1673805696.721,-13.184,-36.621,-31.250,-27.344,0.000
1673805696.725,0.488,-33.203,-39.551,-7.324,0.000
1673805696.729,-1.465,-27.832,-39.551,-8.789,0.000
1673805696.732,12.695,-19.531,-27.344,-8.789,0.000
1673805696.736,2.930,-15.137,-24.902,-4.395,0.000
1673805696.740,1.465,-7.812,-21.973,5.371,0.000
1673805696.744,10.742,-8.301,-15.625,8.789,0.000
1673805696.748,-0.488,-18.555,-19.531,2.930,0.000
1673805696.752,12.695,-20.996,-22.461,8.301,0.000
1673805696.756,11.719,-21.484,-26.367,10.254,0.000
1673805696.760,-3.906,-17.090,-24.414,7.324,0.000
1673805696.764,-6.348,-10.254,-21.484,3.906,0.000
1673805696.768,-7.324,-22.461,-22.949,0.488,0.000
1673805696.772,-9.277,-31.250,-16.602,-3.906,0.000
1673805696.775,-16.602,-40.039,-15.625,-2.441,0.000
1673805696.779,-30.762,-44.922,-25.391,-12.695,0.000
1673805696.783,-20.996,-23.438,-38.574,-26.855,0.000
1673805696.787,-8.301,-14.160,-37.109,-30.273,0.000
1673805696.791,-16.602,-23.438,-26.855,-31.250,0.000
1673805696.795,-17.578,-22.461,-34.180,-30.762,0.000
1673805696.799,0.977,-20.996,-34.180,-28.320,0.000
1673805696.803,11.719,-21.973,-22.949,-21.973,0.000
1673805696.807,2.930,-20.508,-20.508,-27.344,0.000
1673805696.811,5.371,-22.949,-20.508,-29.297,0.000
1673805696.814,-5.859,-27.344,-35.156,-30.762,0.000
1673805696.818,-14.648,-25.879,-32.227,-32.715,0.000
1673805696.822,-19.531,-28.809,-19.531,-31.738,0.000
1673805696.826,-31.738,-29.297,-25.391,-23.438,0.000
1673805696.830,-26.855,-41.504,-31.738,-15.625,0.000
1673805696.834,-28.809,-42.480,-30.762,-20.508,0.000
1673805696.838,-30.762,-12.207,-27.832,-26.367,0.000
1673805696.842,-21.484,-1.953,-24.902,-24.902,0.000
1673805696.846,-18.555,-13.184,-25.879,-8.301,0.000
1673805696.850,-22.949,-19.043,-28.320,-5.371,0.000
1673805696.854,-20.996,-27.344,-25.879,-19.531,0.000
1673805696.857,-19.043,-30.762,-25.879,-21.973,0.000
1673805696.861,-16.602,-22.461,-23.926,-29.297,0.000
1673805696.865,-13.184,-20.508,-24.414,-39.062,0.000
1673805696.869,-8.301,-22.949,-26.855,-43.945,0.000
1673805696.873,-8.789,-27.832,-27.344,-41.992,0.000
1673805696.877,-18.555,-35.156,-27.344,-33.691,0.000
1673805696.881,-20.020,-41.992,-24.414,-27.344,0.000
1673805696.885,-32.715,-49.316,-23.438,-27.832,0.000
1673805696.889,-38.574,-25.391,-20.508,-12.695,0.000
1673805696.893,-41.992,-4.395,-20.020,-11.230,0.000
1673805696.897,-50.293,-25.879,-32.715,-31.738,0.000
1673805696.900,-58.105,-40.039,-38.086,-28.320,0.000
1673805696.904,-44.922,-41.992,-31.250,-24.902,0.000
1673805696.908,-20.508,-39.551,-31.738,-20.508,0.000
1673805696.912,-20.996,-26.367,-28.809,-19.531,0.000
1673805696.916,-18.555,-24.902,-23.926,-24.902,0.000
1673805696.920,-25.391,-35.156,-31.250,-26.367,0.000
1673805696.924,-22.949,-41.504,-31.738,-21.973,0.000
1673805696.928,-14.648,-38.574,-21.973,-14.648,0.000
1673805696.932,-23.926,-29.785,-23.438,-24.902,0.000
1673805696.936,-32.227,-28.320,-32.227,-36.621,0.000
1673805696.939,-23.438,-25.879,-28.809,-20.508,0.000
1673805696.943,-18.555,-13.672,-22.461,-9.766,0.000
1673805696.947,-20.508,-26.855,-25.879,-17.090,0.000
1673805696.951,-20.996,-33.691,-29.297,-12.207,0.000
1673805696.955,-27.832,-19.043,-26.855,-9.277,0.000
1673805696.959,-26.367,-26.855,-32.227,-11.230,0.000
1673805696.963,-18.555,-37.598,-35.156,-9.766,0.000
1673805696.967,-20.508,-24.902,-31.250,-26.855,0.000
1673805696.971,-11.719,-11.719,-30.762,-41.992,0.000
1673805696.975,-4.883,-20.508,-25.391,-41.992,0.000
1673805696.979,-5.859,-37.109,-23.926,-31.250,0.000
1673805696.982,-13.672,-29.297,-32.227,-35.645,0.000
1673805696.986,-16.113,-18.555,-40.039,-34.668,0.000
1673805696.990,-6.348,-23.438,-40.039,-21.484,0.000
1673805696.994,-8.301,-15.137,-24.902,-19.531,0.000
1673805696.998,-3.906,-8.301,-15.625,-20.020,0.000
1673805697.002,-13.184,-23.926,-23.438,-31.250,0.000
1673805697.006,-42.969,-34.180,-30.273,-29.297,0.000
1673805697.010,-54.688,-27.344,-37.598,-17.090,0.000
1673805697.014,-36.133,-33.203,-40.039,-17.090,0.000
1673805697.018,-14.160,-40.039,-28.320,-10.742,0.000
1673805697.022,-1.953,-18.555,-19.043,-6.348,0.000
1673805697.025,-2.930,-10.742,-14.648,-2.441,0.000
1673805697.029,-16.113,-20.996,-17.090,4.883,0.000
1673805697.033,-25.391,-27.344,-25.879,-1.953,0.000
1673805697.037,-22.949,-33.203,-25.879,-1.465,0.000
1673805697.041,-20.020,-32.227,-24.902,-1.953,0.000
1673805697.045,-8.789,-22.461,-33.203,-2.441,0.000
1673805697.049,-10.742,-24.414,-25.879,6.348,0.000
1673805697.053,-9.766,-29.297,-20.020,-1.953,0.000
1673805697.057,-0.977,-23.926,-13.184,-1.953,0.000
1673805697.061,-15.625,-30.762,-15.137,-4.395,0.000
1673805697.064,-30.273,-42.969,-33.203,-15.137,0.000
1673805697.068,-32.715,-47.363,-44.922,-25.391,0.000
1673805697.072,-10.254,-52.734,-38.086,-22.949,0.000
1673805697.076,0.977,-46.387,-27.832,-24.414,0.000
1673805697.080,-4.395,-27.344,-20.996,-20.020,0.000
1673805697.084,5.371,-14.648,-15.137,-10.254,0.000
1673805697.088,4.395,-24.414,-22.949,-12.695,0.000
1673805697.092,-10.742,-28.320,-26.855,-12.207,0.000
1673805697.096,-24.414,-28.320,-31.738,-11.719,0.000
1673805697.100,-24.414,-23.926,-29.785,-12.207,0.000
1673805697.104,-26.855,-9.277,-25.879,-14.160,0.000
1673805697.107,-30.273,-10.254,-43.945,-19.043,0.000
1673805697.111,-23.438,-24.902,-49.805,-31.250,0.000
1673805697.115,-27.344,-29.297,-32.227,-35.156,0.000
1673805697.119,-30.762,-11.230,-19.531,-16.113,0.000
1673805697.123,-25.391,-15.137,-26.367,-6.836,0.000
1673805697.127,-36.621,-20.996,-35.156,-22.461,0.000
1673805697.131,-50.293,-10.254,-30.273,-32.227,0.000
1673805697.135,-53.711,-18.555,-36.621,-29.297,0.000
1673805697.139,-45.410,-36.133,-40.527,-30.273,0.000
1673805697.143,-31.738,-37.598,-35.156,-16.602,0.000
1673805697.147,-38.086,-31.250,-36.621,-14.160,0.000
1673805697.150,-42.480,-17.090,-41.016,-35.156,0.000
1673805697.154,-28.320,-18.555,-40.527,-45.410,0.000
1673805697.158,-13.672,-27.832,-23.438,-31.250,0.000
1673805697.162,-11.230,-31.738,-11.719,-27.832,0.000
1673805697.166,-12.207,-29.785,-27.832,-42.969,0.000
1673805697.170,-16.602,-31.250,-40.039,-47.363,0.000
1673805697.174,-17.090,-34.668,-35.156,-46.387,0.000
1673805697.178,-4.395,-23.926,-23.438,-30.762,0.000
1673805697.182,-3.418,-22.461,-20.020,-19.043,0.000
1673805697.186,-7.812,-31.250,-20.996,-18.066,0.000
1673805697.189,-4.395,-31.738,-19.043,-16.602,0.000
1673805697.193,-14.160,-24.902,-27.344,-20.508,0.000
1673805697.197,-19.531,-15.137,-30.762,-10.254,0.000
1673805697.201,8.301,-19.531,-11.719,0.977,0.000
1673805697.205,9.277,-45.898,-15.625,-9.766,0.000
1673805697.209,-25.391,-36.621,-31.250,-20.996,0.000
1673805697.213,-38.086,-12.207,-35.156,-16.113,0.000
1673805697.217,-33.203,-12.695,-39.062,-1.953,0.000
1673805697.221,-19.043,-10.742,-41.016,-2.441,0.000
1673805697.225,-17.578,-14.160,-27.344,-6.348,0.000
1673805697.229,-26.855,-27.344,-11.719,-9.277,0.000
1673805697.232,-34.180,-35.645,-14.160,-10.742,0.000
1673805697.236,-23.926,-35.156,-22.949,-3.418,0.000
1673805697.240,-1.465,-20.996,-16.602,8.301,0.000
1673805697.244,-13.672,-20.996,-16.602,-1.953,0.000
1673805697.248,-21.484,-27.344,-37.598,-30.273,0.000
1673805697.252,5.859,-21.973,-37.598,-38.086,0.000
1673805697.256,-4.883,-31.250,-30.273,-34.668,0.000
1673805697.260,-23.926,-29.297,-35.156,-30.762,0.000
1673805697.264,-11.230,-23.438,-31.738,-21.484,0.000
1673805697.268,3.418,-18.066,-30.273,-9.277,0.000
1673805697.272,9.277,-9.766,-32.715,-19.043,0.000
1673805697.275,-8.301,-19.043,-32.227,-24.414,0.000
1673805697.279,-39.062,-40.039,-31.250,-22.461,0.000
1673805697.283,-48.828,-50.293,-36.133,-35.156,0.000
1673805697.287,-36.133,-27.832,-42.969,-37.598,0.000
1673805697.291,-23.438,-11.719,-42.969,-33.691,0.000
1673805697.295,-10.742,-16.113,-31.738,-37.109,0.000
1673805697.299,-16.602,-19.531,-31.250,-33.691,0.000
1673805697.303,-58.105,-27.832,-33.691,-26.855,0.000
1673805697.307,-78.613,-32.227,-34.180,-22.949,0.000
1673805697.311,-64.453,-40.039,-34.668,-17.090,0.000
1673805697.314,-45.898,-38.086,-36.133,-26.367,0.000
1673805697.318,-33.691,-26.855,-42.480,-40.527,0.000
1673805697.322,-26.855,-29.785,-35.645,-32.715,0.000
1673805697.326,-31.738,-36.133,-26.855,-21.973,0.000
1673805697.330,-36.621,-30.273,-21.484,-18.555,0.000
1673805697.334,-24.902,-22.949,-17.578,-21.973,0.000
1673805697.338,-9.277,-21.484,-20.508,-22.461,0.000
1673805697.342,-4.395,-26.367,-25.391,-18.066,0.000
1673805697.346,-5.859,-36.621,-29.297,-19.043,0.000
1673805697.350,-3.906,-35.645,-39.551,-23.926,0.000
1673805697.354,20.020,-9.766,-34.668,-11.230,0.000
1673805697.357,24.414,-25.391,-30.273,-6.348,0.000
1673805697.361,4.883,-45.410,-27.832,-9.277,0.000
1673805697.365,3.906,-13.184,-14.160,-1.465,0.000
1673805697.369,-0.977,-23.438,-27.832,-23.926,0.000
1673805697.373,-10.254,-36.621,-28.320,-31.738,0.000
1673805697.377,-38.574,-38.086,-19.043,-19.531,0.000
1673805697.381,-54.688,-41.016,-23.926,-19.531,0.000
1673805697.385,-35.645,-27.832,-28.320,-20.020,0.000
1673805697.389,-41.504,-22.949,-31.250,-23.926,0.000
1673805697.393,-54.688,-25.391,-34.180,-26.367,0.000
1673805697.397,-49.805,-20.508,-36.133,-20.020,0.000
1673805697.400,-49.805,-22.949,-37.109,-25.391,0.000
1673805697.404,-44.922,-34.180,-45.410,-27.832,0.000
1673805697.408,-42.969,-30.762,-31.250,-22.461,0.000
1673805697.412,-52.734,-27.832,-15.137,-22.949,0.000
1673805697.416,-55.664,-24.902,-21.973,-27.832,0.000
1673805697.420,-47.852,-41.992,-31.250,-29.297,0.000
1673805697.424,-41.016,-41.992,-33.691,-32.715,0.000
1673805697.428,-35.645,-25.391,-46.387,-40.039,0.000
1673805697.432,-31.250,-20.996,-49.316,-36.133,0.000
1673805697.436,-28.320,-36.621,-29.785,-41.504,0.000
1673805697.439,-26.367,-54.688,-28.320,-49.316,0.000
1673805697.443,-19.531,-39.062,-30.273,-37.598,0.000
1673805697.447,-24.414,-34.180,-25.391,-23.438,0.000
1673805697.451,-18.555,-33.691,-36.133,-5.859,0.000
1673805697.455,-9.277,-26.855,-31.250,7.324,0.000
1673805697.459,-20.020,-28.809,-24.414,-4.883,0.000
1673805697.463,-24.414,-27.344,-29.785,-14.648,0.000
1673805697.467,-20.996,-21.484,-29.785,-8.301,0.000
1673805697.471,-20.508,-19.043,-26.855,-11.230,0.000
1673805697.475,-11.230,-26.855,-26.367,0.977,0.000
1673805697.479,-8.789,-28.809,-35.645,7.812,0.000
1673805697.482,-10.254,-21.973,-32.715,-5.859,0.000
1673805697.486,-6.836,-28.809,-20.508,-11.719,0.000
1673805697.490,2.930,-21.973,-21.484,-3.906,0.000
1673805697.494,0.000,-15.137,-26.855,-4.883,0.000
1673805697.498,0.977,-11.230,-14.648,-20.508,0.000
1673805697.502,5.371,-2.930,-16.602,-16.113,0.000
1673805697.506,-3.906,0.488,-33.691,-9.277,0.000
1673805697.510,-17.090,-9.277,-34.668,-16.113,0.000
1673805697.514,-25.391,-22.949,-30.762,-18.066,0.000
1673805697.518,-25.879,-20.996,-24.414,-10.254,0.000
1673805697.522,-27.832,-8.789,-26.367,-8.789,0.000
1673805697.525,-39.062,-0.977,-35.645,-3.418,0.000
1673805697.529,-41.992,-3.418,-27.832,3.418,0.000
1673805697.533,-23.926,-8.789,-19.531,-2.930,0.000
1673805697.537,-14.648,-6.348,-20.508,-21.973,0.000
1673805697.541,-14.160,-14.160,-26.367,-24.902,0.000
1673805697.545,-18.066,-31.738,-32.715,-27.832,0.000
1673805697.549,-6.348,-18.066,-19.531,-29.785,0.000
1673805697.553,0.000,-14.160,-17.578,-24.414,0.000
1673805697.557,0.000,-24.902,-23.926,-24.902,0.000
1673805697.561,2.930,-14.160,-32.227,-22.949,0.000
1673805697.564,9.277,-0.488,-29.785,-13.672,0.000
1673805697.568,-2.441,-7.324,-16.113,-14.160,0.000
1673805697.572,-17.090,-17.578,-15.625,-21.973,0.000
1673805697.576,-8.789,-10.742,-16.602,-20.508,0.000
1673805697.580,-35.645,-9.766,-17.090,-18.066,0.000
1673805697.584,-60.059,-18.555,-27.344,-28.320,0.000
1673805697.588,-45.898,-19.531,-39.062,-33.691,0.000
1673805697.592,-53.711,-43.945,-40.527,-25.879,0.000
1673805697.596,-68.359,-51.270,-35.645,-20.508,0.000
1673805697.600,-51.270,-22.949,-27.832,-25.879,0.000
1673805697.604,-40.039,-11.719,-25.391,-26.367,0.000
1673805697.607,-39.551,-15.625,-34.180,-29.785,0.000
