timestamp,TP9,AF7,AF8,TP10,Right AUX
1673806200.079,2.930,-21.484,-39.062,-27.344,0.000
1673806200.083,-11.230,-25.879,-34.668,-27.344,0.000
1673806200.087,-34.668,-18.066,-33.203,-32.715,0.000
1673806200.091,-53.223,-18.066,-34.668,-36.621,0.000
1673806200.095,-47.363,-24.902,-33.203,-33.203,0.000
1673806200.099,-32.715,-24.414,-32.227,-27.344,0.000
1673806200.103,-24.902,-25.391,-37.598,-24.902,0.000
1673806200.107,-18.555,-21.973,-37.598,-26.855,0.000
1673806200.111,-26.367,-17.578,-32.227,-25.879,0.000
1673806200.115,-25.879,-21.484,-35.156,-22.949,0.000
1673806200.118,-25.391,-24.902,-30.273,-25.879,0.000
1673806200.122,-26.855,-20.508,-26.855,-28.320,0.000
1673806200.126,-23.926,-15.137,-27.832,-35.156,0.000
1673806200.130,-32.227,-20.020,-27.832,-36.133,0.000
1673806200.134,-28.320,-21.484,-27.832,-18.555,0.000
1673806200.138,-13.672,-23.438,-29.297,-20.996,0.000
1673806200.142,-19.043,-24.902,-28.320,-28.320,0.000
1673806200.146,-29.785,-18.555,-25.391,-33.203,0.000
1673806200.150,-20.508,-21.484,-26.367,-36.621,0.000
1673806200.154,-4.883,-22.461,-24.414,-24.902,0.000
1673806200.157,-18.066,-25.391,-27.344,-20.020,0.000
1673806200.161,-22.949,-31.738,-38.574,-19.531,0.000
1673806200.165,-10.254,-31.738,-35.156,-19.043,0.000
1673806200.169,-11.719,-26.855,-27.832,-24.902,0.000
1673806200.173,-18.066,-21.484,-26.855,-30.762,0.000
1673806200.177,-41.992,-20.020,-22.949,-32.715,0.000
1673806200.181,-54.199,-18.066,-20.020,-20.996,0.000
1673806200.185,-35.156,-21.484,-20.508,-19.531,0.000
1673806200.189,-27.832,-22.949,-21.973,-29.785,0.000
1673806200.193,-25.879,-26.367,-27.344,-36.133,0.000
1673806200.197,-20.508,-41.504,-34.180,-39.062,0.000
1673806200.200,-19.043,-43.457,-32.227,-27.832,0.000
1673806200.204,-23.438,-35.645,-24.902,-31.738,0.000
1673806200.208,-35.156,-27.344,-23.926,-37.598,0.000
1673806200.212,-42.969,-24.902,-27.832,-27.832,0.000
1673806200.216,-43.945,-29.785,-31.250,-18.066,0.000
1673806200.220,-37.598,-27.344,-31.250,-15.625,0.000
1673806200.224,-25.391,-20.996,-27.344,-18.555,0.000
1673806200.228,-17.090,-26.855,-27.344,-35.156,0.000
1673806200.232,-22.949,-27.832,-27.832,-32.715,0.000
1673806200.236,-41.504,-36.621,-31.250,-26.855,0.000
1673806200.240,-59.082,-45.410,-32.227,-35.645,0.000
1673806200.243,-47.852,-35.156,-34.180,-32.715,0.000
1673806200.247,-30.273,-27.344,-36.133,-20.508,0.000
1673806200.251,-33.203,-30.273,-37.109,-20.508,0.000
1673806200.255,-27.832,-31.250,-37.109,-19.531,0.000
1673806200.259,-25.391,-24.414,-31.738,-14.648,0.000
1673806200.263,-33.691,-22.949,-33.203,-14.648,0.000
1673806200.267,-31.738,-25.879,-37.109,-12.207,0.000
1673806200.271,-29.297,-28.809,-35.156,-15.625,0.000
1673806200.275,-19.043,-30.273,-32.715,-20.508,0.000
1673806200.279,-13.672,-37.109,-31.250,-18.066,0.000
1673806200.282,-29.297,-32.715,-35.645,-15.625,0.000
1673806200.286,-32.227,-25.391,-31.250,-7.812,0.000
1673806200.290,-24.414,-28.809,-26.367,-4.883,0.000
1673806200.294,-22.949,-26.367,-24.902,-12.695,0.000
1673806200.298,-22.461,-26.367,-23.926,-13.672,0.000
1673806200.302,-5.371,-27.832,-25.879,-13.184,0.000
1673806200.306,3.418,-21.973,-24.414,-10.254,0.000
1673806200.310,-33.203,-27.832,-26.367,-19.043,0.000
1673806200.314,-36.621,-29.297,-23.926,-16.602,0.000
1673806200.318,-14.648,-21.484,-18.555,-5.859,0.000
1673806200.322,-16.602,-26.855,-20.020,-12.695,0.000
1673806200.325,-21.973,-32.227,-34.180,-18.066,0.000
1673806200.329,-30.273,-32.715,-30.273,-8.301,0.000
1673806200.333,-29.297,-27.344,-26.367,-10.742,0.000
1673806200.337,-18.066,-18.066,-27.832,-12.695,0.000
1673806200.341,-4.883,-20.020,-26.367,-3.418,0.000
1673806200.345,3.418,-27.344,-28.809,-6.348,0.000
1673806200.349,1.465,-22.949,-29.785,-9.277,0.000
1673806200.353,-9.766,-19.043,-27.832,-6.348,0.000
1673806200.357,-30.273,-21.484,-26.367,-6.836,0.000
1673806200.361,-38.574,-18.555,-20.508,-6.348,0.000
1673806200.365,-24.902,-15.137,-22.949,-12.207,0.000
1673806200.368,-7.812,-22.949,-28.320,-12.207,0.000
1673806200.372,-3.418,-17.578,-28.320,-9.277,0.000
1673806200.376,-10.254,-16.113,-30.762,-18.066,0.000
1673806200.380,-20.020,-28.320,-35.156,-19.043,0.000
1673806200.384,-1.465,-24.902,-34.180,-11.719,0.000
1673806200.388,-1.953,-20.508,-30.273,-12.695,0.000
1673806200.392,-18.066,-22.949,-30.762,-13.672,0.000
1673806200.396,-7.812,-22.461,-28.320,-6.348,0.000
1673806200.400,-1.953,-20.020,-28.320,-13.672,0.000
1673806200.404,-1.953,-19.043,-29.785,-20.020,0.000
1673806200.407,-11.230,-20.996,-22.949,-17.090,0.000
1673806200.411,-19.531,-24.902,-19.043,-24.414,0.000
1673806200.415,-20.508,-20.996,-23.438,-28.809,0.000
1673806200.419,-13.672,-18.555,-19.531,-26.367,0.000
1673806200.423,-18.066,-18.555,-12.695,-27.832,0.000
1673806200.427,-34.668,-12.695,-14.160,-32.227,0.000
1673806200.431,-27.832,-6.836,-15.625,-32.227,0.000
1673806200.435,-24.902,-10.742,-18.066,-20.996,0.000
1673806200.439,-24.902,-16.602,-18.066,-13.672,0.000
1673806200.443,-17.578,-14.160,-10.254,-12.695,0.000
1673806200.447,-19.531,-12.207,-9.766,-13.184,0.000
1673806200.450,-12.695,-9.277,-11.719,-9.766,0.000
1673806200.454,0.488,-12.695,-14.160,-2.930,0.000
1673806200.458,-4.883,-9.277,-14.160,-8.789,0.000
1673806200.462,0.000,-6.348,-9.277,-16.602,0.000
1673806200.466,7.324,-6.348,-11.719,-13.672,0.000
1673806200.470,-5.859,-9.766,-15.625,-3.906,0.000
1673806200.474,-16.602,-11.719,-11.230,0.000,0.000
1673806200.478,-8.301,-8.789,-15.137,-8.789,0.000
1673806200.482,-0.977,-15.625,-21.973,-9.766,0.000
1673806200.486,-2.441,-14.648,-19.531,2.441,0.000
1673806200.490,-9.766,-11.230,-14.160,-3.906,0.000
1673806200.493,-12.207,-9.766,-10.742,-12.207,0.000
1673806200.497,-10.742,-11.719,-12.695,-16.113,0.000
1673806200.501,-11.230,-8.301,-12.695,-17.090,0.000
1673806200.505,-12.695,-7.812,-19.531,-14.160,0.000
1673806200.509,-9.277,-14.648,-22.461,-13.184,0.000
1673806200.513,-4.395,-15.625,-19.043,-15.625,0.000
1673806200.517,-6.348,-10.254,-20.508,-12.695,0.000
1673806200.521,-3.418,-6.348,-19.043,-20.508,0.000
1673806200.525,-5.371,-10.254,-19.531,-20.996,0.000
1673806200.529,-14.160,-15.137,-22.949,-14.160,0.000
1673806200.532,-17.090,-13.184,-19.531,-13.184,0.000
1673806200.536,-10.742,-16.602,-21.484,-15.625,0.000
1673806200.540,-14.648,-15.625,-23.438,-15.137,0.000
1673806200.544,-9.277,-13.672,-19.043,-24.414,0.000
1673806200.548,-6.836,-14.160,-24.902,-36.621,0.000
1673806200.552,-8.301,-8.301,-30.273,-19.531,0.000
1673806200.556,-21.973,-12.207,-23.438,-10.254,0.000
1673806200.560,-42.480,-22.461,-26.855,-22.949,0.000
1673806200.564,-33.691,-27.832,-29.297,-22.949,0.000
1673806200.568,-12.695,-25.879,-27.832,-19.043,0.000
1673806200.572,-17.578,-27.344,-26.855,-14.648,0.000
1673806200.575,-29.785,-22.461,-16.113,-10.742,0.000
1673806200.579,-17.578,-19.043,-20.996,-14.648,0.000
1673806200.583,-4.395,-22.461,-25.391,-12.207,0.000
1673806200.587,-15.137,-22.949,-19.531,-9.277,0.000
1673806200.591,-23.926,-12.695,-17.578,-16.602,0.000
1673806200.595,-23.438,-18.555,-19.531,-24.902,0.000
1673806200.599,-26.855,-23.438,-15.625,-20.508,0.000
1673806200.603,-39.551,-22.461,-24.414,-23.438,0.000
1673806200.607,-30.273,-27.832,-30.273,-41.016,0.000
1673806200.611,-10.254,-25.879,-25.879,-41.992,0.000
1673806200.615,-14.160,-28.320,-27.344,-35.156,0.000
1673806200.618,-33.203,-30.273,-23.926,-26.367,0.000
1673806200.622,-33.691,-25.391,-21.973,-21.973,0.000
1673806200.626,-36.621,-24.414,-26.855,-28.320,0.000
1673806200.630,-38.086,-27.344,-29.785,-25.879,0.000
1673806200.634,-17.578,-27.832,-27.344,-15.625,0.000
1673806200.638,-17.090,-25.879,-28.809,-20.020,0.000
1673806200.642,-19.531,-24.902,-31.250,-29.297,0.000
1673806200.646,-11.719,-21.484,-31.250,-24.902,0.000
1673806200.650,-21.973,-21.973,-31.738,-21.973,0.000
1673806200.654,-19.043,-28.320,-30.762,-21.484,0.000
1673806200.657,-15.625,-39.062,-33.203,-19.531,0.000
1673806200.661,-9.277,-32.715,-37.109,-25.879,0.000
1673806200.665,-11.230,-18.555,-30.762,-20.508,0.000
1673806200.669,-25.391,-20.508,-27.832,-14.648,0.000
1673806200.673,-17.090,-20.508,-30.762,-17.578,0.000
1673806200.677,-10.254,-23.438,-31.250,-24.902,0.000
1673806200.681,-17.578,-27.344,-29.785,-20.996,0.000
1673806200.685,-25.879,-19.531,-26.367,-8.789,0.000
1673806200.689,-11.230,-17.090,-24.902,-11.719,0.000
1673806200.693,4.395,-14.160,-23.438,-13.184,0.000
1673806200.697,-5.371,-13.184,-19.043,-2.441,0.000
1673806200.700,-29.297,-20.996,-13.184,6.348,0.000
1673806200.704,-39.062,-19.043,-10.742,6.836,0.000
1673806200.708,-24.902,-12.695,-6.836,10.254,0.000
1673806200.712,-14.648,-18.066,-15.625,12.207,0.000
1673806200.716,-15.625,-20.996,-27.832,-0.488,0.000
1673806200.720,-20.020,-26.367,-21.973,2.441,0.000
1673806200.724,-19.531,-34.180,-16.602,3.906,0.000
1673806200.728,-13.672,-26.367,-23.438,-9.277,0.000
1673806200.732,-27.832,-14.160,-24.414,-5.371,0.000
1673806200.736,-32.227,-13.184,-20.996,-5.859,0.000
1673806200.740,-11.230,-15.137,-20.996,-7.324,0.000
1673806200.743,-5.371,-10.742,-19.043,-5.859,0.000
1673806200.747,-29.297,-12.695,-21.973,-14.648,0.000
1673806200.751,-35.156,-17.090,-25.879,-3.906,0.000
1673806200.755,-16.113,-14.648,-20.508,-0.488,0.000
1673806200.759,-2.441,-16.602,-21.484,-13.184,0.000
1673806200.763,-4.395,-27.344,-25.879,-17.090,0.000
1673806200.767,-12.207,-27.832,-21.973,-9.277,0.000
1673806200.771,-15.625,-18.066,-19.043,5.859,0.000
1673806200.775,-22.949,-21.973,-21.484,-5.859,0.000
1673806200.779,-23.438,-22.949,-21.484,-17.578,0.000
1673806200.782,-10.254,-17.090,-22.461,-14.648,0.000
1673806200.786,-5.371,-18.555,-23.926,-13.184,0.000
1673806200.790,-18.066,-18.555,-20.020,-14.648,0.000
1673806200.794,-44.434,-24.902,-20.508,-31.738,0.000
1673806200.798,-46.875,-32.715,-24.414,-33.691,0.000
1673806200.802,-25.879,-31.250,-24.902,-8.789,0.000
1673806200.806,-19.043,-24.902,-19.531,-4.395,0.000
1673806200.810,-28.320,-28.809,-19.531,-8.789,0.000
1673806200.814,-40.039,-23.438,-17.090,-9.277,0.000
1673806200.818,-39.062,-12.695,-13.184,-12.695,0.000
1673806200.822,-44.434,-16.113,-19.531,-21.973,0.000
1673806200.825,-32.715,-17.578,-25.879,-32.227,0.000
1673806200.829,-21.973,-22.461,-26.855,-31.250,0.000
1673806200.833,-19.043,-21.484,-25.879,-21.973,0.000
1673806200.837,-30.762,-19.043,-25.879,-19.531,0.000
1673806200.841,-43.457,-22.949,-28.809,-22.461,0.000
1673806200.845,-44.434,-18.066,-24.902,-26.855,0.000
1673806200.849,-40.527,-17.578,-27.344,-25.879,0.000
1673806200.853,-34.668,-24.902,-34.668,-20.508,0.000
1673806200.857,-23.438,-29.297,-31.250,-17.578,0.000
1673806200.861,-21.484,-29.785,-31.250,-19.043,0.000
1673806200.864,-41.016,-22.461,-32.715,-24.902,0.000
1673806200.868,-43.945,-21.484,-28.809,-31.738,0.000
1673806200.872,-33.203,-23.926,-22.949,-27.832,0.000
1673806200.876,-40.039,-25.391,-23.926,-27.344,0.000
1673806200.880,-35.645,-32.715,-30.762,-32.227,0.000
1673806200.884,-21.973,-28.809,-29.785,-25.391,0.000
1673806200.888,-19.043,-23.438,-24.902,-19.531,0.000
1673806200.892,-35.645,-31.738,-31.250,-22.461,0.000
1673806200.896,-42.969,-29.785,-33.203,-24.414,0.000
1673806200.900,-39.062,-33.203,-26.855,-25.879,0.000
1673806200.904,-34.668,-29.785,-20.996,-25.879,0.000
1673806200.907,-18.555,-17.578,-22.949,-25.391,0.000
1673806200.911,-7.324,-14.648,-25.879,-39.062,0.000
1673806200.915,-5.371,-18.555,-21.484,-33.203,0.000
1673806200.919,-24.414,-22.949,-23.926,-12.207,0.000
1673806200.923,-40.527,-21.973,-24.414,-14.160,0.000
1673806200.927,-35.645,-20.020,-23.926,-26.367,0.000
1673806200.931,-25.879,-35.156,-25.879,-28.809,0.000
1673806200.935,-12.207,-36.133,-20.996,-18.066,0.000
1673806200.939,-9.277,-20.996,-17.090,-11.230,0.000
1673806200.943,-13.184,-24.902,-22.461,-20.508,0.000
1673806200.947,-13.672,-24.414,-25.391,-24.414,0.000
1673806200.950,-21.484,-17.578,-23.438,-18.066,0.000
1673806200.954,-10.742,-26.855,-30.273,-25.879,0.000
1673806200.958,7.812,-24.414,-29.785,-31.250,0.000
1673806200.962,-20.508,-25.391,-26.855,-18.066,0.000
1673806200.966,-27.832,-27.344,-28.809,-16.113,0.000
1673806200.970,-13.184,-18.555,-24.902,-14.648,0.000
1673806200.974,-24.902,-14.160,-21.484,-9.766,0.000
1673806200.978,-26.367,-19.043,-30.273,-23.926,0.000
1673806200.982,-22.949,-25.391,-32.715,-26.855,0.000
1673806200.986,-10.254,-17.578,-28.320,-7.324,0.000
1673806200.989,-12.207,-11.230,-25.879,-9.766,0.000
1673806200.993,-20.996,-16.113,-25.391,-23.438,0.000
1673806200.997,-11.230,-20.020,-33.691,-23.926,0.000
1673806201.001,-11.719,-20.508,-31.738,-24.902,0.000
1673806201.005,-22.461,-17.090,-24.414,-17.090,0.000
1673806201.009,-23.926,-20.020,-22.949,-12.207,0.000
1673806201.013,-35.156,-23.926,-19.043,-18.555,0.000
1673806201.017,-28.320,-26.855,-15.625,-20.020,0.000
1673806201.021,-11.719,-27.832,-23.926,-16.113,0.000
1673806201.025,-12.695,-29.785,-27.344,-19.043,0.000
1673806201.029,-22.461,-27.344,-26.855,-9.277,0.000
1673806201.032,-29.785,-20.508,-27.832,-4.395,0.000
1673806201.036,-20.508,-19.531,-20.996,-15.625,0.000
1673806201.040,4.395,-22.461,-20.508,-14.648,0.000
1673806201.044,11.719,-23.926,-25.391,-16.602,0.000
1673806201.048,-21.973,-26.367,-23.438,-20.996,0.000
1673806201.052,-44.434,-24.902,-15.625,-7.812,0.000
1673806201.056,-22.949,-22.461,-14.648,-9.277,0.000
1673806201.060,-8.789,-16.602,-16.602,-20.020,0.000
1673806201.064,-11.230,-13.672,-10.742,-12.695,0.000
1673806201.068,-9.766,-11.719,-12.695,-2.930,0.000
1673806201.072,-0.977,-14.160,-15.625,-13.184,0.000
1673806201.075,20.020,-9.766,-8.789,-13.672,0.000
1673806201.079,22.949,-1.465,-9.277,-5.371,0.000
1673806201.083,-11.719,-9.277,-15.625,-4.883,0.000
1673806201.087,-2.441,-5.371,-13.672,0.000,0.000
1673806201.091,14.160,-6.348,-17.578,2.930,0.000
1673806201.095,-10.742,-6.348,-20.508,-0.977,0.000
1673806201.099,-22.461,-3.418,-14.648,-2.441,0.000
1673806201.103,-16.602,-6.836,-9.277,6.348,0.000
1673806201.107,-8.789,-0.977,-1.953,9.277,0.000
1673806201.111,-6.836,-1.953,-3.906,0.000,0.000
1673806201.114,-1.953,-7.324,-11.719,-5.371,0.000
1673806201.118,-6.348,-11.719,-8.789,-4.395,0.000
1673806201.122,-15.625,-12.695,-7.812,-10.254,0.000
1673806201.126,-3.906,-5.859,-8.789,-5.371,0.000
1673806201.130,7.812,-0.977,-11.719,-1.465,0.000
1673806201.134,1.953,-7.812,-10.254,0.977,0.000
1673806201.138,-6.348,-8.301,-8.789,0.000,0.000
1673806201.142,4.883,-5.371,-6.348,-0.488,0.000
1673806201.146,20.020,-17.090,-2.441,3.418,0.000
1673806201.150,2.930,-14.160,-4.395,1.465,0.000
1673806201.154,-18.066,0.977,-7.324,3.906,0.000
1673806201.157,-8.789,4.883,-6.348,1.953,0.000
1673806201.161,12.695,-1.953,-3.418,-5.859,0.000
1673806201.165,14.648,-6.836,-11.719,-7.324,0.000
1673806201.169,0.000,-11.719,-21.973,1.465,0.000
1673806201.173,10.742,-11.719,-9.766,12.695,0.000
1673806201.177,3.418,-9.766,-1.953,14.160,0.000
1673806201.181,-9.277,-11.230,-5.859,5.859,0.000
1673806201.185,-4.395,-19.043,-12.207,5.371,0.000
1673806201.189,-6.836,-23.438,-13.672,7.324,0.000
1673806201.193,-15.625,-16.113,-16.113,-3.906,0.000
1673806201.197,-17.578,-16.113,-24.902,-11.230,0.000
1673806201.200,-28.320,-18.066,-24.902,-9.766,0.000
1673806201.204,-38.086,-13.184,-18.066,0.977,0.000
1673806201.208,-24.414,-28.320,-20.020,-0.977,0.000
1673806201.212,-3.906,-28.320,-23.438,-18.555,0.000
1673806201.216,2.930,-8.301,-18.066,-12.695,0.000
1673806201.220,12.207,-6.348,-22.461,1.465,0.000
1673806201.224,18.066,-8.789,-25.879,-3.418,0.000
1673806201.228,-0.488,-10.254,-23.438,-10.254,0.000
1673806201.232,-7.812,-7.812,-22.461,-2.441,0.000
1673806201.236,-23.438,-14.648,-17.578,6.836,0.000
1673806201.239,-23.438,-16.602,-21.973,-1.465,0.000
1673806201.243,-2.930,-18.066,-26.855,-4.883,0.000
1673806201.247,-6.348,-23.438,-20.996,0.000,0.000
1673806201.251,-16.602,-20.996,-19.043,5.859,0.000
1673806201.255,-19.043,-22.949,-18.555,9.277,0.000
1673806201.259,-13.184,-21.973,-13.672,1.465,0.000
1673806201.263,-0.977,-15.625,-17.578,-4.883,0.000
1673806201.267,-5.371,-12.695,-23.926,-1.465,0.000
1673806201.271,-19.043,-9.766,-18.066,5.371,0.000
1673806201.275,-27.832,-10.742,-17.090,5.859,0.000
1673806201.279,-16.602,-19.531,-26.855,-2.441,0.000
1673806201.282,-6.836,-28.320,-27.832,-4.395,0.000
1673806201.286,-5.859,-21.973,-23.926,0.488,0.000
1673806201.290,6.348,-17.090,-23.438,-6.348,0.000
1673806201.294,13.184,-25.879,-24.414,-15.625,0.000
1673806201.298,-1.953,-18.066,-29.785,-21.973,0.000
1673806201.302,-20.996,-15.625,-33.203,-20.508,0.000
1673806201.306,-40.039,-17.578,-27.832,-14.160,0.000
1673806201.310,-37.109,-19.531,-25.879,-15.625,0.000
1673806201.314,-28.320,-22.461,-29.297,-20.508,0.000
1673806201.318,-18.066,-20.508,-36.621,-26.855,0.000
1673806201.322,-12.207,-21.484,-36.621,-28.320,0.000
1673806201.325,-24.414,-22.949,-28.809,-36.621,0.000
1673806201.329,-34.180,-26.367,-31.250,-54.688,0.000
1673806201.333,-41.016,-32.227,-31.250,-46.387,0.000
1673806201.337,-39.551,-35.156,-29.785,-34.180,0.000
1673806201.341,-38.086,-35.156,-36.133,-38.086,0.000
1673806201.345,-44.922,-34.180,-37.109,-46.387,0.000
1673806201.349,-41.992,-29.785,-35.645,-44.922,0.000
1673806201.353,-32.227,-25.879,-32.227,-43.945,0.000
1673806201.357,-25.391,-24.902,-28.320,-34.668,0.000
1673806201.361,-18.066,-25.391,-23.438,-35.645,0.000
1673806201.364,-17.090,-24.414,-17.090,-29.785,0.000
1673806201.368,-23.926,-28.809,-18.555,-17.090,0.000
1673806201.372,-8.789,-31.738,-28.809,-19.531,0.000
1673806201.376,0.977,-38.574,-27.832,-18.555,0.000
1673806201.380,-24.414,-38.574,-23.438,-11.719,0.000
1673806201.384,-34.668,-28.809,-25.391,4.395,0.000
1673806201.388,-24.414,-23.926,-20.996,-0.488,0.000
1673806201.392,-14.648,-22.461,-20.020,-15.625,0.000
1673806201.396,-15.625,-17.090,-17.578,-21.973,0.000
1673806201.400,-16.113,-18.066,-19.043,-14.160,0.000
1673806201.404,-24.414,-33.203,-20.996,-9.766,0.000
1673806201.407,-33.203,-32.227,-23.438,-26.855,0.000
1673806201.411,-18.555,-21.484,-23.926,-34.180,0.000
1673806201.415,-20.508,-17.578,-18.555,-28.809,0.000
1673806201.419,-41.504,-25.879,-19.531,-38.086,0.000
1673806201.423,-44.434,-36.133,-21.973,-36.133,0.000
1673806201.427,-34.180,-27.344,-20.508,-24.414,0.000
1673806201.431,-31.738,-19.531,-26.367,-16.113,0.000
1673806201.435,-35.645,-18.555,-24.902,-21.973,0.000
1673806201.439,-33.203,-20.508,-23.926,-30.762,0.000
1673806201.443,-36.133,-23.438,-27.344,-31.250,0.000
1673806201.447,-36.621,-27.832,-27.344,-42.480,0.000
1673806201.450,-30.273,-28.320,-30.762,-41.992,0.000
1673806201.454,-13.184,-26.367,-33.691,-36.133,0.000
1673806201.458,1.465,-23.438,-33.691,-30.762,0.000
1673806201.462,-7.324,-24.902,-33.691,-24.902,0.000
1673806201.466,-23.438,-32.227,-33.691,-18.066,0.000
1673806201.470,-34.668,-27.832,-30.762,-14.648,0.000
1673806201.474,-27.344,-27.344,-26.855,-14.160,0.000
1673806201.478,-21.973,-37.598,-26.855,-7.812,0.000
1673806201.482,-18.066,-28.809,-29.785,-7.324,0.000
1673806201.486,-11.230,-17.578,-33.203,-4.883,0.000
1673806201.489,-4.883,-20.996,-34.180,-6.836,0.000
1673806201.493,-4.883,-28.320,-32.227,-10.742,0.000
1673806201.497,-2.441,-26.367,-31.250,-14.648,0.000
1673806201.501,-8.301,-22.461,-29.297,-7.324,0.000
1673806201.505,-15.137,-31.250,-24.414,-0.488,0.000
1673806201.509,-4.883,-33.203,-24.902,-16.602,0.000
1673806201.513,8.789,-20.996,-33.203,-25.391,0.000
1673806201.517,1.953,-18.066,-30.762,-17.578,0.000
1673806201.521,-14.648,-20.020,-27.832,-6.348,0.000
1673806201.525,-23.926,-22.949,-20.996,-10.254,0.000
1673806201.529,-31.738,-27.832,-17.090,-8.301,0.000
1673806201.532,-26.367,-28.809,-20.508,-3.906,0.000
1673806201.536,-35.156,-18.555,-17.578,3.906,0.000
1673806201.540,-42.969,-21.973,-17.090,9.277,0.000
1673806201.544,-35.156,-27.832,-17.090,2.930,0.000
1673806201.548,-34.668,-25.879,-10.254,0.000,0.000
1673806201.552,-21.484,-23.438,-6.836,5.859,0.000
1673806201.556,-26.367,-29.297,-17.578,-0.977,0.000
1673806201.560,-39.551,-31.250,-19.043,-8.789,0.000
1673806201.564,-38.574,-30.762,-12.695,-3.906,0.000
1673806201.568,-36.621,-37.598,-15.137,5.371,0.000
1673806201.571,-31.738,-33.203,-21.973,-0.488,0.000
1673806201.575,-25.879,-21.484,-29.297,-7.812,0.000
1673806201.579,-30.762,-18.066,-26.367,-13.672,0.000
1673806201.583,-35.156,-13.672,-22.461,-15.137,0.000
1673806201.587,-30.762,-12.695,-34.180,-19.043,0.000
1673806201.591,-25.879,-20.508,-38.574,-22.949,0.000
1673806201.595,-34.668,-21.484,-40.039,-28.809,0.000
1673806201.599,-25.391,-14.160,-45.898,-35.156,0.000
1673806201.603,-19.043,-15.137,-41.992,-35.156,0.000
1673806201.607,-41.992,-14.648,-39.062,-20.996,0.000
1673806201.611,-38.574,-8.789,-34.180,-8.301,0.000
1673806201.614,-23.438,-13.672,-29.785,-7.324,0.000
1673806201.618,-19.043,-21.973,-32.227,-8.301,0.000
1673806201.622,-20.508,-28.809,-26.855,-17.090,0.000
1673806201.626,-26.367,-29.297,-21.973,-23.926,0.000
1673806201.630,-22.949,-21.484,-27.832,-20.508,0.000
1673806201.634,-20.020,-21.484,-32.227,-20.020,0.000
1673806201.638,-22.461,-19.531,-29.297,-24.902,0.000
1673806201.642,-31.738,-22.461,-30.762,-35.156,0.000
1673806201.646,-38.574,-23.926,-35.645,-39.551,0.000
1673806201.650,-46.875,-26.855,-25.879,-23.438,0.000
1673806201.654,-58.594,-30.762,-20.020,-15.625,0.000
1673806201.657,-62.988,-32.715,-24.414,-21.484,0.000
1673806201.661,-54.199,-31.250,-23.926,-27.832,0.000
1673806201.665,-33.691,-21.484,-25.391,-33.203,0.000
1673806201.669,-26.367,-24.414,-19.531,-26.855,0.000
1673806201.673,-22.461,-30.762,-16.113,-26.855,0.000
1673806201.677,-23.438,-20.996,-22.949,-31.250,0.000
1673806201.681,-30.273,-13.184,-29.297,-24.414,0.000
1673806201.685,-39.551,-16.602,-31.738,-22.949,0.000
1673806201.689,-46.387,-20.020,-35.645,-33.203,0.000
1673806201.693,-35.156,-17.578,-33.203,-41.504,0.000
1673806201.696,-28.809,-21.484,-29.785,-42.480,0.000
1673806201.700,-27.344,-27.832,-37.598,-37.109,0.000
1673806201.704,-29.785,-26.855,-43.945,-42.969,0.000
1673806201.708,-34.668,-28.320,-37.598,-54.688,0.000
1673806201.712,-26.855,-21.484,-38.086,-52.734,0.000
1673806201.716,-24.902,-23.926,-39.062,-47.363,0.000
1673806201.720,-30.762,-28.809,-34.668,-36.133,0.000
1673806201.724,-34.180,-20.996,-36.621,-34.668,0.000
1673806201.728,-27.832,-21.484,-39.062,-40.039,0.000
1673806201.732,-22.949,-26.855,-38.086,-38.086,0.000
1673806201.736,-24.414,-32.715,-37.109,-33.691,0.000
1673806201.739,-20.508,-28.320,-35.156,-34.180,0.000
1673806201.743,-10.742,-23.438,-28.809,-28.809,0.000
1673806201.747,-3.418,-18.066,-26.855,-20.508,0.000
1673806201.751,-5.371,-19.531,-34.180,-25.879,0.000
1673806201.755,-15.137,-23.438,-36.621,-18.066,0.000
1673806201.759,-33.691,-24.902,-29.297,-15.625,0.000
1673806201.763,-34.668,-29.297,-22.949,-26.367,0.000
1673806201.767,-34.180,-22.461,-21.973,-22.461,0.000
1673806201.771,-32.227,-11.230,-22.949,-13.184,0.000
1673806201.775,-18.066,-11.230,-21.484,-14.648,0.000
1673806201.779,-12.695,-14.160,-20.020,-22.949,0.000
1673806201.782,-8.789,-20.508,-24.902,-29.297,0.000
1673806201.786,-12.207,-20.508,-23.438,-27.344,0.000
1673806201.790,-15.625,-15.137,-16.602,-15.625,0.000
1673806201.794,-14.160,-9.277,-19.531,-23.926,0.000
1673806201.798,-12.695,-8.789,-20.020,-31.738,0.000
1673806201.802,-6.348,-13.184,-15.137,-19.043,0.000
1673806201.806,-17.090,-12.695,-13.672,-11.719,0.000
1673806201.810,-16.113,-6.836,-15.625,-9.277,0.000
1673806201.814,0.977,-5.859,-8.789,-3.418,0.000
1673806201.818,11.230,-4.395,-4.395,3.418,0.000
1673806201.821,18.555,0.000,-6.348,6.836,0.000
1673806201.825,13.672,1.953,-13.184,-9.766,0.000
1673806201.829,-6.348,-3.418,-9.277,-12.695,0.000
1673806201.833,-22.949,-3.906,-6.348,-9.277,0.000
1673806201.837,-13.672,-3.418,-15.625,-1.953,0.000
1673806201.841,-9.766,-10.742,-15.625,-2.441,0.000
1673806201.845,-18.066,-11.719,-17.578,-9.766,0.000
1673806201.849,-19.531,-6.348,-15.137,-2.930,0.000
1673806201.853,-24.902,-7.324,-12.207,5.371,0.000
1673806201.857,-21.973,-7.812,-12.207,7.324,0.000
1673806201.861,-31.250,-10.742,-15.625,5.371,0.000
1673806201.864,-36.621,-13.672,-16.602,8.301,0.000
1673806201.868,-26.367,-15.137,-8.789,8.301,0.000
1673806201.872,-24.902,-11.230,-9.766,1.465,0.000
1673806201.876,-25.879,-4.883,-12.695,2.441,0.000
1673806201.880,-26.367,-4.883,-11.719,7.812,0.000
1673806201.884,-32.227,-12.695,-13.672,-0.488,0.000
1673806201.888,-30.273,-16.113,-8.301,-1.465,0.000
1673806201.892,-24.414,-12.207,-3.906,-6.348,0.000
1673806201.896,-13.672,-12.207,-9.766,-2.930,0.000
1673806201.900,-10.742,-17.578,-11.719,6.348,0.000
1673806201.904,-22.949,-17.090,-9.766,8.301,0.000
1673806201.907,-25.391,-12.207,-3.418,7.324,0.000
1673806201.911,-43.457,-13.672,-6.348,-2.441,0.000
1673806201.915,-50.293,-16.602,-19.531,-11.230,0.000
1673806201.919,-30.273,-19.531,-22.949,-10.742,0.000
1673806201.923,-40.039,-26.855,-19.531,-6.348,0.000
1673806201.927,-63.477,-22.461,-19.531,-9.766,0.000
1673806201.931,-61.523,-13.672,-20.996,-11.230,0.000
1673806201.935,-54.199,-17.090,-24.902,-14.648,0.000
1673806201.939,-50.293,-21.973,-24.902,-14.648,0.000
1673806201.943,-39.551,-23.438,-18.555,-8.301,0.000
1673806201.946,-37.598,-14.648,-24.414,-13.184,0.000
1673806201.950,-43.945,-6.348,-27.832,-10.254,0.000
1673806201.954,-53.223,-18.066,-22.461,-2.930,0.000
1673806201.958,-47.852,-24.414,-25.391,-16.113,0.000
1673806201.962,-43.945,-16.602,-25.879,-23.926,0.000
1673806201.966,-47.363,-17.090,-23.926,-8.301,0.000
1673806201.970,-48.340,-22.949,-20.020,-1.465,0.000
1673806201.974,-50.781,-28.809,-14.648,-4.883,0.000
1673806201.978,-53.223,-40.527,-12.695,-6.836,0.000
1673806201.982,-58.105,-41.504,-19.043,-6.836,0.000
1673806201.986,-65.430,-23.438,-24.414,-9.766,0.000
1673806201.989,-67.871,-17.578,-39.062,-23.438,0.000
1673806201.993,-51.758,-19.043,-43.945,-27.344,0.000
1673806201.997,-38.086,-18.066,-35.156,-26.367,0.000
1673806202.001,-35.645,-19.531,-34.668,-20.996,0.000
1673806202.005,-34.668,-16.113,-32.227,-14.160,0.000
1673806202.009,-56.641,-18.555,-34.180,-16.602,0.000
1673806202.013,-67.383,-24.902,-37.109,-13.184,0.000
1673806202.017,-49.316,-23.926,-30.762,-6.836,0.000
1673806202.021,-41.504,-20.508,-24.414,-6.348,0.000
1673806202.025,-59.570,-24.414,-15.625,-7.812,0.000
1673806202.029,-60.547,-30.762,-17.578,-5.859,0.000
1673806202.032,-41.504,-30.762,-20.996,-10.254,0.000
1673806202.036,-31.250,-28.809,-21.973,-16.113,0.000
1673806202.040,-23.438,-19.043,-26.367,-4.883,0.000
1673806202.044,-8.789,-16.113,-26.855,-9.277,0.000
1673806202.048,-22.461,-26.367,-25.879,-23.438,0.000
1673806202.052,-56.641,-27.344,-22.461,-13.184,0.000
1673806202.056,-49.805,-14.648,-16.602,-11.230,0.000
1673806202.060,-38.086,-12.695,-13.184,-21.484,0.000
1673806202.064,-45.410,-17.090,-20.020,-27.832,0.000
1673806202.068,-41.504,-19.043,-20.508,-24.902,0.000
1673806202.071,-24.902,-20.020,-19.043,-18.555,0.000
1673806202.075,-13.184,-17.578,-23.438,-18.066,0.000
1673806202.079,-18.555,-22.461,-20.508,-29.297,0.000
1673806202.083,-31.738,-22.949,-17.090,-32.715,0.000
1673806202.087,-32.715,-19.531,-16.602,-24.414,0.000
1673806202.091,-23.926,-17.090,-13.672,-24.902,0.000
1673806202.095,-17.578,-20.996,-9.766,-22.461,0.000
1673806202.099,-16.602,-26.855,-14.648,-15.137,0.000
1673806202.103,-19.043,-21.973,-16.602,-16.602,0.000
1673806202.107,-22.461,-19.531,-17.578,-19.531,0.000
1673806202.111,-7.324,-20.508,-21.973,-20.508,0.000
1673806202.114,-3.418,-16.602,-23.438,-17.578,0.000
1673806202.118,-23.926,-19.043,-16.113,-6.348,0.000
1673806202.122,-20.020,-33.691,-11.719,-4.883,0.000
1673806202.126,-32.227,-35.645,-20.508,-15.137,0.000
1673806202.130,-52.246,-22.949,-22.461,-14.648,0.000
1673806202.134,-42.480,-16.602,-22.949,-16.113,0.000
1673806202.138,-43.457,-15.137,-27.832,-29.297,0.000
1673806202.142,-40.527,-19.043,-28.320,-30.273,0.000
1673806202.146,-31.738,-27.832,-30.273,-31.250,0.000
1673806202.150,-23.926,-29.785,-29.297,-29.785,0.000
1673806202.154,-17.578,-20.020,-29.785,-31.738,0.000
1673806202.157,-27.832,-22.461,-33.691,-44.922,0.000
1673806202.161,-32.715,-24.902,-30.273,-45.898,0.000
1673806202.165,-21.484,-14.648,-31.738,-38.574,0.000
1673806202.169,-16.602,-17.090,-41.504,-33.203,0.000
1673806202.173,-17.578,-20.508,-37.109,-32.715,0.000
1673806202.177,-8.301,-20.020,-32.227,-38.574,0.000
1673806202.181,-8.301,-19.531,-34.668,-34.668,0.000
1673806202.185,-40.039,-18.066,-27.344,-24.414,0.000
1673806202.189,-54.199,-20.020,-26.855,-27.344,0.000
1673806202.193,-36.621,-26.367,-30.273,-24.414,0.000
1673806202.196,-30.762,-28.320,-28.320,-24.414,0.000
1673806202.200,-42.969,-34.180,-28.320,-19.043,0.000
1673806202.204,-54.199,-31.738,-25.391,-11.719,0.000
1673806202.208,-39.551,-25.879,-26.855,-16.602,0.000
1673806202.212,-30.762,-16.602,-31.738,-18.555,0.000
1673806202.216,-34.668,-16.113,-31.738,-21.484,0.000
1673806202.220,-26.855,-29.785,-26.367,-24.902,0.000
1673806202.224,-29.297,-19.531,-23.438,-32.715,0.000
1673806202.228,-38.574,-16.113,-23.926,-33.203,0.000
1673806202.232,-36.133,-26.367,-26.367,-27.344,0.000
1673806202.236,-31.250,-24.414,-29.785,-25.391,0.000
1673806202.239,-28.809,-15.625,-23.438,-21.973,0.000
1673806202.243,-39.062,-24.902,-24.414,-22.461,0.000
1673806202.247,-31.250,-23.926,-27.832,-34.668,0.000
1673806202.251,-13.672,-13.184,-26.855,-39.551,0.000
1673806202.255,-6.836,-18.066,-22.949,-34.180,0.000
1673806202.259,-12.207,-20.020,-19.531,-34.180,0.000
1673806202.263,-14.648,-14.648,-22.949,-28.809,0.000
1673806202.267,-24.902,-22.949,-20.508,-18.066,0.000
1673806202.271,-40.039,-15.625,-11.719,-10.254,0.000
1673806202.275,-23.926,-9.766,-11.719,-10.254,0.000
1673806202.279,-8.789,-18.066,-18.066,-9.277,0.000
1673806202.282,-20.508,-18.555,-18.555,-1.465,0.000
1673806202.286,-28.809,-13.672,-16.602,6.348,0.000
1673806202.290,-23.438,-16.602,-21.484,0.488,0.000
1673806202.294,-17.090,-19.043,-20.996,-8.301,0.000
1673806202.298,-16.113,-16.602,-21.484,-3.906,0.000
1673806202.302,-24.902,-21.484,-23.926,9.277,0.000
1673806202.306,-28.320,-22.949,-26.367,1.465,0.000
1673806202.310,-22.949,-24.414,-27.344,-10.254,0.000
1673806202.314,-10.254,-38.574,-26.367,-12.207,0.000
1673806202.318,-11.719,-38.574,-28.320,-18.555,0.000
1673806202.321,-12.207,-26.855,-33.691,-26.855,0.000
1673806202.325,-6.348,-23.438,-36.621,-32.227,0.000
1673806202.329,0.488,-22.461,-29.785,-33.691,0.000
1673806202.333,-16.113,-25.391,-24.902,-36.133,0.000
1673806202.337,-26.855,-21.973,-29.297,-34.668,0.000
1673806202.341,-3.418,-23.926,-33.203,-29.785,0.000
1673806202.345,12.207,-29.785,-32.715,-32.227,0.000
1673806202.349,4.395,-30.273,-36.621,-30.762,0.000
1673806202.353,-6.836,-31.250,-35.645,-32.715,0.000
1673806202.357,-18.555,-27.832,-28.809,-33.203,0.000
1673806202.361,-20.508,-31.738,-29.785,-27.832,0.000
1673806202.364,-20.020,-38.086,-40.527,-29.297,0.000
1673806202.368,-25.391,-37.598,-38.086,-35.156,0.000
1673806202.372,-23.438,-35.645,-28.809,-32.715,0.000
1673806202.376,-8.789,-24.902,-28.320,-26.367,0.000
1673806202.380,-14.648,-29.297,-25.879,-28.809,0.000
1673806202.384,-16.113,-40.039,-20.996,-25.879,0.000
1673806202.388,-29.785,-28.320,-18.066,-22.949,0.000
1673806202.392,-25.879,-23.438,-18.555,-18.555,0.000
1673806202.396,-5.371,-33.203,-23.926,-24.414,0.000
1673806202.400,-7.324,-29.785,-30.273,-30.762,0.000
1673806202.404,-8.789,-24.902,-27.344,-19.531,0.000
1673806202.407,-28.809,-28.320,-24.414,-24.414,0.000
1673806202.411,-30.762,-31.250,-30.273,-37.598,0.000
1673806202.415,-24.414,-36.133,-22.461,-32.715,0.000
1673806202.419,-20.020,-31.250,-15.625,-21.973,0.000
1673806202.423,-14.648,-27.832,-20.020,-23.438,0.000
1673806202.427,-20.996,-25.391,-15.137,-24.414,0.000
1673806202.431,-13.184,-20.020,-13.184,-17.578,0.000
1673806202.435,1.465,-21.484,-19.531,-13.672,0.000
1673806202.439,-7.324,-20.020,-14.648,-9.277,0.000
1673806202.443,-28.320,-18.555,-12.207,-17.578,0.000
1673806202.446,-19.043,-26.855,-18.066,-17.578,0.000
1673806202.450,-20.020,-27.344,-20.020,-13.184,0.000
1673806202.454,-23.926,-25.391,-20.020,-14.648,0.000
1673806202.458,1.465,-22.949,-21.484,-13.184,0.000
1673806202.462,16.113,-21.484,-25.879,-15.137,0.000
1673806202.466,1.953,-25.391,-26.367,-1.953,0.000
1673806202.470,-19.531,-35.156,-26.367,-3.906,0.000
1673806202.474,-23.926,-39.062,-28.320,-19.531,0.000
1673806202.478,-12.695,-22.949,-25.391,-28.320,0.000
1673806202.482,-1.465,-10.254,-29.297,-25.879,0.000
1673806202.486,0.977,-15.137,-35.156,-31.250,0.000
1673806202.489,-24.414,-23.438,-33.691,-28.320,0.000
1673806202.493,-32.227,-25.879,-34.668,-22.461,0.000
1673806202.497,-21.973,-22.949,-36.621,-28.320,0.000
1673806202.501,-26.855,-22.461,-34.668,-29.785,0.000
1673806202.505,-27.344,-21.973,-32.715,-31.738,0.000
1673806202.509,-24.902,-20.508,-29.785,-28.809,0.000
1673806202.513,-23.438,-28.320,-28.320,-27.344,0.000
1673806202.517,-20.996,-32.715,-29.785,-25.879,0.000
1673806202.521,-24.902,-25.391,-31.738,-23.926,0.000
1673806202.525,-30.273,-25.391,-36.621,-28.320,0.000
1673806202.529,-27.344,-26.855,-36.133,-27.832,0.000
1673806202.532,-25.879,-24.902,-33.203,-24.414,0.000
1673806202.536,-29.297,-23.438,-29.785,-18.555,0.000
1673806202.540,-18.066,-18.066,-20.996,-10.254,0.000
1673806202.544,-1.953,-12.207,-23.926,-12.695,0.000
1673806202.548,10.254,-15.625,-26.367,-11.719,0.000
1673806202.552,8.301,-16.602,-18.066,4.883,0.000
1673806202.556,-0.977,-18.555,-20.996,5.371,0.000
1673806202.560,1.465,-15.137,-28.809,-13.184,0.000
1673806202.564,8.789,-9.766,-21.973,-15.137,0.000
1673806202.568,6.348,-15.137,-18.066,-0.488,0.000
1673806202.571,7.324,-12.695,-16.602,9.277,0.000
1673806202.575,5.859,-9.277,-16.602,-1.953,0.000
1673806202.579,11.719,-16.113,-22.949,-9.766,0.000
1673806202.583,19.531,-14.648,-17.090,1.465,0.000
1673806202.587,10.742,-6.836,-21.484,-4.883,0.000
1673806202.591,11.230,-2.930,-19.531,-19.531,0.000
1673806202.595,-4.883,-6.836,-6.836,-10.742,0.000
1673806202.599,-7.324,-12.207,-4.883,2.930,0.000
1673806202.603,13.672,-8.789,-3.906,13.672,0.000
1673806202.607,17.090,-5.859,-5.859,6.348,0.000
1673806202.611,18.066,-2.441,-11.230,0.977,0.000
1673806202.614,11.719,-1.465,-14.160,6.836,0.000
1673806202.618,14.160,-15.137,-10.254,2.930,0.000
1673806202.622,18.555,-20.020,-10.254,-3.906,0.000
1673806202.626,11.719,-5.371,-13.672,-4.395,0.000
1673806202.630,7.812,-17.578,-6.836,0.000,0.000
1673806202.634,-24.414,-28.809,-3.906,5.859,0.000
1673806202.638,-37.109,-24.414,-9.766,-1.953,0.000
1673806202.642,-41.016,-23.438,-8.301,-18.555,0.000
1673806202.646,-42.969,-16.602,-6.836,-2.441,0.000
1673806202.650,-34.668,-14.160,-9.277,3.418,0.000
1673806202.653,-16.602,-14.648,-9.766,-11.230,0.000
1673806202.657,16.113,-7.324,-4.395,-10.742,0.000
1673806202.661,26.855,-8.789,-4.395,-19.043,0.000
1673806202.665,-9.277,-33.203,-6.836,-27.344,0.000
1673806202.669,-66.895,-31.250,-6.348,-13.672,0.000
1673806202.673,-67.383,-14.160,-7.812,-13.672,0.000
1673806202.677,-51.270,-18.066,-9.277,-20.996,0.000
1673806202.681,-40.039,-19.043,-12.207,-20.508,0.000
1673806202.685,-35.156,-18.555,-16.602,-20.020,0.000
1673806202.689,-41.016,-13.184,-12.207,-14.160,0.000
1673806202.693,-25.391,-14.160,-7.324,-13.184,0.000
1673806202.696,-1.465,-20.020,-15.137,-24.902,0.000
1673806202.700,14.160,-20.508,-18.066,-14.160,0.000
1673806202.704,22.461,-17.090,-19.531,-3.906,0.000
1673806202.708,-1.953,-11.230,-23.438,-8.789,0.000
1673806202.712,-20.020,-15.625,-21.973,-8.789,0.000
1673806202.716,1.465,-10.254,-11.719,-7.324,0.000
1673806202.720,13.184,-9.766,-14.160,-3.418,0.000
1673806202.724,17.090,-24.414,-26.367,-3.906,0.000
1673806202.728,-5.371,-28.809,-21.973,-5.371,0.000
1673806202.732,-14.648,-19.531,-16.602,-0.977,0.000
1673806202.736,3.418,-13.184,-18.066,7.324,0.000
1673806202.739,14.160,-14.160,-23.438,3.906,0.000
1673806202.743,14.160,-14.160,-26.855,-12.695,0.000
1673806202.747,8.301,-10.254,-23.438,-14.160,0.000
1673806202.751,10.254,-12.207,-22.461,-5.859,0.000
1673806202.755,-2.441,-15.137,-24.414,-11.719,0.000
1673806202.759,-14.648,-10.742,-25.879,-20.508,0.000
1673806202.763,0.488,-13.672,-19.043,-19.531,0.000
1673806202.767,14.648,-23.926,-16.113,-8.301,0.000
1673806202.771,7.812,-18.555,-18.555,-0.977,0.000
1673806202.775,-20.508,-15.137,-15.137,-10.254,0.000
1673806202.778,-39.062,-26.855,-11.230,-11.719,0.000
1673806202.782,-22.949,-29.297,-15.137,-9.766,0.000
1673806202.786,-20.996,-22.461,-21.973,-22.461,0.000
1673806202.790,-52.734,-22.461,-22.949,-31.250,0.000
1673806202.794,-42.480,-20.020,-21.484,-32.227,0.000
1673806202.798,-18.555,-22.461,-23.438,-33.203,0.000
1673806202.802,-29.297,-22.461,-22.949,-34.668,0.000
1673806202.806,-35.645,-19.531,-25.879,-31.250,0.000
1673806202.810,-24.902,-23.438,-31.738,-35.156,0.000
1673806202.814,-17.578,-28.320,-35.645,-40.527,0.000
1673806202.818,5.371,-24.902,-34.668,-31.738,0.000
1673806202.821,8.789,-25.391,-26.855,-28.809,0.000
1673806202.825,-30.273,-32.715,-22.461,-26.855,0.000
1673806202.829,-35.156,-26.367,-30.273,-34.180,0.000
1673806202.833,-31.738,-19.531,-35.645,-38.086,0.000
1673806202.837,-35.645,-23.438,-32.715,-30.762,0.000
1673806202.841,-31.250,-21.973,-31.250,-35.645,0.000
1673806202.845,-23.926,-13.184,-25.879,-41.504,0.000
1673806202.849,-11.719,-9.766,-28.320,-29.785,0.000
1673806202.853,1.953,-10.742,-24.902,-16.602,0.000
1673806202.857,0.000,-23.438,-20.996,-24.414,0.000
1673806202.861,-13.184,-26.855,-28.809,-26.367,0.000
1673806202.864,-17.578,-12.207,-26.855,-16.113,0.000
1673806202.868,-9.277,-7.324,-14.160,-4.883,0.000
1673806202.872,0.977,-7.324,-19.531,-1.465,0.000
1673806202.876,1.465,-6.836,-27.344,-10.742,0.000
1673806202.880,-8.301,-9.766,-28.320,-16.113,0.000
1673806202.884,-20.508,-14.160,-25.879,-10.742,0.000
1673806202.888,-29.785,-15.137,-16.113,-5.371,0.000
1673806202.892,-26.367,-10.742,-14.648,-11.230,0.000
1673806202.896,-32.227,-12.695,-18.555,-14.160,0.000
1673806202.900,-30.762,-16.113,-20.996,-7.812,0.000
1673806202.903,-24.902,-18.066,-21.973,-7.324,0.000
1673806202.907,-22.949,-24.902,-17.578,-8.789,0.000
1673806202.911,-1.953,-25.391,-24.414,-5.371,0.000
1673806202.915,-0.977,-17.090,-31.738,-0.977,0.000
1673806202.919,-33.203,-24.902,-23.926,-0.488,0.000
1673806202.923,-38.574,-25.879,-14.160,-2.441,0.000
1673806202.927,-14.160,-18.555,-12.695,0.977,0.000
1673806202.931,-6.348,-21.973,-12.695,4.395,0.000
1673806202.935,-24.902,-20.020,-15.625,6.348,0.000
1673806202.939,-20.020,-16.602,-13.672,8.301,0.000
1673806202.943,-6.836,-22.461,-9.766,2.441,0.000
1673806202.946,-9.766,-26.367,-11.719,-0.977,0.000
1673806202.950,-7.324,-24.414,-10.254,9.766,0.000
1673806202.954,-22.949,-25.879,-11.230,11.719,0.000
1673806202.958,-32.715,-28.320,-10.254,7.812,0.000
1673806202.962,-20.508,-18.555,-8.789,8.789,0.000
1673806202.966,-18.555,-15.625,-18.066,-0.488,0.000
1673806202.970,-18.066,-24.902,-22.461,-6.836,0.000
1673806202.974,-19.043,-28.320,-20.020,0.488,0.000
1673806202.978,-17.578,-26.367,-20.020,-2.930,0.000
1673806202.982,-3.418,-22.949,-21.484,-10.254,0.000
1673806202.986,-9.277,-18.555,-21.484,-6.836,0.000
1673806202.989,-21.484,-23.926,-22.461,-8.789,0.000
1673806202.993,-21.484,-23.926,-22.949,-21.484,0.000
1673806202.997,-22.461,-14.648,-23.926,-18.066,0.000
1673806203.001,-15.137,-10.742,-26.855,-14.648,0.000
1673806203.005,-13.184,-18.555,-28.320,-16.602,0.000
1673806203.009,-7.812,-22.461,-30.273,-18.066,0.000
1673806203.013,2.441,-14.648,-33.203,-29.785,0.000
1673806203.017,-4.883,-12.695,-31.738,-27.344,0.000
1673806203.021,-23.438,-15.137,-29.785,-22.461,0.000
1673806203.025,-22.461,-8.301,-32.227,-26.855,0.000
1673806203.028,-20.996,-11.230,-29.297,-32.715,0.000
1673806203.032,-35.156,-17.578,-23.926,-32.715,0.000
1673806203.036,-38.086,-20.508,-25.879,-34.180,0.000
1673806203.040,-41.504,-26.367,-25.879,-30.273,0.000
1673806203.044,-36.133,-17.090,-22.949,-27.832,0.000
1673806203.048,-31.738,-12.207,-25.391,-31.738,0.000
1673806203.052,-34.180,-16.113,-25.391,-33.203,0.000
1673806203.056,-37.598,-27.832,-25.879,-42.480,0.000
1673806203.060,-41.992,-33.691,-27.832,-52.734,0.000
1673806203.064,-35.645,-28.809,-26.367,-48.828,0.000
1673806203.068,-39.062,-31.738,-24.902,-35.156,0.000
1673806203.071,-48.340,-34.668,-29.785,-34.180,0.000
1673806203.075,-41.504,-30.762,-30.273,-38.086,0.000
1673806203.079,-44.434,-26.367,-24.414,-37.109,0.000
1673806203.083,-53.223,-26.855,-21.973,-20.996,0.000
1673806203.087,-44.434,-25.391,-20.020,-16.113,0.000
1673806203.091,-41.992,-23.926,-19.531,-22.461,0.000
1673806203.095,-28.809,-27.344,-22.461,-28.320,0.000
1673806203.099,-12.695,-29.297,-18.066,-29.297,0.000
1673806203.103,-20.020,-35.156,-19.531,-14.160,0.000
1673806203.107,-26.855,-35.645,-25.879,-13.672,0.000
1673806203.111,-7.812,-31.738,-25.391,-12.207,0.000
1673806203.114,-20.508,-32.715,-25.879,-14.160,0.000
1673806203.118,-43.457,-36.621,-33.691,-24.414,0.000
1673806203.122,-37.109,-33.691,-34.668,-21.484,0.000
1673806203.126,-38.086,-31.738,-29.785,-26.367,0.000
1673806203.130,-43.945,-30.762,-38.086,-32.227,0.000
1673806203.134,-36.133,-22.461,-33.691,-18.555,0.000
1673806203.138,-27.344,-28.809,-27.344,-16.602,0.000
1673806203.142,-32.227,-30.273,-31.250,-25.391,0.000
1673806203.146,-19.531,-23.926,-31.250,-23.926,0.000
1673806203.150,-8.301,-30.273,-38.086,-34.180,0.000
1673806203.153,-17.090,-27.344,-39.551,-32.227,0.000
1673806203.157,-20.508,-23.438,-37.598,-27.344,0.000
1673806203.161,-23.926,-23.438,-34.180,-41.504,0.000
1673806203.165,-20.996,-22.461,-32.715,-44.922,0.000
1673806203.169,-25.391,-36.621,-39.062,-38.574,0.000
1673806203.173,-25.879,-35.156,-34.668,-33.691,0.000
1673806203.177,-20.996,-30.273,-31.250,-27.344,0.000
1673806203.181,-25.391,-33.203,-29.297,-23.926,0.000
1673806203.185,-31.738,-31.738,-29.785,-23.926,0.000
1673806203.189,-19.043,-29.785,-37.109,-25.391,0.000
1673806203.193,-27.344,-33.203,-33.203,-29.785,0.000
1673806203.196,-42.480,-37.598,-24.902,-24.414,0.000
1673806203.200,-27.344,-23.926,-20.020,-12.207,0.000
1673806203.204,-23.926,-26.367,-21.484,-13.184,0.000
1673806203.208,-24.414,-33.691,-27.832,-22.949,0.000
1673806203.212,-21.484,-24.902,-28.809,-24.414,0.000
1673806203.216,-20.508,-29.297,-27.832,-20.996,0.000
1673806203.220,-12.207,-35.156,-30.762,-20.996,0.000
1673806203.224,-3.906,-34.180,-31.250,-18.066,0.000
1673806203.228,-13.184,-29.297,-26.855,-19.531,0.000
1673806203.232,-24.414,-26.367,-25.879,-27.832,0.000
1673806203.236,-28.320,-26.367,-28.809,-27.344,0.000
1673806203.239,-22.949,-18.066,-28.320,-28.320,0.000
1673806203.243,-30.762,-17.578,-26.367,-31.738,0.000
1673806203.247,-42.969,-22.949,-23.438,-31.250,0.000
1673806203.251,-21.484,-21.484,-23.438,-34.668,0.000
1673806203.255,-14.648,-19.531,-27.832,-31.250,0.000
1673806203.259,-25.879,-26.367,-30.762,-26.855,0.000
1673806203.263,-33.203,-28.320,-29.785,-25.879,0.000
1673806203.267,-35.645,-28.809,-27.832,-26.855,0.000
1673806203.271,-36.621,-35.156,-26.367,-27.832,0.000
1673806203.275,-33.203,-31.738,-27.344,-25.879,0.000
1673806203.278,-32.227,-27.832,-31.250,-29.785,0.000
1673806203.282,-34.180,-31.250,-34.180,-32.715,0.000
1673806203.286,-34.180,-35.156,-30.273,-20.996,0.000
1673806203.290,-29.785,-31.250,-29.297,-7.324,0.000
1673806203.294,-40.039,-27.344,-30.273,-17.090,0.000
1673806203.298,-34.180,-24.414,-27.832,-25.391,0.000
1673806203.302,-26.855,-24.414,-29.785,-17.578,0.000
1673806203.306,-30.273,-28.809,-26.855,-11.230,0.000
1673806203.310,-19.531,-32.227,-22.461,-18.066,0.000
1673806203.314,-28.809,-25.879,-20.020,-18.555,0.000
1673806203.318,-47.363,-20.996,-22.949,-14.160,0.000
1673806203.321,-37.598,-23.438,-25.391,-17.578,0.000
1673806203.325,-7.812,-18.555,-20.508,-20.020,0.000
1673806203.329,-2.441,-14.160,-22.949,-21.973,0.000
1673806203.333,-12.695,-18.555,-28.809,-15.137,0.000
1673806203.337,1.953,-16.602,-27.832,-2.441,0.000
1673806203.341,-0.488,-15.137,-28.809,-13.184,0.000
1673806203.345,-29.297,-25.879,-27.832,-27.832,0.000
1673806203.349,-28.320,-30.762,-22.461,-25.879,0.000
1673806203.353,-6.348,-19.043,-22.949,-14.160,0.000
1673806203.357,2.930,-14.648,-23.926,-7.812,0.000
1673806203.361,8.789,-16.602,-24.902,-11.719,0.000
1673806203.364,0.488,-17.578,-23.438,-12.207,0.000
1673806203.368,-23.438,-23.438,-23.438,-5.859,0.000
1673806203.372,-18.555,-19.043,-24.414,1.465,0.000
1673806203.376,-5.859,-20.996,-23.926,-2.930,0.000
1673806203.380,-11.230,-26.367,-26.367,-8.789,0.000
1673806203.384,-10.254,-19.531,-27.832,-12.207,0.000
1673806203.388,-25.391,-26.367,-28.320,-14.160,0.000
1673806203.392,-28.320,-30.273,-33.691,-15.137,0.000
1673806203.396,-25.391,-19.531,-30.762,-17.578,0.000
1673806203.400,-21.484,-14.160,-21.973,-16.602,0.000
1673806203.403,-16.113,-22.461,-21.973,-13.672,0.000
1673806203.407,-22.949,-24.902,-22.949,-9.277,0.000
1673806203.411,-42.480,-16.602,-19.531,-8.301,0.000
1673806203.415,-42.969,-20.996,-20.996,-21.484,0.000
1673806203.419,-27.344,-31.738,-21.484,-22.949,0.000
1673806203.423,-26.855,-31.738,-23.926,-20.020,0.000
1673806203.427,-29.785,-20.508,-28.320,-20.996,0.000
1673806203.431,-29.297,-16.113,-31.738,-33.691,0.000
1673806203.435,-27.344,-23.926,-26.855,-40.527,0.000
1673806203.439,-31.738,-20.508,-20.996,-29.785,0.000
1673806203.443,-32.715,-19.531,-25.879,-24.902,0.000
1673806203.446,-11.719,-23.926,-27.344,-22.949,0.000
1673806203.450,-0.488,-27.344,-23.438,-23.438,0.000
1673806203.454,-40.527,-30.273,-18.066,-10.254,0.000
1673806203.458,-61.035,-28.320,-18.555,-8.301,0.000
1673806203.462,-32.227,-25.879,-25.879,-24.414,0.000
1673806203.466,-17.090,-32.715,-25.879,-20.020,0.000
1673806203.470,-11.719,-27.344,-22.461,-10.742,0.000
1673806203.474,-18.066,-9.277,-22.461,0.000,0.000
1673806203.478,-5.859,-7.324,-17.578,4.395,0.000
1673806203.482,18.066,-9.277,-16.602,11.230,0.000
1673806203.486,0.000,-10.742,-13.184,22.949,0.000
1673806203.489,-23.438,-27.344,-12.207,12.695,0.000
1673806203.493,-22.949,-18.555,-14.160,-3.418,0.000
1673806203.497,-16.113,-0.977,-7.812,1.953,0.000
1673806203.501,-2.930,-0.977,-2.930,12.207,0.000
1673806203.505,3.906,-6.836,-3.906,3.906,0.000
1673806203.509,-3.906,-15.137,-11.230,0.488,0.000
1673806203.513,7.324,-11.719,-13.672,2.441,0.000
1673806203.517,4.883,-1.953,-5.859,-10.742,0.000
1673806203.521,6.836,-0.488,-3.418,-14.160,0.000
1673806203.525,6.348,-7.324,-0.488,-19.043,0.000
1673806203.528,-11.719,-1.465,3.418,-20.508,0.000
1673806203.532,-25.391,0.488,0.488,-14.648,0.000
1673806203.536,-22.461,-1.953,-5.371,-6.836,0.000
1673806203.540,-6.348,3.906,1.953,-10.254,0.000
1673806203.544,4.883,9.277,2.930,-12.207,0.000
1673806203.548,-12.207,5.371,-1.953,-2.930,0.000
1673806203.552,-14.648,5.371,1.953,2.441,0.000
1673806203.556,-10.742,-0.977,2.930,1.465,0.000
1673806203.560,-3.418,-9.766,1.953,12.207,0.000
1673806203.564,4.883,-7.812,0.977,19.531,0.000
1673806203.568,-3.418,-4.395,-2.930,22.461,0.000
1673806203.571,-9.766,-6.836,-7.812,10.254,0.000
1673806203.575,-14.160,-15.137,-6.836,-3.418,0.000
1673806203.579,-20.020,-19.043,-12.207,-6.348,0.000
1673806203.583,-17.578,-16.113,-18.066,-8.301,0.000
1673806203.587,-4.883,-11.230,-14.160,-0.977,0.000
1673806203.591,-5.859,-16.113,-13.672,-2.930,0.000
1673806203.595,-29.297,-28.809,-18.066,-20.996,0.000
1673806203.599,-26.367,-24.414,-19.043,-30.273,0.000
1673806203.603,-10.742,-15.625,-23.926,-30.273,0.000
1673806203.607,-21.973,-23.438,-26.855,-32.715,0.000
1673806203.610,-36.621,-31.250,-22.949,-29.785,0.000
1673806203.614,-30.762,-18.555,-20.508,-30.273,0.000
1673806203.618,-34.180,-11.719,-27.344,-36.133,0.000
1673806203.622,-37.598,-17.578,-28.809,-36.621,0.000
1673806203.626,-31.250,-25.391,-22.949,-35.645,0.000
1673806203.630,-24.414,-26.367,-23.438,-28.809,0.000
1673806203.634,-15.625,-13.672,-21.973,-18.555,0.000
1673806203.638,6.836,-14.648,-13.672,-6.836,0.000
1673806203.642,7.812,-21.484,-13.184,-3.418,0.000
1673806203.646,5.371,-20.020,-13.672,1.465,0.000
1673806203.650,13.672,-16.602,-12.207,0.977,0.000
1673806203.653,-5.859,-13.184,-14.160,-4.883,0.000
1673806203.657,-25.879,-20.020,-21.484,-0.977,0.000
1673806203.661,-35.156,-21.484,-16.113,7.812,0.000
1673806203.665,-25.879,-17.090,-15.625,10.742,0.000
1673806203.669,-32.715,-24.902,-25.391,4.395,0.000
1673806203.673,-26.855,-27.344,-23.926,1.953,0.000
1673806203.677,-3.418,-24.902,-29.297,-11.230,0.000
1673806203.681,-2.441,-20.020,-30.273,-12.695,0.000
1673806203.685,-26.367,-17.578,-20.508,-6.348,0.000
1673806203.689,-32.715,-15.625,-15.625,-8.301,0.000
1673806203.693,-5.371,-17.090,-15.625,-8.301,0.000
1673806203.696,-9.277,-17.578,-20.508,-6.836,0.000
1673806203.700,-11.230,-17.090,-21.973,-11.719,0.000
1673806203.704,-4.883,-12.207,-19.531,-12.695,0.000
1673806203.708,-10.742,-9.277,-20.996,-8.789,0.000
1673806203.712,-2.930,-12.207,-22.949,-16.602,0.000
1673806203.716,2.441,-15.137,-21.973,-17.090,0.000
1673806203.720,-6.348,-18.066,-25.391,-3.906,0.000
1673806203.724,-7.812,-13.184,-23.438,-1.465,0.000
1673806203.728,-9.766,-17.090,-10.742,-6.836,0.000
1673806203.732,2.930,-17.578,-22.949,-12.695,0.000
1673806203.735,3.906,-10.254,-34.180,-5.859,0.000
1673806203.739,-10.254,-10.742,-19.043,3.906,0.000
1673806203.743,-9.766,-14.648,-13.672,-6.836,0.000
1673806203.747,-17.578,-27.832,-23.438,-11.719,0.000
1673806203.751,-22.461,-30.762,-23.926,1.465,0.000
1673806203.755,-22.949,-18.066,-17.090,9.277,0.000
1673806203.759,-25.879,-17.090,-22.461,-1.953,0.000
1673806203.763,-14.648,-19.043,-27.344,-4.883,0.000
1673806203.767,-11.230,-22.949,-22.461,0.977,0.000
1673806203.771,-11.719,-27.832,-20.020,9.766,0.000
1673806203.775,-18.555,-22.461,-22.949,8.789,0.000
1673806203.778,-23.438,-15.137,-23.926,-5.859,0.000
1673806203.782,-31.738,-20.996,-25.879,-9.766,0.000
1673806203.786,-44.434,-26.367,-26.367,-6.348,0.000
1673806203.790,-33.203,-28.320,-29.785,-12.207,0.000
1673806203.794,-33.691,-26.855,-31.738,-24.414,0.000
1673806203.798,-38.086,-24.902,-30.273,-32.227,0.000
1673806203.802,-23.438,-25.391,-30.762,-28.809,0.000
1673806203.806,-20.996,-23.438,-30.273,-34.180,0.000
1673806203.810,-25.879,-25.879,-25.879,-41.992,0.000
1673806203.814,-11.719,-17.578,-27.344,-37.109,0.000
1673806203.818,-24.902,-14.160,-34.668,-26.855,0.000
1673806203.821,-47.363,-15.625,-34.180,-33.691,0.000
1673806203.825,-32.227,-18.066,-29.785,-45.898,0.000
1673806203.829,-22.949,-20.508,-23.926,-37.109,0.000
1673806203.833,-8.301,-20.508,-20.508,-36.133,0.000
1673806203.837,4.395,-20.020,-28.809,-41.992,0.000
1673806203.841,-33.203,-13.672,-25.879,-33.203,0.000
1673806203.845,-60.547,-15.137,-17.578,-19.043,0.000
1673806203.849,-34.180,-11.719,-20.020,-11.719,0.000
1673806203.853,-16.602,-15.137,-22.461,-14.160,0.000
1673806203.857,-19.531,-20.020,-24.414,-14.648,0.000
1673806203.860,-16.113,-16.113,-19.043,-13.184,0.000
1673806203.864,-28.809,-16.113,-17.578,-15.137,0.000
1673806203.868,-37.598,-18.555,-20.996,-11.230,0.000
1673806203.872,-24.414,-32.715,-20.996,-13.672,0.000
1673806203.876,-19.531,-33.203,-21.484,-16.113,0.000
1673806203.880,-16.113,-17.578,-23.926,-14.648,0.000
1673806203.884,-12.207,-13.184,-28.809,-12.207,0.000
1673806203.888,-8.301,-18.555,-29.297,-11.719,0.000
1673806203.892,-9.277,-25.391,-24.414,-4.883,0.000
1673806203.896,-25.879,-31.738,-20.508,-5.859,0.000
1673806203.900,-38.574,-35.645,-22.949,-9.277,0.000
1673806203.903,-30.762,-27.344,-22.461,-2.930,0.000
1673806203.907,-22.949,-23.926,-20.996,-0.488,0.000
1673806203.911,-21.973,-31.738,-26.855,-9.277,0.000
1673806203.915,-6.348,-23.438,-20.508,-8.301,0.000
1673806203.919,11.230,-13.672,-14.648,-4.395,0.000
1673806203.923,-11.719,-17.578,-16.602,-4.395,0.000
1673806203.927,-35.645,-27.832,-20.508,-13.184,0.000
1673806203.931,-26.367,-28.809,-21.973,-12.207,0.000
1673806203.935,-24.414,-24.414,-17.090,2.930,0.000
1673806203.939,-33.203,-28.320,-16.602,-9.277,0.000
1673806203.943,-25.391,-27.344,-20.996,-14.648,0.000
1673806203.946,-24.902,-30.273,-24.902,-9.766,0.000
1673806203.950,-27.344,-23.438,-21.973,-10.254,0.000
1673806203.954,-19.531,-17.090,-23.926,-15.137,0.000
1673806203.958,-14.160,-18.555,-30.273,-29.297,0.000
1673806203.962,-25.391,-20.508,-29.297,-33.691,0.000
1673806203.966,-42.969,-28.809,-28.320,-16.113,0.000
1673806203.970,-35.156,-31.738,-22.461,-10.742,0.000
1673806203.974,-30.273,-24.902,-15.137,-15.625,0.000
1673806203.978,-32.227,-23.926,-16.602,-17.090,0.000
1673806203.982,-31.250,-23.438,-17.578,-11.230,0.000
1673806203.985,-22.461,-20.020,-18.066,-7.812,0.000
1673806203.989,-11.719,-21.973,-25.391,-15.137,0.000
1673806203.993,-17.090,-27.344,-25.879,-22.949,0.000
1673806203.997,-12.695,-24.902,-22.461,-13.184,0.000
1673806204.001,-13.672,-19.043,-25.391,-10.742,0.000
1673806204.005,-20.020,-18.066,-25.391,-15.137,0.000
1673806204.009,-20.020,-20.508,-31.250,-21.973,0.000
1673806204.013,-23.926,-23.438,-31.738,-20.996,0.000
1673806204.017,-15.137,-23.438,-32.227,-16.602,0.000
1673806204.021,-5.859,-16.113,-31.738,-14.648,0.000
1673806204.025,-11.719,-13.672,-24.902,-7.812,0.000
1673806204.028,-11.230,-24.414,-27.344,-20.996,0.000
1673806204.032,-17.578,-28.809,-33.691,-27.344,0.000
1673806204.036,-21.973,-23.438,-30.273,-13.672,0.000
1673806204.040,-28.320,-21.973,-24.414,-7.812,0.000
1673806204.044,-27.832,-23.926,-27.344,-23.438,0.000
1673806204.048,-24.902,-25.879,-27.344,-35.645,0.000
1673806204.052,-26.367,-25.879,-21.973,-21.973,0.000
1673806204.056,-18.066,-22.949,-24.902,-13.672,0.000
1673806204.060,-20.996,-23.926,-31.250,-29.297,0.000
1673806204.064,-19.043,-27.832,-31.250,-33.203,0.000
1673806204.068,-22.949,-33.691,-24.902,-21.484,0.000
1673806204.071,-43.945,-39.551,-27.832,-26.367,0.000
1673806204.075,-41.992,-28.320,-34.668,-30.273,0.000
1673806204.079,-31.738,-20.508,-36.621,-26.855,0.000
1673806204.083,-24.414,-24.902,-36.621,-26.855,0.000
1673806204.087,-29.297,-23.926,-36.133,-22.461,0.000
1673806204.091,-18.555,-19.043,-34.668,-27.832,0.000
1673806204.095,-4.395,-21.484,-33.691,-31.250,0.000
1673806204.099,-14.648,-20.020,-22.949,-18.555,0.000
1673806204.103,-36.621,-16.113,-19.531,-8.789,0.000
1673806204.107,-30.273,-27.832,-30.273,-21.484,0.000
1673806204.110,-16.602,-27.832,-29.297,-34.668,0.000
1673806204.114,-20.996,-23.438,-31.250,-32.227,0.000
1673806204.118,-31.738,-25.879,-33.203,-28.320,0.000
1673806204.122,-29.297,-27.832,-33.203,-25.391,0.000
1673806204.126,-15.625,-32.715,-33.203,-24.902,0.000
1673806204.130,-20.508,-28.809,-27.344,-25.879,0.000
1673806204.134,-12.207,-21.484,-32.227,-29.785,0.000
1673806204.138,9.766,-15.137,-32.227,-20.996,0.000
1673806204.142,-21.484,-16.602,-23.926,-20.508,0.000
1673806204.146,-42.480,-16.113,-21.484,-21.484,0.000
1673806204.150,-28.320,-20.508,-26.367,-20.508,0.000
1673806204.153,-19.531,-23.926,-31.250,-16.113,0.000
1673806204.157,-5.371,-15.137,-31.738,-16.602,0.000
1673806204.161,0.488,-19.531,-32.227,-27.344,0.000
1673806204.165,-19.043,-31.738,-30.273,-21.484,0.000
1673806204.169,-39.551,-38.574,-28.809,-14.648,0.000
1673806204.173,-31.250,-33.203,-28.809,-14.648,0.000
1673806204.177,-26.855,-21.484,-24.414,-22.949,0.000
1673806204.181,-24.902,-24.414,-26.367,-29.297,0.000
1673806204.185,-32.715,-30.762,-29.297,-24.414,0.000
1673806204.189,-38.574,-30.762,-23.926,-23.438,0.000
1673806204.193,-22.461,-24.902,-23.438,-20.996,0.000
1673806204.196,-14.648,-16.113,-25.879,-20.996,0.000
1673806204.200,-20.508,-19.531,-23.438,-20.508,0.000
1673806204.204,-28.809,-26.855,-23.438,-23.438,0.000
1673806204.208,-28.320,-24.902,-28.320,-34.668,0.000
1673806204.212,-29.297,-28.320,-25.879,-37.109,0.000
1673806204.216,-32.227,-30.273,-27.344,-25.879,0.000
1673806204.220,-14.648,-26.367,-25.391,-20.020,0.000
1673806204.224,-8.301,-24.414,-22.949,-19.531,0.000
1673806204.228,-14.648,-20.020,-28.320,-20.020,0.000
1673806204.232,-12.207,-19.043,-26.367,-23.926,0.000
1673806204.235,-2.441,-18.066,-23.926,-12.695,0.000
1673806204.239,-14.160,-18.066,-25.879,-8.301,0.000
1673806204.243,-21.973,-22.949,-23.438,-27.344,0.000
1673806204.247,-10.742,-23.438,-25.391,-28.320,0.000
