timestamp,TP9,AF7,AF8,TP10,Right AUX
1673805954.967,-40.039,-32.227,-34.180,-13.672,0.000
1673805954.970,-53.223,-31.738,-34.668,-13.672,0.000
1673805954.974,-52.246,-32.227,-28.809,-14.648,0.000
1673805954.978,-41.504,-39.551,-31.250,-16.113,0.000
1673805954.982,-38.574,-37.109,-29.785,-5.859,0.000
1673805954.986,-46.875,-28.320,-26.367,2.930,0.000
1673805954.990,-39.062,-22.461,-29.785,-1.465,0.000
1673805954.994,-28.809,-27.344,-30.762,-8.301,0.000
1673805954.998,-30.762,-42.969,-28.320,-14.648,0.000
1673805955.002,-34.180,-29.785,-25.391,-14.160,0.000
1673805955.006,-35.645,-23.438,-23.926,-16.602,0.000
1673805955.009,-30.762,-24.414,-28.320,-20.996,0.000
1673805955.013,-33.203,-18.066,-33.203,-20.996,0.000
1673805955.017,-36.621,-23.438,-32.715,-19.043,0.000
1673805955.021,-29.297,-24.902,-25.391,-22.949,0.000
1673805955.025,-26.367,-24.414,-28.320,-36.133,0.000
1673805955.029,-25.391,-24.414,-29.297,-35.645,0.000
1673805955.033,-17.090,-16.602,-26.855,-17.090,0.000
1673805955.037,-11.230,-14.160,-26.367,-8.301,0.000
1673805955.041,-14.160,-15.137,-23.438,-11.230,0.000
1673805955.045,-18.066,-24.414,-27.832,-23.926,0.000
1673805955.049,-15.137,-27.832,-27.832,-31.738,0.000
1673805955.052,-14.160,-22.461,-26.855,-25.391,0.000
1673805955.056,-9.766,-15.137,-29.785,-30.762,0.000
1673805955.060,-9.766,-17.578,-29.297,-41.016,0.000
1673805955.064,-12.695,-15.137,-21.973,-31.250,0.000
1673805955.068,-30.273,-21.484,-21.484,-24.414,0.000
1673805955.072,-46.387,-38.574,-26.367,-22.949,0.000
1673805955.076,-44.922,-40.039,-32.227,-23.926,0.000
1673805955.080,-40.039,-29.785,-29.785,-23.926,0.000
1673805955.084,-37.109,-21.973,-24.414,-9.766,0.000
1673805955.088,-33.691,-29.785,-31.250,-8.789,0.000
1673805955.092,-23.438,-32.227,-38.086,-20.996,0.000
1673805955.095,-18.555,-30.273,-35.645,-21.484,0.000
1673805955.099,-25.879,-31.738,-33.203,-15.137,0.000
1673805955.103,-37.109,-38.574,-35.645,-12.695,0.000
1673805955.107,-37.109,-36.133,-33.691,-26.855,0.000
1673805955.111,-35.645,-33.203,-30.762,-26.367,0.000
1673805955.115,-39.062,-36.621,-26.855,-20.508,0.000
1673805955.119,-37.109,-30.762,-24.902,-19.531,0.000
1673805955.123,-33.203,-32.715,-29.297,-18.555,0.000
1673805955.127,-28.809,-33.691,-25.879,-20.996,0.000
1673805955.131,-33.691,-27.832,-24.414,-17.090,0.000
1673805955.134,-35.645,-28.320,-31.738,-17.090,0.000
1673805955.138,-20.996,-26.367,-33.203,-20.020,0.000
1673805955.142,-19.043,-23.438,-32.227,-25.391,0.000
1673805955.146,-22.949,-29.785,-33.691,-32.227,0.000
1673805955.150,-13.672,-40.527,-38.086,-30.273,0.000
1673805955.154,-12.207,-36.133,-39.551,-24.902,0.000
1673805955.158,-10.254,-24.902,-38.574,-25.391,0.000
1673805955.162,-13.672,-23.438,-35.156,-22.461,0.000
1673805955.166,-27.832,-27.344,-30.273,-15.625,0.000
1673805955.170,-27.832,-30.762,-26.855,-11.719,0.000
1673805955.174,-20.020,-24.414,-24.902,-7.324,0.000
1673805955.177,-18.555,-27.832,-29.297,-17.090,0.000
1673805955.181,-27.344,-33.691,-38.574,-26.855,0.000
1673805955.185,-30.273,-34.180,-36.621,-23.926,0.000
1673805955.189,-34.180,-36.133,-29.297,-18.555,0.000
1673805955.193,-48.828,-36.621,-28.320,-23.438,0.000
1673805955.197,-52.734,-40.527,-32.227,-25.879,0.000
1673805955.201,-57.129,-36.133,-30.273,-11.230,0.000
1673805955.205,-52.734,-32.227,-27.832,-13.184,0.000
1673805955.209,-40.039,-31.738,-34.180,-32.715,0.000
1673805955.213,-34.668,-25.391,-40.527,-36.621,0.000
1673805955.217,-34.668,-22.949,-41.504,-20.996,0.000
1673805955.220,-31.738,-25.879,-37.598,-19.531,0.000
1673805955.224,-26.367,-18.555,-30.762,-29.297,0.000
1673805955.228,-26.855,-23.438,-33.203,-30.273,0.000
1673805955.232,-23.438,-33.691,-30.762,-17.090,0.000
1673805955.236,-23.926,-35.645,-31.738,-13.184,0.000
1673805955.240,-17.578,-28.320,-39.062,-23.926,0.000
1673805955.244,-7.324,-22.461,-35.156,-27.344,0.000
1673805955.248,-15.625,-31.738,-34.180,-31.250,0.000
1673805955.252,-23.438,-33.691,-34.180,-17.090,0.000
1673805955.256,-34.180,-29.785,-37.598,-11.719,0.000
1673805955.260,-40.527,-25.879,-39.551,-25.879,0.000
1673805955.263,-39.062,-30.762,-33.691,-27.344,0.000
1673805955.267,-39.551,-35.156,-33.203,-17.578,0.000
1673805955.271,-35.645,-35.156,-36.133,-15.625,0.000
1673805955.275,-23.926,-29.785,-34.668,-26.367,0.000
1673805955.279,-18.066,-30.762,-29.785,-28.320,0.000
1673805955.283,-26.855,-37.598,-33.203,-16.602,0.000
1673805955.287,-31.738,-34.668,-31.738,-17.578,0.000
1673805955.291,-29.785,-29.297,-28.809,-26.367,0.000
1673805955.295,-26.367,-33.691,-31.250,-30.273,0.000
1673805955.299,-33.691,-35.156,-27.344,-19.043,0.000
1673805955.303,-46.387,-27.832,-30.762,-12.695,0.000
1673805955.306,-36.621,-28.809,-40.039,-19.043,0.000
1673805955.310,-34.668,-32.227,-41.504,-26.855,0.000
1673805955.314,-33.691,-30.273,-30.273,-26.367,0.000
1673805955.318,-33.691,-27.832,-29.297,-20.996,0.000
1673805955.322,-41.504,-28.809,-32.227,-20.020,0.000
1673805955.326,-46.875,-35.645,-30.762,-23.926,0.000
1673805955.330,-45.410,-34.180,-28.320,-30.762,0.000
1673805955.334,-34.180,-29.785,-26.367,-27.344,0.000
1673805955.338,-33.203,-32.715,-25.391,-23.438,0.000
1673805955.342,-43.457,-35.645,-20.508,-26.855,0.000
1673805955.346,-32.227,-37.109,-19.531,-24.902,0.000
1673805955.349,-13.672,-36.621,-21.973,-18.555,0.000
1673805955.353,-17.578,-35.645,-28.320,-16.602,0.000
1673805955.357,-28.320,-31.250,-28.320,-21.973,0.000
1673805955.361,-30.762,-26.855,-30.273,-24.414,0.000
1673805955.365,-28.809,-21.484,-35.156,-17.090,0.000
1673805955.369,-20.020,-20.996,-35.156,-2.441,0.000
1673805955.373,-23.438,-27.344,-34.180,-6.348,0.000
1673805955.377,-33.691,-33.691,-34.180,-29.785,0.000
1673805955.381,-34.180,-32.715,-31.250,-27.344,0.000
1673805955.385,-34.668,-31.738,-33.203,-19.043,0.000
1673805955.388,-28.320,-29.785,-32.227,-22.461,0.000
1673805955.392,-20.020,-29.785,-25.879,-24.414,0.000
1673805955.396,-9.766,-33.691,-29.785,-29.785,0.000
1673805955.400,-16.113,-28.809,-33.691,-29.297,0.000
1673805955.404,-31.738,-27.344,-34.668,-20.020,0.000
1673805955.408,-31.250,-20.020,-39.062,-29.785,0.000
1673805955.412,-23.438,-13.672,-36.133,-24.414,0.000
1673805955.416,-19.531,-16.113,-29.785,-4.883,0.000
1673805955.420,-19.531,-9.766,-31.738,-15.137,0.000
1673805955.424,-17.090,-4.395,-26.855,-12.695,0.000
1673805955.428,-15.625,-7.812,-33.203,-12.695,0.000
1673805955.431,-18.555,-13.672,-41.016,-14.160,0.000
1673805955.435,-3.906,-20.996,-30.273,0.488,0.000
1673805955.439,0.488,-16.113,-22.949,-3.906,0.000
1673805955.443,-15.137,-11.230,-22.949,-12.207,0.000
1673805955.447,-31.738,-20.996,-23.926,1.465,0.000
1673805955.451,-38.086,-35.645,-23.926,8.301,0.000
1673805955.455,-28.320,-23.438,-21.973,1.953,0.000
1673805955.459,-18.555,-12.207,-20.020,-5.371,0.000
1673805955.463,-8.301,-11.719,-20.020,-12.695,0.000
1673805955.467,-12.207,-10.742,-25.879,-12.207,0.000
1673805955.470,-20.996,-15.625,-23.438,-4.883,0.000
1673805955.474,-19.043,-16.602,-20.020,-9.766,0.000
1673805955.478,-1.465,-6.348,-23.926,-8.301,0.000
1673805955.482,12.207,1.953,-25.879,0.488,0.000
1673805955.486,13.672,-2.441,-19.043,3.418,0.000
1673805955.490,5.371,-10.254,-17.578,0.488,0.000
1673805955.494,-6.348,-14.160,-20.996,-9.766,0.000
1673805955.498,-7.324,-14.160,-19.043,1.465,0.000
1673805955.502,-4.883,-5.371,-15.625,15.137,0.000
1673805955.506,-0.488,-3.906,-18.066,12.695,0.000
1673805955.510,-7.812,-19.043,-20.996,-1.465,0.000
1673805955.513,-18.066,-20.996,-20.508,-10.742,0.000
1673805955.517,-20.020,-15.625,-23.926,-5.859,0.000
1673805955.521,-15.625,-15.625,-26.367,-2.441,0.000
1673805955.525,0.000,-19.043,-24.414,-9.277,0.000
1673805955.529,5.859,-23.438,-22.461,-10.742,0.000
1673805955.533,2.930,-27.832,-20.996,1.465,0.000
1673805955.537,-0.488,-24.902,-17.578,6.348,0.000
1673805955.541,-12.695,-17.578,-22.461,-0.977,0.000
1673805955.545,-16.602,-21.484,-19.531,-3.418,0.000
1673805955.549,-22.461,-32.715,-17.578,1.465,0.000
1673805955.553,-35.156,-39.062,-24.414,4.395,0.000
1673805955.556,-32.715,-40.039,-31.250,-5.859,0.000
1673805955.560,-31.738,-31.738,-32.715,-14.648,0.000
1673805955.564,-30.762,-32.227,-30.273,-7.324,0.000
1673805955.568,-22.461,-43.457,-32.227,-6.836,0.000
1673805955.572,-19.531,-37.598,-30.762,-14.160,0.000
1673805955.576,-13.672,-24.414,-23.926,-9.766,0.000
1673805955.580,-15.137,-17.090,-18.555,3.418,0.000
1673805955.584,-33.203,-20.020,-24.414,-0.488,0.000
1673805955.588,-29.785,-20.996,-29.297,-14.160,0.000
1673805955.592,-14.648,-18.066,-27.344,-15.137,0.000
1673805955.596,-10.742,-23.438,-24.414,-10.742,0.000
1673805955.599,-11.230,-21.973,-22.949,-11.230,0.000
1673805955.603,-12.695,-11.230,-25.391,-6.836,0.000
1673805955.607,-24.414,-17.578,-26.855,-13.672,0.000
1673805955.611,-35.645,-21.973,-29.785,-26.367,0.000
1673805955.615,-26.855,-17.090,-33.203,-20.996,0.000
1673805955.619,-22.461,-18.066,-35.645,-15.137,0.000
1673805955.623,-26.855,-13.672,-35.156,-9.277,0.000
1673805955.627,-30.273,-17.578,-28.320,-6.348,0.000
1673805955.631,-21.484,-28.809,-35.645,-18.066,0.000
1673805955.635,-19.043,-30.762,-41.992,-21.973,0.000
1673805955.639,-23.926,-28.809,-40.039,-19.531,0.000
1673805955.642,-24.902,-21.973,-42.969,-22.461,0.000
1673805955.646,-22.461,-16.602,-45.898,-23.926,0.000
1673805955.650,-21.484,-24.414,-41.016,-18.555,0.000
1673805955.654,-29.297,-33.203,-31.738,-12.207,0.000
1673805955.658,-23.926,-24.902,-25.879,-17.090,0.000
1673805955.662,-15.137,-22.949,-24.414,-20.020,0.000
1673805955.666,-21.973,-33.203,-26.367,-16.602,0.000
1673805955.670,-27.344,-41.992,-23.438,-10.254,0.000
1673805955.674,-31.738,-43.457,-25.879,-16.113,0.000
1673805955.678,-33.203,-33.203,-27.832,-19.043,0.000
1673805955.682,-27.344,-23.438,-25.879,-16.113,0.000
1673805955.685,-22.949,-15.625,-23.926,-14.160,0.000
1673805955.689,-17.090,-14.648,-24.414,-9.277,0.000
1673805955.693,-4.883,-14.648,-27.832,-8.301,0.000
1673805955.697,-8.301,-15.137,-29.785,-8.301,0.000
1673805955.701,-13.184,-20.508,-35.156,-9.277,0.000
1673805955.705,-19.531,-28.809,-35.156,-20.508,0.000
1673805955.709,-28.809,-37.598,-33.203,-28.320,0.000
1673805955.713,-18.066,-32.227,-33.203,-20.996,0.000
1673805955.717,-16.602,-26.367,-28.809,-17.090,0.000
1673805955.721,-21.484,-23.438,-26.367,-20.996,0.000
1673805955.725,-20.508,-20.020,-27.832,-24.902,0.000
1673805955.728,-18.066,-28.320,-32.227,-31.738,0.000
1673805955.732,-18.066,-32.227,-30.273,-26.855,0.000
1673805955.736,-10.254,-29.785,-30.762,-20.020,0.000
1673805955.740,0.977,-28.809,-31.738,-21.484,0.000
1673805955.744,1.953,-29.297,-29.297,-32.715,0.000
1673805955.748,-14.648,-37.109,-29.297,-24.414,0.000
1673805955.752,-47.363,-42.969,-31.250,-16.602,0.000
1673805955.756,-51.758,-34.668,-33.203,-19.043,0.000
1673805955.760,-41.992,-27.344,-33.203,-10.254,0.000
1673805955.764,-41.016,-28.809,-28.809,-16.602,0.000
1673805955.767,-35.645,-30.273,-23.438,-12.695,0.000
1673805955.771,-31.738,-25.879,-22.949,-5.371,0.000
1673805955.775,-32.227,-27.344,-23.438,-18.555,0.000
1673805955.779,-35.156,-31.738,-20.020,-22.461,0.000
1673805955.783,-31.250,-29.297,-22.949,-16.113,0.000
1673805955.787,-22.949,-27.832,-24.414,-6.836,0.000
1673805955.791,-17.090,-24.414,-22.949,-8.789,0.000
1673805955.795,-18.555,-29.297,-28.809,-16.602,0.000
1673805955.799,-33.691,-34.668,-36.133,-11.719,0.000
1673805955.803,-37.598,-27.344,-30.762,0.488,0.000
1673805955.807,-30.762,-25.391,-27.344,-2.441,0.000
1673805955.810,-33.691,-26.855,-38.574,-19.531,0.000
1673805955.814,-31.250,-20.508,-36.133,-19.531,0.000
1673805955.818,-32.227,-22.949,-28.809,-16.113,0.000
1673805955.822,-31.738,-41.016,-30.762,-19.531,0.000
1673805955.826,-14.160,-48.828,-28.809,-28.320,0.000
1673805955.830,-13.672,-37.598,-27.832,-26.855,0.000
1673805955.834,-33.203,-29.785,-29.785,-17.578,0.000
1673805955.838,-46.387,-29.297,-29.785,-17.090,0.000
1673805955.842,-44.922,-23.438,-30.762,-22.949,0.000
1673805955.846,-29.297,-23.438,-38.086,-26.855,0.000
1673805955.849,-19.531,-26.367,-36.133,-9.766,0.000
1673805955.853,-34.668,-27.832,-31.250,-0.977,0.000
1673805955.857,-43.945,-32.715,-26.367,-10.742,0.000
1673805955.861,-34.180,-34.668,-27.344,-18.555,0.000
1673805955.865,-30.762,-33.691,-34.668,-20.996,0.000
1673805955.869,-34.668,-32.227,-38.086,-18.066,0.000
1673805955.873,-30.273,-33.691,-34.180,-15.137,0.000
1673805955.877,-29.297,-31.738,-30.762,-14.648,0.000
1673805955.881,-26.367,-28.809,-33.691,-15.137,0.000
1673805955.885,-27.344,-27.832,-34.668,-12.695,0.000
1673805955.889,-41.016,-30.273,-33.691,-17.578,0.000
1673805955.892,-36.621,-26.855,-27.344,-18.066,0.000
1673805955.896,-23.438,-28.809,-24.902,-8.301,0.000
1673805955.900,-30.762,-44.434,-29.785,1.953,0.000
1673805955.904,-27.832,-36.621,-30.273,0.000,0.000
1673805955.908,-15.625,-23.438,-26.367,-20.996,0.000
1673805955.912,-20.508,-27.832,-26.367,-30.762,0.000
1673805955.916,-22.949,-31.250,-30.273,-29.785,0.000
1673805955.920,-14.648,-19.043,-26.855,-26.855,0.000
1673805955.924,-13.672,-10.742,-23.926,-25.391,0.000
1673805955.928,-16.113,-16.602,-29.785,-26.855,0.000
1673805955.932,-11.719,-21.484,-28.320,-17.578,0.000
1673805955.935,-10.742,-20.508,-20.020,-18.066,0.000
1673805955.939,-24.902,-22.949,-26.855,-23.438,0.000
1673805955.943,-27.344,-34.180,-36.133,-31.250,0.000
1673805955.947,-20.508,-34.180,-36.133,-35.156,0.000
1673805955.951,-21.484,-26.367,-38.574,-33.203,0.000
1673805955.955,-21.973,-28.809,-43.945,-35.645,0.000
1673805955.959,-25.391,-32.227,-40.039,-43.457,0.000
1673805955.963,-31.738,-35.645,-37.109,-41.992,0.000
1673805955.967,-41.992,-41.016,-37.598,-22.461,0.000
1673805955.971,-46.387,-44.434,-28.809,-16.602,0.000
1673805955.975,-45.410,-36.133,-33.691,-29.785,0.000
1673805955.978,-46.875,-27.832,-42.969,-39.062,0.000
1673805955.982,-41.504,-29.297,-45.898,-25.391,0.000
1673805955.986,-34.180,-24.902,-47.363,-12.695,0.000
1673805955.990,-26.367,-30.273,-44.434,-18.555,0.000
1673805955.994,-26.855,-35.645,-37.598,-20.508,0.000
1673805955.998,-28.809,-33.203,-36.621,-16.602,0.000
1673805956.002,-16.113,-20.508,-35.645,-10.254,0.000
1673805956.006,-22.461,-28.320,-35.156,-7.812,0.000
1673805956.010,-23.926,-36.133,-37.109,-14.160,0.000
1673805956.014,-15.137,-20.996,-34.668,-15.625,0.000
1673805956.018,-19.043,-20.996,-35.645,-11.230,0.000
1673805956.021,-18.555,-25.391,-38.574,-10.254,0.000
1673805956.025,-23.438,-27.344,-34.668,-20.508,0.000
1673805956.029,-18.555,-25.391,-29.785,-16.113,0.000
1673805956.033,-25.391,-25.391,-37.598,-7.812,0.000
1673805956.037,-39.551,-28.809,-37.598,-16.602,0.000
1673805956.041,-32.715,-29.785,-29.297,-14.648,0.000
1673805956.045,-26.855,-24.414,-31.250,-9.277,0.000
1673805956.049,-23.438,-32.715,-27.832,-8.301,0.000
1673805956.053,-24.902,-44.434,-31.250,-3.906,0.000
1673805956.057,-28.320,-28.320,-36.133,-3.906,0.000
1673805956.061,-29.785,-18.066,-30.762,-19.043,0.000
1673805956.064,-25.879,-22.949,-24.902,-22.461,0.000
1673805956.068,-27.832,-26.855,-28.809,-11.719,0.000
1673805956.072,-30.273,-31.250,-27.344,-9.277,0.000
1673805956.076,-25.391,-32.227,-21.973,-10.254,0.000
1673805956.080,-36.133,-29.785,-31.738,-9.277,0.000
1673805956.084,-36.621,-34.668,-41.016,-10.742,0.000
1673805956.088,-38.574,-37.598,-34.180,-11.719,0.000
1673805956.092,-41.992,-30.762,-25.879,-17.090,0.000
1673805956.096,-31.738,-36.621,-30.762,-31.738,0.000
1673805956.100,-26.855,-35.156,-30.762,-27.344,0.000
1673805956.103,-20.020,-14.648,-25.391,-8.789,0.000
1673805956.107,-19.043,-15.625,-27.344,-8.789,0.000
1673805956.111,-22.949,-25.391,-28.809,-22.461,0.000
1673805956.115,-24.902,-24.902,-30.762,-21.973,0.000
1673805956.119,-18.066,-26.855,-22.461,-15.137,0.000
1673805956.123,-15.137,-27.344,-21.484,-23.438,0.000
1673805956.127,-16.113,-25.391,-29.297,-27.832,0.000
1673805956.131,-14.648,-22.949,-23.438,-20.996,0.000
1673805956.135,-12.695,-16.602,-25.879,-9.277,0.000
1673805956.139,-18.555,-15.625,-28.809,-3.418,0.000
1673805956.143,-14.160,-19.531,-20.020,-8.301,0.000
1673805956.146,-3.418,-18.066,-19.043,-16.113,0.000
1673805956.150,-4.883,-24.902,-20.996,-11.230,0.000
1673805956.154,-3.906,-26.367,-18.066,-6.836,0.000
1673805956.158,-7.324,-17.090,-17.578,-18.555,0.000
1673805956.162,-20.508,-13.672,-14.648,-18.066,0.000
1673805956.166,-26.855,-18.555,-19.043,-8.789,0.000
1673805956.170,-21.973,-19.531,-22.461,-8.789,0.000
1673805956.174,-14.648,-11.719,-19.043,-0.977,0.000
1673805956.178,-11.230,-14.648,-16.602,0.977,0.000
1673805956.182,-12.695,-20.020,-16.602,-7.812,0.000
1673805956.186,-8.789,-22.461,-19.531,-0.977,0.000
1673805956.189,0.000,-25.879,-14.160,7.812,0.000
1673805956.193,8.301,-15.137,-12.207,0.000,0.000
1673805956.197,8.789,-9.766,-12.207,-3.418,0.000
1673805956.201,3.418,-20.020,-14.648,-9.277,0.000
1673805956.205,6.836,-14.160,-15.625,-5.859,0.000
1673805956.209,16.602,-5.859,-7.324,5.859,0.000
1673805956.213,1.953,-4.395,-5.859,4.395,0.000
1673805956.217,-11.719,-9.766,-7.812,-1.953,0.000
1673805956.221,-19.531,-14.648,-7.812,2.930,0.000
1673805956.225,-20.020,-15.137,-11.230,-2.930,0.000
1673805956.228,-8.301,-18.066,-16.113,-17.090,0.000
1673805956.232,-13.184,-18.066,-20.020,-20.996,0.000
1673805956.236,-13.184,-22.461,-21.484,-13.672,0.000
1673805956.240,-12.695,-15.625,-23.438,-11.230,0.000
1673805956.244,-20.508,-10.742,-24.414,-12.207,0.000
1673805956.248,-12.695,-16.602,-22.461,-5.859,0.000
1673805956.252,-24.414,-19.043,-19.531,-4.395,0.000
1673805956.256,-41.992,-23.926,-19.043,-8.789,0.000
1673805956.260,-31.738,-21.484,-17.578,-23.438,0.000
1673805956.264,-13.672,-14.648,-19.043,-21.973,0.000
1673805956.268,-16.602,-21.484,-23.926,-7.812,0.000
1673805956.271,-29.785,-26.367,-23.438,-7.324,0.000
1673805956.275,-33.203,-26.855,-29.297,-13.184,0.000
1673805956.279,-25.879,-22.949,-34.668,-12.207,0.000
1673805956.283,-27.344,-23.438,-31.250,-19.531,0.000
1673805956.287,-37.109,-28.809,-25.879,-20.996,0.000
1673805956.291,-36.621,-26.855,-24.414,-17.578,0.000
1673805956.295,-30.273,-28.320,-28.320,-20.996,0.000
1673805956.299,-31.738,-27.832,-29.297,-18.555,0.000
1673805956.303,-37.598,-27.832,-29.297,-21.484,0.000
1673805956.307,-34.668,-28.320,-31.250,-28.809,0.000
1673805956.311,-29.785,-29.297,-28.809,-24.414,0.000
1673805956.314,-19.531,-27.344,-29.785,-4.395,0.000
1673805956.318,-27.344,-35.645,-32.715,-2.441,0.000
1673805956.322,-35.156,-36.621,-36.621,-10.254,0.000
1673805956.326,-26.855,-19.531,-37.598,-20.508,0.000
1673805956.330,-16.602,-13.184,-37.598,-20.996,0.000
1673805956.334,-24.414,-20.996,-40.527,-14.160,0.000
1673805956.338,-38.574,-32.227,-40.527,-27.344,0.000
1673805956.342,-30.273,-33.203,-44.434,-28.809,0.000
1673805956.346,-27.344,-30.762,-56.152,-32.227,0.000
1673805956.350,-30.273,-39.062,-52.734,-31.738,0.000
1673805956.354,-33.691,-38.086,-41.016,-26.855,0.000
1673805956.357,-25.391,-20.996,-30.762,-19.043,0.000
1673805956.361,-9.277,-15.137,-26.367,-20.020,0.000
1673805956.365,-12.695,-23.438,-30.762,-32.227,0.000
1673805956.369,-26.855,-36.133,-29.785,-24.414,0.000
1673805956.373,-33.691,-32.715,-33.203,-23.926,0.000
1673805956.377,-29.297,-23.926,-35.156,-31.250,0.000
1673805956.381,-29.297,-34.668,-37.598,-28.320,0.000
1673805956.385,-20.508,-40.527,-36.621,-18.066,0.000
1673805956.389,-8.301,-30.273,-37.109,-8.301,0.000
1673805956.393,-11.719,-25.391,-35.156,-15.625,0.000
1673805956.396,-14.648,-25.879,-24.414,-21.484,0.000
1673805956.400,-14.648,-27.832,-34.180,-14.648,0.000
1673805956.404,-26.367,-31.250,-36.621,-6.348,0.000
1673805956.408,-38.086,-30.273,-31.738,-18.066,0.000
1673805956.412,-39.062,-20.508,-39.551,-35.156,0.000
1673805956.416,-32.227,-19.531,-43.457,-20.996,0.000
1673805956.420,-32.227,-25.391,-40.039,-14.160,0.000
1673805956.424,-27.832,-22.461,-36.133,-23.926,0.000
1673805956.428,-14.648,-20.020,-33.691,-28.320,0.000
1673805956.432,-9.766,-20.020,-32.715,-15.137,0.000
1673805956.436,-15.137,-20.996,-34.180,-10.254,0.000
1673805956.439,-21.973,-20.996,-37.109,-18.066,0.000
1673805956.443,-13.184,-15.137,-38.086,-18.066,0.000
1673805956.447,-0.488,-13.672,-37.598,-8.789,0.000
1673805956.451,-5.371,-24.414,-34.668,-7.324,0.000
1673805956.455,-25.391,-29.785,-29.297,-18.555,0.000
1673805956.459,-28.320,-26.367,-26.855,-20.996,0.000
1673805956.463,-28.320,-26.855,-26.855,-16.113,0.000
1673805956.467,-45.410,-20.020,-27.344,-24.414,0.000
1673805956.471,-46.387,-21.484,-28.809,-29.785,0.000
1673805956.475,-22.949,-20.508,-29.785,-19.043,0.000
1673805956.479,-20.020,-16.113,-29.785,-22.949,0.000
1673805956.482,-25.879,-21.973,-29.297,-21.973,0.000
1673805956.486,-14.648,-31.250,-23.926,-10.742,0.000
1673805956.490,-15.625,-33.691,-23.926,-18.066,0.000
1673805956.494,-28.320,-32.227,-21.973,-20.996,0.000
1673805956.498,-32.227,-28.320,-26.855,-14.648,0.000
1673805956.502,-35.156,-24.414,-34.180,-18.066,0.000
1673805956.506,-39.062,-26.855,-27.344,-28.809,0.000
1673805956.510,-37.109,-25.391,-27.832,-34.668,0.000
1673805956.514,-22.949,-32.715,-31.738,-37.598,0.000
1673805956.518,-21.973,-43.945,-32.227,-36.621,0.000
1673805956.522,-21.973,-34.180,-31.738,-18.066,0.000
1673805956.525,-14.648,-29.785,-29.785,-16.602,0.000
1673805956.529,-32.227,-28.320,-25.391,-25.391,0.000
1673805956.533,-41.016,-31.250,-23.438,-14.160,0.000
1673805956.537,-22.461,-31.738,-24.902,-5.859,0.000
1673805956.541,-21.484,-32.227,-28.809,-10.742,0.000
1673805956.545,-31.250,-40.039,-29.297,-20.508,0.000
1673805956.549,-40.039,-33.691,-25.391,-16.113,0.000
1673805956.553,-31.738,-26.367,-26.367,0.977,0.000
1673805956.557,-21.484,-28.320,-25.391,8.789,0.000
1673805956.561,-28.320,-29.785,-26.367,-17.090,0.000
1673805956.564,-28.809,-26.367,-28.320,-20.508,0.000
1673805956.568,-26.855,-30.762,-26.855,-16.113,0.000
1673805956.572,-23.438,-32.227,-27.344,-20.508,0.000
1673805956.576,-20.020,-39.551,-35.156,-20.508,0.000
1673805956.580,-27.344,-43.457,-37.598,-20.508,0.000
1673805956.584,-19.531,-36.621,-29.785,-2.930,0.000
1673805956.588,-8.789,-37.109,-28.809,-3.906,0.000
1673805956.592,-6.348,-27.344,-33.691,-22.461,0.000
1673805956.596,-4.883,-20.020,-39.551,-26.367,0.000
1673805956.600,-25.879,-22.461,-43.457,-19.531,0.000
1673805956.604,-32.715,-28.320,-39.062,-9.766,0.000
1673805956.607,-25.391,-27.832,-32.227,-16.113,0.000
1673805956.611,-23.926,-25.391,-29.785,-23.438,0.000
1673805956.615,-18.555,-33.203,-33.203,-11.230,0.000
1673805956.619,-13.672,-28.809,-37.598,-11.230,0.000
1673805956.623,-13.672,-25.391,-41.504,-13.184,0.000
1673805956.627,-17.090,-31.738,-36.133,-16.113,0.000
1673805956.631,-25.391,-31.250,-30.273,-10.254,0.000
1673805956.635,-27.832,-36.133,-36.621,-2.441,0.000
1673805956.639,-30.762,-37.109,-38.574,-4.883,0.000
1673805956.643,-26.855,-28.809,-34.180,-9.766,0.000
1673805956.647,-25.391,-38.086,-30.273,-9.277,0.000
1673805956.650,-32.227,-40.527,-34.180,-12.207,0.000
1673805956.654,-21.484,-23.438,-35.645,-18.066,0.000
1673805956.658,-12.207,-20.020,-28.320,-16.602,0.000
1673805956.662,-25.879,-33.691,-26.855,-22.461,0.000
1673805956.666,-36.621,-38.086,-34.668,-18.555,0.000
1673805956.670,-24.902,-30.762,-37.598,-12.695,0.000
1673805956.674,-22.461,-30.273,-34.668,-18.066,0.000
1673805956.678,-32.227,-34.668,-38.086,-23.926,0.000
1673805956.682,-38.574,-37.109,-35.645,-21.484,0.000
1673805956.686,-21.484,-29.785,-22.949,-9.277,0.000
1673805956.690,-9.766,-20.020,-21.484,-11.719,0.000
1673805956.693,-22.949,-27.344,-28.809,-19.531,0.000
1673805956.697,-14.648,-26.855,-28.320,-14.160,0.000
1673805956.701,-2.441,-13.672,-26.367,-4.395,0.000
1673805956.705,-6.348,-16.113,-32.715,-7.324,0.000
1673805956.709,-10.742,-21.484,-29.785,-11.230,0.000
1673805956.713,-24.414,-25.391,-23.438,-15.137,0.000
1673805956.717,-17.090,-28.320,-29.297,-12.207,0.000
1673805956.721,-19.531,-32.715,-31.250,-5.859,0.000
1673805956.725,-26.855,-25.879,-26.367,-8.301,0.000
1673805956.729,-32.227,-18.066,-25.879,-21.484,0.000
1673805956.733,-32.227,-20.020,-27.832,-21.973,0.000
1673805956.736,-21.484,-23.926,-32.227,-20.020,0.000
1673805956.740,-30.273,-31.250,-31.250,-30.762,0.000
1673805956.744,-36.621,-30.762,-27.344,-37.109,0.000
1673805956.748,-24.902,-23.926,-25.391,-20.996,0.000
1673805956.752,-27.832,-32.227,-25.879,0.000,0.000
1673805956.756,-40.039,-41.504,-27.832,-15.625,0.000
1673805956.760,-35.156,-34.180,-21.484,-27.344,0.000
1673805956.764,-28.320,-43.945,-22.461,-24.414,0.000
1673805956.768,-30.762,-47.363,-23.438,-22.461,0.000
1673805956.772,-28.320,-34.180,-25.879,-25.879,0.000
1673805956.775,-19.531,-30.273,-28.809,-19.531,0.000
1673805956.779,-5.859,-31.250,-24.414,-23.438,0.000
1673805956.783,-21.484,-31.250,-25.391,-16.113,0.000
1673805956.787,-39.062,-33.691,-32.715,-11.719,0.000
1673805956.791,-40.039,-34.668,-40.527,-28.320,0.000
1673805956.795,-29.785,-28.809,-37.109,-22.461,0.000
1673805956.799,-33.203,-33.691,-35.645,-12.695,0.000
1673805956.803,-46.387,-37.598,-38.574,-11.230,0.000
1673805956.807,-28.809,-28.320,-30.273,-9.766,0.000
1673805956.811,-5.371,-22.949,-20.996,-18.555,0.000
1673805956.815,1.465,-20.996,-24.902,-24.902,0.000
1673805956.819,-9.766,-27.344,-29.785,-24.414,0.000
1673805956.822,-15.625,-21.484,-31.250,-26.367,0.000
1673805956.826,-24.902,-18.066,-33.691,-28.320,0.000
1673805956.830,-28.809,-24.902,-33.203,-27.832,0.000
1673805956.834,-22.949,-13.672,-28.809,-12.695,0.000
1673805956.838,-30.273,-16.113,-27.832,-14.648,0.000
1673805956.842,-31.738,-22.949,-33.691,-28.809,0.000
1673805956.846,-29.785,-24.902,-35.645,-28.320,0.000
1673805956.850,-32.227,-33.203,-31.738,-20.020,0.000
1673805956.854,-37.109,-24.902,-31.738,-20.508,0.000
1673805956.858,-41.016,-24.902,-34.180,-27.832,0.000
1673805956.861,-33.691,-33.203,-32.715,-35.645,0.000
1673805956.865,-26.855,-32.227,-28.320,-27.832,0.000
1673805956.869,-33.203,-39.551,-32.715,-12.695,0.000
1673805956.873,-34.180,-32.715,-37.109,-16.602,0.000
1673805956.877,-22.949,-25.879,-31.250,-20.020,0.000
1673805956.881,-16.113,-24.902,-24.414,-13.184,0.000
1673805956.885,-18.066,-21.484,-20.508,-4.883,0.000
1673805956.889,-28.809,-34.668,-29.785,-13.672,0.000
1673805956.893,-26.855,-37.109,-41.016,-27.344,0.000
1673805956.897,-14.648,-23.438,-41.992,-22.949,0.000
1673805956.901,-19.043,-24.902,-34.180,-15.137,0.000
1673805956.904,-34.180,-25.391,-27.832,-7.812,0.000
1673805956.908,-42.480,-17.578,-23.438,-9.766,0.000
1673805956.912,-27.344,-16.602,-20.020,-19.531,0.000
1673805956.916,-16.602,-16.602,-24.902,-13.672,0.000
1673805956.920,-26.367,-19.043,-28.809,-15.625,0.000
1673805956.924,-30.762,-33.203,-27.832,-23.438,0.000
1673805956.928,-17.090,-38.086,-22.949,-21.484,0.000
1673805956.932,-11.719,-30.273,-23.926,-18.555,0.000
1673805956.936,-21.973,-22.949,-30.762,-17.578,0.000
1673805956.940,-21.973,-6.348,-27.832,-14.160,0.000
1673805956.944,-17.578,-9.766,-29.297,-18.555,0.000
1673805956.947,-15.625,-23.438,-21.973,-14.160,0.000
1673805956.951,-7.324,-19.043,-11.230,-6.836,0.000
1673805956.955,-12.695,-15.625,-16.602,-3.906,0.000
1673805956.959,-27.344,-14.160,-17.578,-7.812,0.000
1673805956.963,-25.879,-20.020,-21.484,-12.207,0.000
1673805956.967,-17.578,-26.367,-23.438,-6.348,0.000
1673805956.971,-10.254,-25.391,-11.230,5.859,0.000
1673805956.975,-4.395,-19.043,-4.395,3.906,0.000
1673805956.979,-5.859,-14.648,-12.695,-11.230,0.000
1673805956.983,-4.883,-12.695,-16.602,-5.371,0.000
1673805956.986,-10.742,-12.695,-13.672,-2.930,0.000
1673805956.990,-20.020,-11.230,-19.043,-10.742,0.000
1673805956.994,-18.066,-22.461,-20.020,-4.395,0.000
1673805956.998,-25.391,-30.273,-19.531,-6.348,0.000
1673805957.002,-20.996,-20.020,-19.531,-2.930,0.000
1673805957.006,-16.113,-15.137,-22.461,-4.883,0.000
1673805957.010,-20.508,-15.137,-25.391,-19.531,0.000
1673805957.014,-6.348,-9.277,-12.207,-15.137,0.000
1673805957.018,2.930,-6.348,-2.930,4.395,0.000
1673805957.022,-12.207,-8.301,-8.301,5.859,0.000
1673805957.026,-19.043,-11.719,-20.020,-8.301,0.000
1673805957.029,-14.648,-18.555,-23.926,-10.254,0.000
1673805957.033,-12.695,-16.113,-16.113,-4.883,0.000
1673805957.037,-11.230,-18.066,-18.066,-4.395,0.000
1673805957.041,-16.602,-9.766,-20.996,-10.254,0.000
1673805957.045,-24.414,-8.789,-18.066,-14.160,0.000
1673805957.049,-20.020,-14.160,-21.484,-8.301,0.000
1673805957.053,-17.090,-19.531,-22.461,-5.371,0.000
1673805957.057,-16.113,-22.461,-16.113,-8.301,0.000
1673805957.061,-20.508,-17.578,-14.648,-13.672,0.000
1673805957.065,-24.902,-15.625,-13.184,-7.324,0.000
1673805957.069,-21.484,-12.207,-19.043,1.465,0.000
1673805957.072,-15.625,-16.113,-27.832,-8.301,0.000
1673805957.076,-8.301,-23.438,-19.531,-11.719,0.000
1673805957.080,-6.348,-19.531,-19.043,-2.930,0.000
1673805957.084,-9.766,-13.672,-23.438,-2.441,0.000
1673805957.088,-20.508,-22.949,-25.879,-6.836,0.000
1673805957.092,-23.438,-22.461,-27.344,-9.766,0.000
1673805957.096,-6.836,-20.508,-26.367,-17.090,0.000
1673805957.100,-7.324,-22.949,-32.227,-16.113,0.000
1673805957.104,-24.902,-20.996,-35.645,-21.484,0.000
1673805957.108,-18.555,-16.602,-27.344,-16.113,0.000
1673805957.112,-16.113,-18.555,-26.367,-19.531,0.000
1673805957.115,-30.273,-28.809,-35.156,-30.273,0.000
1673805957.119,-26.855,-28.320,-37.109,-17.578,0.000
1673805957.123,-13.184,-18.555,-33.203,-18.066,0.000
1673805957.127,-7.324,-20.508,-32.227,-20.020,0.000
1673805957.131,-7.324,-28.809,-37.109,-17.578,0.000
1673805957.135,-13.184,-30.762,-35.645,-10.254,0.000
1673805957.139,-25.391,-34.180,-32.227,-8.301,0.000
1673805957.143,-20.508,-30.762,-21.484,-19.531,0.000
1673805957.147,-23.438,-23.438,-18.066,-17.578,0.000
1673805957.151,-31.250,-32.227,-17.578,-12.207,0.000
1673805957.154,-27.344,-37.598,-18.555,-4.395,0.000
1673805957.158,-23.438,-22.949,-29.297,-11.230,0.000
1673805957.162,-20.996,-24.902,-25.391,-19.531,0.000
1673805957.166,-24.902,-32.715,-25.391,-13.184,0.000
1673805957.170,-32.715,-30.762,-31.250,-13.184,0.000
1673805957.174,-37.598,-27.832,-26.855,-12.207,0.000
1673805957.178,-35.645,-20.508,-30.273,-19.043,0.000
1673805957.182,-23.438,-19.531,-32.715,-20.996,0.000
1673805957.186,-14.160,-26.855,-28.320,-14.648,0.000
1673805957.190,-23.438,-22.949,-29.785,-15.625,0.000
1673805957.194,-34.180,-21.973,-39.551,-15.625,0.000
1673805957.197,-37.598,-23.438,-36.621,-10.742,0.000
1673805957.201,-41.016,-27.832,-22.949,-1.953,0.000
1673805957.205,-43.945,-39.551,-27.832,-14.160,0.000
1673805957.209,-32.227,-34.180,-34.668,-24.414,0.000
1673805957.213,-25.391,-26.855,-35.156,-16.602,0.000
1673805957.217,-41.504,-42.480,-33.691,-9.766,0.000
1673805957.221,-49.805,-41.016,-34.668,-2.930,0.000
1673805957.225,-44.434,-21.973,-33.691,-9.766,0.000
1673805957.229,-37.109,-27.344,-38.086,-15.625,0.000
1673805957.233,-28.809,-30.273,-40.527,-10.254,0.000
1673805957.237,-25.879,-23.438,-25.391,-9.277,0.000
1673805957.240,-42.969,-30.762,-19.043,-6.348,0.000
1673805957.244,-56.641,-31.250,-19.043,1.465,0.000
1673805957.248,-51.270,-37.598,-26.855,-2.930,0.000
1673805957.252,-54.688,-41.992,-32.715,-7.812,0.000
1673805957.256,-50.293,-22.949,-22.461,0.488,0.000
1673805957.260,-41.504,-24.414,-20.508,-5.859,0.000
1673805957.264,-40.527,-36.621,-31.250,-13.672,0.000
1673805957.268,-41.504,-26.367,-35.156,-4.395,0.000
1673805957.272,-50.781,-15.137,-17.578,-1.465,0.000
1673805957.276,-60.547,-20.508,-9.766,-14.648,0.000
1673805957.280,-65.430,-23.926,-17.090,-20.020,0.000
1673805957.283,-54.199,-28.320,-22.461,-13.672,0.000
1673805957.287,-45.410,-28.320,-22.461,-8.301,0.000
1673805957.291,-44.434,-13.672,-23.438,-12.695,0.000
1673805957.295,-54.688,-17.090,-28.320,-32.227,0.000
1673805957.299,-67.383,-21.484,-30.762,-30.762,0.000
1673805957.303,-66.406,-17.578,-24.414,-19.531,0.000
1673805957.307,-67.871,-22.461,-18.066,-21.484,0.000
1673805957.311,-73.730,-27.344,-25.391,-24.902,0.000
1673805957.315,-70.801,-26.367,-27.832,-25.879,0.000
1673805957.319,-62.500,-23.438,-21.484,-23.438,0.000
1673805957.322,-67.871,-25.879,-22.461,-14.648,0.000
1673805957.326,-75.684,-32.715,-24.414,-14.160,0.000
1673805957.330,-75.684,-34.180,-32.715,-21.484,0.000
1673805957.334,-71.289,-32.715,-31.738,-11.230,0.000
1673805957.338,-72.266,-31.250,-27.344,-5.859,0.000
1673805957.342,-62.500,-27.344,-31.738,-13.184,0.000
1673805957.346,-52.734,-35.156,-29.297,-7.812,0.000
1673805957.350,-57.617,-36.621,-35.645,-1.953,0.000
1673805957.354,-62.012,-25.879,-42.969,-7.812,0.000
1673805957.358,-65.430,-26.367,-31.250,-13.672,0.000
1673805957.362,-62.012,-23.926,-25.879,-14.160,0.000
1673805957.365,-45.898,-19.531,-25.391,-18.066,0.000
1673805957.369,-45.898,-26.367,-30.273,-13.184,0.000
1673805957.373,-54.688,-32.715,-29.297,-8.789,0.000
1673805957.377,-50.293,-21.484,-24.902,-12.207,0.000
1673805957.381,-47.852,-22.461,-26.367,-4.395,0.000
1673805957.385,-51.270,-32.715,-27.344,-7.324,0.000
1673805957.389,-48.340,-27.832,-26.855,-17.090,0.000
1673805957.393,-32.715,-20.508,-29.297,-17.090,0.000
1673805957.397,-32.715,-27.344,-34.180,-20.508,0.000
1673805957.401,-45.898,-34.668,-33.691,-30.273,0.000
1673805957.405,-44.434,-24.902,-33.203,-26.367,0.000
1673805957.408,-36.133,-20.996,-29.785,-14.160,0.000
1673805957.412,-30.762,-26.367,-30.762,-13.672,0.000
1673805957.416,-28.320,-31.738,-35.156,-18.555,0.000
1673805957.420,-29.297,-22.949,-27.832,-17.578,0.000
1673805957.424,-34.668,-27.344,-27.832,-13.672,0.000
1673805957.428,-39.551,-30.762,-31.250,-18.555,0.000
1673805957.432,-40.527,-16.602,-27.832,-16.113,0.000
1673805957.436,-47.363,-18.066,-28.320,-11.230,0.000
1673805957.440,-51.270,-20.996,-34.668,-21.973,0.000
1673805957.444,-47.852,-24.414,-41.504,-26.855,0.000
1673805957.447,-41.992,-32.227,-31.738,-17.578,0.000
1673805957.451,-31.738,-36.133,-16.602,-8.301,0.000
1673805957.455,-31.738,-36.133,-16.602,-8.301,0.000
1673805957.459,-44.922,-29.297,-22.949,-11.230,0.000
1673805957.463,-49.805,-24.414,-20.996,-7.812,0.000
1673805957.467,-47.363,-30.273,-19.043,-4.883,0.000
1673805957.471,-42.969,-34.180,-26.367,-4.883,0.000
1673805957.475,-38.086,-21.973,-33.203,-14.648,0.000
1673805957.479,-41.992,-19.531,-28.320,-26.367,0.000
1673805957.483,-42.480,-27.344,-24.902,-18.066,0.000
1673805957.487,-34.180,-25.391,-23.438,-8.789,0.000
1673805957.490,-31.250,-23.438,-25.391,-23.926,0.000
1673805957.494,-17.090,-19.531,-31.738,-25.879,0.000
1673805957.498,-9.277,-21.484,-28.320,-17.578,0.000
1673805957.502,-22.949,-34.668,-25.879,-10.254,0.000
1673805957.506,-20.020,-33.203,-31.738,-8.789,0.000
1673805957.510,-24.902,-20.996,-28.809,-21.484,0.000
1673805957.514,-41.016,-23.926,-31.738,-22.461,0.000
1673805957.518,-41.016,-31.250,-34.180,-13.184,0.000
1673805957.522,-42.480,-27.832,-32.715,-10.254,0.000
1673805957.526,-40.039,-23.438,-34.180,-24.902,0.000
1673805957.530,-26.855,-23.926,-27.344,-28.809,0.000
1673805957.533,-26.855,-27.832,-31.250,-29.297,0.000
1673805957.537,-29.297,-23.438,-37.109,-34.668,0.000
1673805957.541,-23.926,-24.902,-34.668,-31.738,0.000
1673805957.545,-28.320,-27.344,-34.668,-30.273,0.000
1673805957.549,-32.715,-26.855,-33.691,-17.578,0.000
1673805957.553,-27.344,-33.203,-31.250,-3.418,0.000
1673805957.557,-37.598,-32.715,-31.250,-1.953,0.000
1673805957.561,-42.969,-33.203,-40.527,-10.254,0.000
1673805957.565,-33.203,-32.715,-44.434,-12.695,0.000
1673805957.569,-23.438,-30.273,-32.715,0.000,0.000
1673805957.573,-17.090,-28.809,-22.949,4.883,0.000
1673805957.576,-22.949,-29.297,-23.438,0.000,0.000
1673805957.580,-32.715,-35.156,-30.273,3.906,0.000
1673805957.584,-34.180,-35.156,-30.273,9.277,0.000
1673805957.588,-32.227,-35.645,-33.203,2.441,0.000
1673805957.592,-33.203,-43.457,-31.738,-8.789,0.000
1673805957.596,-33.203,-51.758,-27.832,-1.953,0.000
1673805957.600,-23.438,-36.621,-30.273,3.418,0.000
1673805957.604,-13.184,-19.043,-30.273,-5.371,0.000
1673805957.608,-20.020,-20.020,-31.250,-19.043,0.000
1673805957.612,-28.320,-21.484,-30.762,-19.043,0.000
1673805957.616,-23.926,-20.996,-29.297,-7.324,0.000
1673805957.619,-16.602,-28.320,-29.297,-0.977,0.000
1673805957.623,-28.320,-25.391,-23.926,-10.254,0.000
1673805957.627,-36.621,-28.320,-23.438,-30.273,0.000
1673805957.631,-36.133,-28.809,-26.367,-31.250,0.000
1673805957.635,-38.086,-20.020,-26.367,-18.555,0.000
1673805957.639,-47.852,-21.973,-26.855,-18.066,0.000
1673805957.643,-62.988,-31.250,-28.320,-27.832,0.000
1673805957.647,-65.430,-42.969,-30.273,-22.461,0.000
1673805957.651,-68.359,-37.109,-26.855,-13.672,0.000
1673805957.655,-73.730,-33.691,-29.297,-22.461,0.000
1673805957.658,-71.289,-43.457,-29.297,-23.926,0.000
1673805957.662,-73.730,-34.180,-26.367,-15.137,0.000
1673805957.666,-81.543,-21.484,-27.832,-6.348,0.000
1673805957.670,-93.750,-24.414,-23.926,-12.695,0.000
1673805957.674,-100.586,-26.855,-23.926,-18.066,0.000
1673805957.678,-97.656,-26.855,-26.367,-12.207,0.000
1673805957.682,-100.098,-32.227,-27.344,-13.672,0.000
1673805957.686,-102.539,-32.227,-26.855,-21.484,0.000
1673805957.690,-91.309,-22.461,-22.949,-15.137,0.000
1673805957.694,-95.215,-18.555,-24.902,-7.812,0.000
1673805957.698,-98.633,-25.879,-23.926,-10.254,0.000
1673805957.701,-90.332,-31.250,-18.066,-12.695,0.000
1673805957.705,-92.285,-22.949,-18.066,-14.160,0.000
1673805957.709,-85.938,-13.672,-19.043,-17.578,0.000
1673805957.713,-87.402,-18.066,-24.414,-23.438,0.000
1673805957.717,-99.121,-29.297,-26.855,-24.414,0.000
1673805957.721,-92.773,-26.367,-21.484,-16.113,0.000
1673805957.725,-81.543,-19.043,-25.879,-16.602,0.000
1673805957.729,-73.730,-17.578,-37.109,-27.832,0.000
1673805957.733,-69.336,-19.043,-34.668,-23.926,0.000
1673805957.737,-75.195,-28.809,-24.414,-15.137,0.000
1673805957.741,-70.312,-33.691,-29.785,-20.996,0.000
1673805957.744,-60.547,-33.203,-34.668,-26.367,0.000
1673805957.748,-70.801,-23.926,-36.621,-27.344,0.000
1673805957.752,-79.590,-21.484,-35.645,-20.020,0.000
1673805957.756,-85.938,-31.738,-30.273,-21.484,0.000
1673805957.760,-92.285,-28.809,-33.691,-31.738,0.000
1673805957.764,-82.520,-24.902,-28.809,-22.949,0.000
1673805957.768,-74.219,-27.832,-20.996,-12.695,0.000
1673805957.772,-76.172,-26.855,-20.020,-16.113,0.000
1673805957.776,-81.543,-26.367,-17.090,-23.438,0.000
1673805957.780,-76.660,-29.785,-18.066,-23.926,0.000
1673805957.784,-65.430,-23.438,-17.578,-11.230,0.000
1673805957.787,-74.707,-16.602,-7.812,-4.395,0.000
1673805957.791,-74.219,-20.020,-12.695,-9.766,0.000
1673805957.795,-70.312,-26.855,-24.902,-16.602,0.000
1673805957.799,-63.965,-22.949,-23.438,-5.371,0.000
1673805957.803,-50.293,-11.230,-18.066,8.301,0.000
1673805957.807,-44.922,-17.090,-18.066,3.418,0.000
1673805957.811,-41.504,-30.762,-21.973,-2.930,0.000
1673805957.815,-40.039,-31.250,-27.832,-11.230,0.000
1673805957.819,-48.828,-23.438,-24.902,-10.254,0.000
1673805957.823,-46.387,-23.926,-23.438,-9.766,0.000
1673805957.827,-29.297,-18.066,-22.461,-9.277,0.000
1673805957.830,-24.414,-18.555,-17.578,-3.418,0.000
1673805957.834,-27.832,-26.855,-15.625,-4.395,0.000
1673805957.838,-27.832,-24.414,-20.020,-6.836,0.000
1673805957.842,-27.344,-23.438,-29.785,-12.695,0.000
1673805957.846,-22.461,-14.648,-23.926,-7.324,0.000
1673805957.850,-29.785,-4.395,-13.672,-0.488,0.000
1673805957.854,-47.852,-6.348,-15.625,-4.395,0.000
1673805957.858,-40.039,-1.465,-15.137,-13.184,0.000
1673805957.862,-25.879,-2.441,-12.207,-12.695,0.000
1673805957.866,-23.438,-8.301,-18.066,-8.789,0.000
1673805957.869,-24.902,-5.859,-16.602,-6.836,0.000
1673805957.873,-30.273,-8.301,-10.254,-8.301,0.000
1673805957.877,-33.203,-5.371,-14.648,-14.160,0.000
1673805957.881,-37.109,-5.859,-18.066,-14.160,0.000
1673805957.885,-35.645,-5.371,-21.973,-8.789,0.000
1673805957.889,-26.367,-5.371,-25.879,-8.789,0.000
1673805957.893,-21.484,-12.207,-17.578,-11.719,0.000
1673805957.897,-20.996,-15.625,-9.277,-9.766,0.000
1673805957.901,-25.879,-16.602,-8.301,-1.953,0.000
1673805957.905,-36.133,-17.578,-8.301,6.348,0.000
1673805957.909,-30.762,-12.695,-10.742,1.465,0.000
1673805957.912,-25.879,-20.508,-16.602,-7.324,0.000
1673805957.916,-21.973,-19.043,-12.207,-5.859,0.000
1673805957.920,-21.973,-4.395,-15.625,-9.277,0.000
1673805957.924,-27.344,-6.836,-30.762,-16.602,0.000
1673805957.928,-29.297,-16.602,-27.832,-12.695,0.000
1673805957.932,-31.738,-20.996,-24.902,-0.488,0.000
1673805957.936,-30.762,-22.949,-23.926,0.488,0.000
1673805957.940,-20.508,-22.461,-21.973,5.371,0.000
1673805957.944,-19.531,-15.625,-21.973,4.395,0.000
1673805957.948,-20.996,-14.160,-18.555,3.418,0.000
1673805957.952,-26.367,-15.137,-15.137,11.230,0.000
1673805957.955,-33.203,-16.113,-9.766,13.184,0.000
1673805957.959,-36.621,-18.555,-19.531,-1.953,0.000
1673805957.963,-29.297,-15.625,-29.785,-3.418,0.000
1673805957.967,-30.273,-14.648,-31.738,7.324,0.000
1673805957.971,-54.688,-26.855,-32.715,-4.883,0.000
1673805957.975,-50.781,-21.973,-26.855,-8.789,0.000
1673805957.979,-38.086,-13.184,-24.902,-11.230,0.000
1673805957.983,-33.691,-23.438,-22.461,-5.371,0.000
1673805957.987,-35.645,-24.414,-23.438,-1.953,0.000
1673805957.991,-36.621,-21.973,-24.414,-13.672,0.000
1673805957.995,-29.785,-20.996,-18.555,-9.766,0.000
1673805957.998,-28.809,-19.043,-24.902,1.465,0.000
1673805958.002,-28.320,-20.996,-32.715,-2.441,0.000
1673805958.006,-39.062,-27.344,-23.438,-10.254,0.000
1673805958.010,-44.922,-31.738,-17.578,-17.578,0.000
1673805958.014,-39.551,-34.180,-20.996,-15.625,0.000
1673805958.018,-50.293,-38.574,-27.832,-10.254,0.000
1673805958.022,-59.082,-34.180,-29.785,-16.113,0.000
1673805958.026,-58.594,-29.785,-33.203,-24.902,0.000
1673805958.030,-46.875,-31.738,-38.574,-26.367,0.000
1673805958.034,-32.227,-26.855,-37.109,-21.973,0.000
1673805958.037,-31.250,-21.973,-29.297,-5.371,0.000
1673805958.041,-34.180,-18.555,-24.414,-8.789,0.000
1673805958.045,-47.852,-21.484,-30.273,-24.902,0.000
1673805958.049,-50.293,-28.809,-37.598,-20.020,0.000
1673805958.053,-43.457,-30.273,-30.273,-9.766,0.000
1673805958.057,-43.457,-20.996,-22.949,-19.531,0.000
1673805958.061,-37.598,-13.184,-24.902,-34.668,0.000
1673805958.065,-28.809,-17.578,-22.949,-29.297,0.000
1673805958.069,-28.320,-17.578,-25.879,-24.414,0.000
1673805958.073,-39.062,-19.531,-32.715,-29.785,0.000
1673805958.077,-37.109,-24.414,-30.762,-31.250,0.000
1673805958.080,-21.484,-18.555,-24.414,-19.531,0.000
1673805958.084,-31.250,-25.391,-23.438,-12.695,0.000
1673805958.088,-52.246,-36.133,-33.691,-15.625,0.000
1673805958.092,-45.898,-33.691,-29.785,-16.602,0.000
1673805958.096,-42.969,-30.762,-21.484,-18.066,0.000
1673805958.100,-50.293,-29.297,-24.902,-12.207,0.000
1673805958.104,-51.758,-27.832,-29.785,-17.090,0.000
1673805958.108,-57.617,-29.785,-27.344,-24.902,0.000
1673805958.112,-44.922,-28.320,-26.367,-20.020,0.000
1673805958.116,-41.016,-20.996,-27.832,-15.625,0.000
1673805958.120,-44.434,-18.555,-30.762,-14.648,0.000
1673805958.123,-30.762,-23.438,-22.461,-9.766,0.000
1673805958.127,-24.902,-23.926,-16.602,-5.859,0.000
1673805958.131,-26.367,-14.160,-29.297,-2.930,0.000
1673805958.135,-35.156,-19.043,-28.320,-1.465,0.000
1673805958.139,-36.621,-25.879,-17.578,-8.301,0.000
1673805958.143,-20.020,-32.227,-18.066,-6.836,0.000
1673805958.147,-20.508,-35.645,-20.996,-9.277,0.000
1673805958.151,-19.531,-31.250,-23.438,-15.137,0.000
1673805958.155,-19.531,-24.902,-22.949,-3.418,0.000
1673805958.159,-33.203,-15.625,-26.367,-6.348,0.000
1673805958.163,-18.066,-8.789,-31.250,-16.113,0.000
1673805958.166,-11.230,-15.625,-35.645,-13.184,0.000
1673805958.170,-26.855,-27.344,-27.344,-15.137,0.000
1673805958.174,-32.715,-31.250,-28.320,-22.949,0.000
1673805958.178,-34.668,-25.879,-37.598,-23.438,0.000
1673805958.182,-35.156,-20.996,-45.410,-18.066,0.000
1673805958.186,-29.297,-16.602,-39.551,-19.531,0.000
1673805958.190,-20.996,-10.742,-26.855,-26.367,0.000
1673805958.194,-27.344,-20.996,-31.738,-30.762,0.000
1673805958.198,-32.227,-20.020,-37.109,-33.691,0.000
1673805958.202,-31.738,-17.578,-34.668,-27.344,0.000
1673805958.205,-38.574,-34.180,-33.691,-25.879,0.000
1673805958.209,-46.875,-37.109,-40.527,-27.344,0.000
1673805958.213,-42.480,-25.879,-34.180,-18.066,0.000
1673805958.217,-29.297,-18.066,-24.414,-10.254,0.000
1673805958.221,-36.133,-24.414,-26.855,-13.184,0.000
1673805958.225,-40.527,-24.414,-27.832,-16.602,0.000
1673805958.229,-28.320,-24.902,-23.926,-19.043,0.000
1673805958.233,-31.738,-27.832,-19.531,-6.348,0.000
1673805958.237,-47.363,-25.879,-18.555,11.719,0.000
1673805958.241,-46.387,-33.691,-22.949,-8.789,0.000
1673805958.245,-41.016,-44.434,-30.762,-28.320,0.000
1673805958.248,-40.527,-39.062,-37.109,-28.320,0.000
1673805958.252,-39.551,-30.273,-33.691,-30.273,0.000
1673805958.256,-48.828,-30.273,-32.227,-30.273,0.000
1673805958.260,-44.434,-26.855,-37.109,-32.227,0.000
1673805958.264,-32.715,-13.672,-32.227,-27.344,0.000
1673805958.268,-26.855,-11.230,-26.367,-14.648,0.000
1673805958.272,-33.691,-25.879,-32.715,-17.578,0.000
1673805958.276,-38.574,-33.691,-33.203,-23.926,0.000
1673805958.280,-34.668,-33.691,-27.832,-18.066,0.000
1673805958.284,-38.086,-27.832,-32.715,-14.160,0.000
1673805958.288,-46.387,-24.414,-33.691,-23.438,0.000
1673805958.291,-44.922,-23.438,-30.273,-39.551,0.000
1673805958.295,-30.762,-25.391,-30.273,-41.016,0.000
1673805958.299,-32.715,-27.832,-29.785,-24.414,0.000
1673805958.303,-41.504,-27.344,-32.715,-23.438,0.000
1673805958.307,-35.156,-33.203,-29.785,-19.531,0.000
1673805958.311,-27.832,-30.762,-29.297,-12.695,0.000
1673805958.315,-18.066,-31.738,-36.621,-16.602,0.000
1673805958.319,-29.297,-48.340,-30.762,-22.461,0.000
1673805958.323,-55.176,-39.062,-25.391,-13.672,0.000
1673805958.327,-55.664,-20.508,-28.320,-10.254,0.000
1673805958.330,-59.570,-22.949,-32.715,-29.297,0.000
1673805958.334,-56.641,-30.762,-28.320,-24.414,0.000
1673805958.338,-52.246,-29.297,-20.996,-18.066,0.000
1673805958.342,-45.898,-23.926,-24.902,-21.973,0.000
1673805958.346,-43.457,-29.785,-29.297,-14.648,0.000
1673805958.350,-41.016,-32.715,-27.832,-14.648,0.000
1673805958.354,-43.457,-33.691,-23.926,-13.184,0.000
1673805958.358,-49.316,-32.227,-22.949,-10.254,0.000
1673805958.362,-46.875,-39.062,-26.367,-14.648,0.000
1673805958.366,-44.434,-32.715,-35.645,-14.648,0.000
1673805958.370,-41.016,-18.066,-31.250,-0.977,0.000
1673805958.373,-33.691,-22.461,-21.973,-2.930,0.000
1673805958.377,-28.320,-22.949,-24.902,-17.578,0.000
1673805958.381,-29.297,-26.855,-25.391,-15.625,0.000
1673805958.385,-21.973,-31.738,-22.949,-8.789,0.000
1673805958.389,-16.113,-28.809,-23.438,-2.441,0.000
1673805958.393,-14.648,-32.227,-25.391,-7.324,0.000
1673805958.397,-19.043,-31.738,-23.438,-5.371,0.000
1673805958.401,-20.020,-24.902,-22.949,7.812,0.000
1673805958.405,-22.949,-20.508,-28.320,3.906,0.000
1673805958.409,-35.156,-23.926,-32.227,-15.137,0.000
1673805958.413,-29.297,-24.902,-34.668,-13.184,0.000
1673805958.416,-19.531,-22.949,-34.668,-1.465,0.000
1673805958.420,-18.066,-30.273,-36.621,-5.859,0.000
1673805958.424,-14.160,-39.062,-34.180,-9.277,0.000
1673805958.428,-22.949,-40.527,-26.855,-5.859,0.000
1673805958.432,-36.621,-36.621,-32.227,-9.766,0.000
1673805958.436,-39.062,-23.438,-35.156,-5.859,0.000
1673805958.440,-30.273,-14.648,-28.320,1.953,0.000
1673805958.444,-25.391,-18.555,-29.785,-6.348,0.000
1673805958.448,-22.461,-20.508,-31.250,-2.930,0.000
1673805958.452,-29.785,-19.043,-32.715,1.465,0.000
1673805958.456,-31.738,-22.949,-28.320,-2.930,0.000
1673805958.459,-10.742,-26.855,-24.902,4.883,0.000
1673805958.463,-20.996,-35.645,-29.785,-3.418,0.000
1673805958.467,-43.457,-38.086,-37.598,-12.695,0.000
1673805958.471,-41.016,-24.414,-43.457,-10.254,0.000
1673805958.475,-34.668,-23.438,-35.645,-14.160,0.000
1673805958.479,-32.715,-26.367,-29.785,-21.484,0.000
1673805958.483,-41.016,-30.762,-34.180,-17.090,0.000
1673805958.487,-43.457,-35.156,-29.297,-13.184,0.000
1673805958.491,-34.668,-34.180,-26.855,-20.508,0.000
1673805958.495,-24.902,-33.691,-29.297,-24.902,0.000
1673805958.498,-21.973,-28.320,-23.926,-23.926,0.000
1673805958.502,-23.926,-20.020,-20.020,-12.207,0.000
1673805958.506,-25.879,-24.414,-22.949,-9.277,0.000
1673805958.510,-35.156,-30.762,-30.762,-27.832,0.000
1673805958.514,-36.133,-21.484,-31.738,-28.320,0.000
1673805958.518,-36.133,-16.113,-25.391,-15.625,0.000
1673805958.522,-44.922,-25.879,-22.461,-13.672,0.000
1673805958.526,-50.293,-35.156,-24.902,-18.555,0.000
1673805958.530,-41.016,-30.762,-27.344,-17.578,0.000
1673805958.534,-29.297,-34.180,-30.273,-16.602,0.000
1673805958.538,-27.832,-35.645,-27.344,-26.855,0.000
1673805958.541,-27.344,-23.926,-21.484,-27.344,0.000
1673805958.545,-29.297,-34.180,-20.996,-18.066,0.000
1673805958.549,-43.945,-30.762,-29.297,-4.883,0.000
1673805958.553,-56.641,-29.785,-30.273,-5.859,0.000
1673805958.557,-38.574,-37.598,-32.715,-13.672,0.000
1673805958.561,-31.738,-25.391,-30.273,-13.184,0.000
1673805958.565,-37.109,-25.391,-16.113,-1.465,0.000
1673805958.569,-43.945,-23.438,-19.043,3.418,0.000
1673805958.573,-41.504,-24.902,-31.250,-11.719,0.000
1673805958.577,-37.598,-24.902,-28.809,-14.160,0.000
1673805958.581,-36.133,-19.531,-29.297,-8.789,0.000
1673805958.584,-29.785,-19.531,-27.344,1.953,0.000
1673805958.588,-35.645,-19.043,-22.461,5.371,0.000
1673805958.592,-35.645,-15.625,-20.508,-0.488,0.000
1673805958.596,-27.832,-13.672,-17.090,1.953,0.000
1673805958.600,-26.367,-19.043,-23.926,6.348,0.000
1673805958.604,-25.879,-16.113,-34.180,0.000,0.000
1673805958.608,-20.508,-19.043,-35.156,-14.160,0.000
1673805958.612,-17.578,-28.320,-35.645,-21.484,0.000
1673805958.616,-23.438,-37.598,-39.551,-26.367,0.000
1673805958.620,-33.691,-33.691,-32.715,-24.414,0.000
1673805958.624,-27.832,-25.391,-30.762,-19.043,0.000
1673805958.627,-25.391,-28.320,-36.133,-24.414,0.000
1673805958.631,-29.785,-24.414,-33.691,-22.949,0.000
1673805958.635,-28.809,-21.484,-36.621,-21.973,0.000
1673805958.639,-38.574,-35.645,-39.551,-14.160,0.000
1673805958.643,-50.293,-31.738,-31.738,-20.996,0.000
1673805958.647,-37.598,-24.414,-28.809,-23.926,0.000
1673805958.651,-30.762,-26.855,-31.738,-13.184,0.000
1673805958.655,-35.156,-21.973,-27.832,-11.230,0.000
1673805958.659,-44.434,-23.926,-23.926,-19.531,0.000
1673805958.663,-46.875,-28.809,-26.367,-30.273,0.000
1673805958.666,-42.969,-28.320,-28.809,-24.414,0.000
1673805958.670,-55.664,-27.832,-27.344,-17.090,0.000
1673805958.674,-55.176,-22.461,-25.879,-22.461,0.000
1673805958.678,-53.711,-13.672,-28.809,-27.344,0.000
1673805958.682,-54.199,-14.160,-25.879,-21.484,0.000
1673805958.686,-43.457,-27.832,-19.531,-17.578,0.000
1673805958.690,-43.457,-30.273,-21.973,-20.508,0.000
1673805958.694,-41.504,-20.996,-27.344,-21.484,0.000
1673805958.698,-38.086,-20.020,-31.250,-11.230,0.000
1673805958.702,-40.039,-27.344,-30.762,-2.930,0.000
1673805958.706,-43.945,-26.855,-26.855,-14.160,0.000
1673805958.709,-36.133,-17.090,-26.367,-19.043,0.000
1673805958.713,-23.926,-18.555,-21.484,-14.648,0.000
1673805958.717,-25.391,-33.203,-23.438,-18.066,0.000
1673805958.721,-25.391,-38.086,-30.273,-20.508,0.000
1673805958.725,-21.973,-23.438,-30.273,-28.320,0.000
1673805958.729,-24.414,-19.043,-24.902,-22.949,0.000
1673805958.733,-25.879,-19.531,-23.926,-4.395,0.000
1673805958.737,-29.785,-15.625,-24.902,-3.418,0.000
1673805958.741,-27.832,-13.672,-25.391,-7.324,0.000
1673805958.745,-19.531,-6.836,-25.879,-1.953,0.000
1673805958.749,-14.160,-8.301,-33.203,1.953,0.000
1673805958.752,-27.832,-18.066,-41.992,-3.418,0.000
1673805958.756,-33.691,-19.043,-36.621,-8.301,0.000
1673805958.760,-35.645,-29.297,-35.156,-24.414,0.000
1673805958.764,-37.598,-35.156,-35.156,-29.785,0.000
1673805958.768,-23.926,-26.855,-31.738,-20.508,0.000
1673805958.772,-35.645,-28.809,-33.691,-15.137,0.000
1673805958.776,-50.293,-24.414,-32.227,-17.578,0.000
1673805958.780,-39.551,-16.113,-26.855,-11.719,0.000
1673805958.784,-30.273,-14.648,-21.484,3.906,0.000
1673805958.788,-33.691,-20.996,-15.137,4.395,0.000
1673805958.792,-31.250,-25.879,-25.879,-1.465,0.000
1673805958.795,-24.414,-24.414,-31.738,-6.348,0.000
1673805958.799,-19.531,-30.273,-26.855,-6.348,0.000
1673805958.803,-17.090,-32.227,-29.785,-5.371,0.000
1673805958.807,-25.391,-30.762,-21.973,-0.977,0.000
1673805958.811,-25.879,-24.902,-22.461,-5.859,0.000
1673805958.815,-22.949,-16.602,-27.344,-6.836,0.000
1673805958.819,-31.738,-18.555,-26.855,0.488,0.000
1673805958.823,-33.691,-22.461,-26.367,-1.953,0.000
1673805958.827,-28.809,-21.484,-28.809,-6.348,0.000
1673805958.831,-27.344,-20.508,-27.832,-7.812,0.000
1673805958.834,-18.066,-14.648,-18.555,9.766,0.000
1673805958.838,-14.648,-23.926,-19.531,19.043,0.000
1673805958.842,-22.461,-36.621,-30.273,3.418,0.000
1673805958.846,-11.230,-28.320,-27.832,2.441,0.000
1673805958.850,-11.719,-25.391,-21.484,15.137,0.000
1673805958.854,-22.949,-27.832,-21.973,14.160,0.000
1673805958.858,-22.949,-28.320,-23.926,-3.906,0.000
1673805958.862,-14.160,-25.879,-22.461,1.953,0.000
1673805958.866,-12.207,-29.785,-23.926,10.254,0.000
1673805958.870,-22.461,-27.832,-34.180,7.812,0.000
1673805958.874,-24.414,-19.043,-25.391,15.137,0.000
1673805958.878,-15.137,-21.973,-13.184,14.160,0.000
1673805958.881,-17.090,-32.227,-24.902,14.648,0.000
1673805958.885,-20.508,-28.809,-35.156,17.090,0.000
1673805958.889,-13.184,-24.902,-30.762,14.648,0.000
1673805958.893,-11.230,-20.996,-25.391,12.695,0.000
1673805958.897,-20.020,-20.020,-23.926,11.230,0.000
1673805958.901,-25.879,-28.320,-22.461,15.137,0.000
1673805958.905,-26.367,-23.926,-26.367,10.254,0.000
1673805958.909,-12.695,-11.230,-23.926,-0.488,0.000
1673805958.913,-0.977,-17.578,-24.414,0.488,0.000
1673805958.917,3.418,-26.855,-30.273,9.766,0.000
1673805958.920,-4.395,-16.602,-30.273,9.766,0.000
1673805958.924,-19.043,-17.090,-36.133,-10.742,0.000
1673805958.928,-20.996,-19.043,-34.180,-23.926,0.000
1673805958.932,-19.531,-20.996,-34.668,-14.648,0.000
1673805958.936,-13.184,-23.438,-36.621,-5.371,0.000
1673805958.940,-18.555,-19.531,-33.203,-1.465,0.000
1673805958.944,-20.508,-13.184,-30.273,-7.812,0.000
1673805958.948,-19.531,-12.695,-20.020,-9.277,0.000
1673805958.952,-12.207,-13.184,-10.742,-1.953,0.000
1673805958.956,-2.930,-14.160,-9.277,9.766,0.000
1673805958.960,-12.207,-20.508,-14.648,-4.395,0.000
1673805958.963,-6.348,-11.230,-20.020,-16.602,0.000
1673805958.967,-2.930,-1.953,-18.066,-2.930,0.000
1673805958.971,-21.484,-9.277,-12.695,0.000,0.000
1673805958.975,-34.668,-11.230,-14.648,-17.090,0.000
1673805958.979,-38.086,-14.648,-20.508,-17.090,0.000
1673805958.983,-40.527,-15.137,-18.555,3.906,0.000
1673805958.987,-30.273,-13.184,-14.648,3.906,0.000
1673805958.991,-20.020,-12.695,-18.555,-5.371,0.000
1673805958.995,-24.414,-10.742,-21.484,-1.465,0.000
1673805958.999,-23.438,-9.277,-19.043,5.859,0.000
1673805959.003,-19.043,-0.977,-13.184,10.742,0.000
1673805959.006,-12.695,-3.418,-16.602,-1.465,0.000
1673805959.010,-7.324,-7.812,-16.602,-7.812,0.000
1673805959.014,-16.602,-3.418,-9.277,-2.930,0.000
1673805959.018,-13.184,1.953,-11.230,6.348,0.000
1673805959.022,-11.230,-6.348,-13.672,8.301,0.000
1673805959.026,-13.672,-15.137,-8.789,0.000,0.000
1673805959.030,-7.324,-11.719,-5.859,1.953,0.000
1673805959.034,-9.277,-14.160,-10.254,10.254,0.000
1673805959.038,-21.484,-19.531,-10.254,8.301,0.000
1673805959.042,-23.926,-16.113,-10.742,3.418,0.000
1673805959.046,-10.254,-10.254,-10.742,6.836,0.000
1673805959.049,-15.625,-20.020,-8.789,3.906,0.000
1673805959.053,-43.945,-28.320,-13.184,-4.883,0.000
1673805959.057,-45.410,-19.531,-15.137,-6.836,0.000
1673805959.061,-35.156,-8.301,-19.043,-8.301,0.000
1673805959.065,-34.180,-4.395,-13.672,-13.184,0.000
1673805959.069,-42.969,-4.395,-11.230,-16.602,0.000
1673805959.073,-46.387,-11.230,-15.625,-10.254,0.000
1673805959.077,-40.527,-15.137,-20.020,-14.160,0.000
1673805959.081,-43.945,-10.742,-19.531,-19.043,0.000
1673805959.085,-40.039,-10.742,-16.113,-16.113,0.000
1673805959.088,-32.227,-14.648,-16.113,-12.695,0.000
1673805959.092,-40.039,-15.137,-23.926,-21.973,0.000
1673805959.096,-43.945,-22.949,-30.762,-26.367,0.000
1673805959.100,-39.551,-28.320,-27.832,-6.348,0.000
1673805959.104,-36.133,-22.949,-24.414,-2.441,0.000
1673805959.108,-20.020,-23.438,-20.996,-12.695,0.000
1673805959.112,-10.254,-20.996,-27.344,-16.113,0.000
1673805959.116,-9.277,-20.996,-25.879,-18.555,0.000
1673805959.120,-26.367,-28.809,-19.531,-19.043,0.000
1673805959.124,-32.227,-32.227,-23.438,-23.438,0.000
1673805959.128,-23.926,-29.297,-29.297,-36.133,0.000
1673805959.131,-19.531,-18.555,-26.855,-28.320,0.000
1673805959.135,-17.578,-15.137,-20.508,-9.277,0.000
