timestamp,TP9,AF7,AF8,TP10,Right AUX
0.000,-33.203,-28.809,-28.809,-39.551,0.000
4.000,-26.855,-27.832,-23.926,-34.668,0.000
8.000,-26.367,-23.926,-16.602,-31.250,0.000
12.000,-36.133,-26.367,-20.020,-34.180,0.000
16.000,-60.059,-20.020,-26.367,-26.855,0.000
20.000,-55.176,-24.414,-30.762,-36.133,0.000
23.000,-43.457,-36.621,-27.832,-47.852,0.000
27.000,-48.340,-38.574,-25.879,-41.504,0.000
31.000,-49.316,-36.133,-27.344,-41.992,0.000
35.000,-47.852,-32.227,-25.879,-39.062,0.000
39.000,-44.922,-32.715,-29.785,-37.109,0.000
43.000,-38.086,-27.832,-29.785,-44.434,0.000
47.000,-33.203,-22.949,-23.926,-54.688,0.000
51.000,-33.203,-24.414,-22.461,-51.758,0.000
55.000,-36.133,-24.414,-26.367,-44.434,0.000
59.000,-29.785,-21.484,-28.809,-40.039,0.000
62.000,-20.020,-27.832,-32.715,-45.410,0.000
66.000,-3.906,-29.297,-40.527,-54.688,0.000
70.000,-5.859,-27.344,-41.016,-39.062,0.000
74.000,-31.250,-29.297,-31.738,-37.109,0.000
78.000,-59.082,-30.762,-30.273,-41.992,0.000
82.000,-47.852,-35.156,-38.086,-39.062,0.000
86.000,-23.926,-30.762,-34.668,-40.039,0.000
90.000,-28.320,-31.738,-28.809,-50.293,0.000
94.000,-55.664,-46.387,-25.879,-56.641,0.000
98.000,-76.172,-41.992,-25.879,-49.316,0.000
102.000,-71.777,-31.738,-26.367,-47.363,0.000
105.000,-66.406,-37.598,-25.879,-53.223,0.000
109.000,-58.105,-32.715,-24.414,-53.223,0.000
113.000,-36.133,-26.367,-26.855,-34.180,0.000
117.000,-23.926,-28.809,-30.273,-20.020,0.000
121.000,-54.688,-30.762,-35.645,-49.316,0.000
125.000,-72.266,-33.691,-42.969,-75.195,0.000
129.000,-60.547,-34.668,-34.180,-50.293,0.000
133.000,-54.688,-31.738,-30.762,-33.203,0.000
137.000,-57.129,-28.809,-37.109,-49.805,0.000
141.000,-54.688,-27.832,-39.062,-53.223,0.000
145.000,-49.805,-28.320,-40.527,-42.969,0.000
148.000,-56.641,-27.832,-36.621,-40.039,0.000
152.000,-41.992,-24.902,-37.598,-39.551,0.000
156.000,-26.367,-19.531,-41.016,-48.340,0.000
160.000,-34.180,-19.043,-38.574,-60.059,0.000
164.000,-31.250,-17.578,-38.086,-56.641,0.000
168.000,-10.254,-11.719,-36.133,-40.527,0.000
172.000,-11.230,-8.789,-34.668,-34.180,0.000
176.000,-15.625,-5.859,-38.086,-41.992,0.000
180.000,-6.836,-5.371,-42.969,-29.297,0.000
184.000,-31.250,-6.836,-41.016,-16.113,0.000
187.000,-39.551,-7.324,-36.133,-24.414,0.000
191.000,-37.109,-12.207,-38.086,-28.320,0.000
195.000,-21.973,-12.207,-36.133,-16.602,0.000
199.000,-22.461,-6.836,-29.297,-7.812,0.000
203.000,-24.414,-5.859,-27.344,-2.930,0.000
207.000,-8.301,-4.395,-30.273,5.371,0.000
211.000,-7.324,1.465,-29.785,22.461,0.000
215.000,-8.789,0.977,-25.391,25.391,0.000
219.000,-12.207,-5.371,-27.344,9.766,0.000
223.000,-12.695,-4.883,-32.715,5.859,0.000
227.000,-9.766,-4.883,-32.227,7.812,0.000
230.000,-1.953,-6.836,-29.785,21.484,0.000
234.000,21.973,-2.930,-31.738,12.695,0.000
238.000,28.320,-4.883,-36.621,-15.625,0.000
242.000,15.137,-11.230,-36.621,-21.484,0.000
246.000,20.508,-9.277,-36.133,-19.043,0.000
250.000,25.391,-6.348,-31.738,-11.719,0.000
254.000,13.672,-8.301,-28.320,8.301,0.000
258.000,16.602,-7.324,-28.320,12.207,0.000
262.000,25.391,-8.301,-32.227,6.348,0.000
266.000,24.902,-17.090,-37.598,4.883,0.000
270.000,13.184,-25.391,-36.621,6.348,0.000
273.000,4.883,-24.414,-36.621,10.742,0.000
277.000,1.953,-22.949,-37.109,13.672,0.000
281.000,6.836,-25.391,-32.227,19.531,0.000
285.000,7.324,-21.973,-33.203,23.926,0.000
289.000,0.977,-21.484,-37.598,21.973,0.000
293.000,6.836,-25.391,-39.551,11.719,0.000
297.000,10.742,-20.996,-40.039,18.066,0.000
301.000,12.207,-21.484,-41.992,13.184,0.000
305.000,9.766,-24.902,-36.133,-1.465,0.000
309.000,10.254,-23.926,-31.250,-7.324,0.000
312.000,8.301,-23.926,-36.621,-9.277,0.000
316.000,10.254,-26.367,-41.016,0.000,0.000
320.000,19.531,-30.273,-35.645,11.719,0.000
324.000,18.555,-24.902,-27.832,1.465,0.000
328.000,14.160,-18.555,-34.180,-27.832,0.000
332.000,7.324,-23.438,-39.062,-36.133,0.000
336.000,-4.395,-22.949,-36.621,-30.273,0.000
340.000,13.672,-20.508,-35.156,-23.926,0.000
344.000,19.043,-20.996,-33.691,-17.578,0.000
348.000,-10.742,-24.902,-28.809,-17.578,0.000
352.000,-43.457,-32.715,-36.621,-15.137,0.000
355.000,-41.992,-37.109,-38.086,-12.695,0.000
359.000,-30.762,-31.738,-26.855,-12.695,0.000
363.000,-25.391,-23.438,-22.949,-2.441,0.000
367.000,-16.602,-27.832,-22.461,4.395,0.000
371.000,-19.531,-29.297,-23.926,-4.395,0.000
375.000,-21.973,-24.414,-18.555,-3.906,0.000
379.000,-27.832,-25.391,-16.602,-9.277,0.000
383.000,-34.668,-33.203,-20.508,-29.297,0.000
387.000,-44.434,-34.180,-23.926,-28.809,0.000
391.000,-37.109,-33.691,-29.297,-33.691,0.000
395.000,-23.926,-35.645,-30.762,-50.293,0.000
398.000,-34.180,-36.621,-30.762,-48.340,0.000
402.000,-40.527,-40.527,-36.133,-54.199,0.000
406.000,-38.086,-40.039,-33.691,-55.176,0.000
410.000,-46.387,-39.551,-27.344,-37.598,0.000
414.000,-57.617,-40.527,-25.879,-33.203,0.000
418.000,-48.340,-38.086,-25.879,-39.062,0.000
422.000,-42.480,-44.434,-29.785,-45.410,0.000
426.000,-54.688,-45.898,-32.227,-48.340,0.000
430.000,-62.012,-44.434,-31.250,-51.270,0.000
434.000,-57.129,-44.922,-27.344,-46.875,0.000
437.000,-45.410,-42.969,-27.344,-32.227,0.000
441.000,-35.645,-36.621,-29.297,-27.832,0.000
445.000,-38.086,-36.621,-30.273,-24.902,0.000
449.000,-49.805,-40.527,-30.273,-20.996,0.000
453.000,-48.340,-34.668,-28.320,-26.367,0.000
457.000,-56.152,-37.598,-27.344,-31.250,0.000
461.000,-51.270,-35.645,-26.367,-34.668,0.000
465.000,-23.438,-31.250,-27.832,-31.738,0.000
469.000,-23.926,-36.621,-27.832,-33.691,0.000
473.000,-52.246,-41.504,-29.785,-70.312,0.000
477.000,-66.406,-51.270,-44.434,-83.008,0.000
480.000,-73.242,-58.105,-58.594,-77.637,0.000
484.000,-80.566,-47.852,-37.598,-83.496,0.000
488.000,-109.863,-52.734,-24.414,-92.285,0.000
492.000,-131.836,-68.359,-33.203,-120.605,0.000
496.000,-125.977,-61.035,-39.062,-145.996,0.000
500.000,-135.254,-62.988,-41.504,-145.996,0.000
504.000,-151.855,-62.012,-34.180,-148.926,0.000
508.000,-157.715,-63.965,-38.574,-150.391,0.000
512.000,-164.551,-77.637,-35.156,-165.039,0.000
516.000,-177.246,-67.871,-33.203,-183.105,0.000
520.000,-155.762,-54.199,-44.922,-160.156,0.000
523.000,-150.391,-59.082,-38.574,-143.555,0.000
527.000,-172.363,-60.547,-24.414,-144.531,0.000
531.000,-164.062,-48.828,-20.996,-139.648,0.000
535.000,-172.852,-60.059,-40.527,-140.625,0.000
539.000,-163.086,-60.059,-41.016,-142.090,0.000
543.000,-158.203,-57.617,-41.016,-139.648,0.000
547.000,-169.434,-65.430,-65.430,-145.020,0.000
551.000,-132.812,-67.383,-50.293,-134.277,0.000
555.000,-120.117,-53.223,-26.855,-119.141,0.000
559.000,-132.324,-63.477,-30.762,-124.023,0.000
562.000,-125.000,-71.777,-20.996,-113.770,0.000
566.000,-120.117,-45.410,-25.391,-104.980,0.000
570.000,-111.816,-45.898,-36.133,-105.957,0.000
574.000,-106.445,-51.270,-40.039,-95.215,0.000
578.000,-98.633,-38.574,-34.668,-83.984,0.000
582.000,-84.961,-42.969,-28.320,-80.078,0.000
586.000,-73.730,-47.363,-32.227,-72.266,0.000
590.000,-71.777,-39.062,-35.156,-66.406,0.000
594.000,-66.406,-35.156,-31.738,-54.199,0.000
598.000,-51.758,-39.062,-29.297,-44.922,0.000
602.000,-39.551,-37.109,-32.715,-38.086,0.000
605.000,-20.020,-34.668,-32.227,-25.391,0.000
609.000,-15.625,-37.109,-29.785,-21.484,0.000
613.000,-27.344,-31.250,-30.273,-23.438,0.000
617.000,-31.738,-31.250,-31.738,-23.926,0.000
621.000,-39.551,-36.621,-33.203,-17.090,0.000
625.000,-41.016,-36.133,-35.156,-11.719,0.000
629.000,-40.527,-36.621,-36.133,-21.484,0.000
633.000,-42.969,-34.180,-37.109,-27.344,0.000
637.000,-33.203,-35.156,-37.598,-23.926,0.000
641.000,-25.879,-39.551,-36.133,-24.414,0.000
645.000,-34.668,-35.156,-39.062,-30.273,0.000
648.000,-24.902,-26.855,-40.039,-25.391,0.000
652.000,-10.742,-28.809,-39.062,-17.578,0.000
656.000,-16.113,-30.273,-30.762,-19.043,0.000
660.000,-19.531,-27.832,-21.973,-10.254,0.000
664.000,-25.879,-31.738,-23.438,-7.812,0.000
668.000,-28.320,-29.297,-29.785,-18.066,0.000
672.000,-39.551,-26.367,-33.691,-14.160,0.000
676.000,-41.504,-26.367,-33.203,-9.277,0.000
680.000,-25.879,-27.832,-29.785,-13.672,0.000
684.000,-16.602,-24.414,-30.762,-8.789,0.000
687.000,-15.625,-27.344,-38.574,-20.020,0.000
691.000,-21.973,-40.527,-41.016,-35.645,0.000
695.000,-25.391,-30.762,-34.668,-28.320,0.000
699.000,-45.898,-25.879,-29.297,-17.578,0.000
703.000,-52.246,-35.645,-28.320,-22.461,0.000
707.000,-42.480,-36.621,-29.785,-28.320,0.000
711.000,-52.246,-30.762,-31.738,-28.320,0.000
715.000,-48.828,-29.297,-40.527,-42.480,0.000
719.000,-41.016,-36.133,-41.016,-49.316,0.000
723.000,-35.645,-29.785,-38.086,-44.434,0.000
727.000,-42.480,-28.809,-35.645,-42.969,0.000
730.000,-36.133,-26.367,-26.855,-37.109,0.000
734.000,-19.043,-22.949,-23.438,-39.062,0.000
738.000,-24.414,-35.156,-21.484,-41.016,0.000
742.000,-37.109,-38.086,-29.297,-43.945,0.000
746.000,-46.387,-29.297,-27.344,-43.945,0.000
750.000,-34.668,-29.785,-29.785,-42.969,0.000
754.000,-44.434,-31.250,-35.156,-38.574,0.000
758.000,-61.523,-27.344,-29.297,-27.344,0.000
762.000,-55.664,-24.414,-23.438,-27.344,0.000
766.000,-55.664,-22.949,-22.461,-27.832,0.000
770.000,-48.340,-21.973,-25.391,-48.340,0.000
773.000,-26.367,-20.020,-27.832,-60.059,0.000
777.000,-16.113,-21.484,-32.715,-35.156,0.000
781.000,-10.254,-18.066,-34.668,-27.832,0.000
785.000,-27.344,-20.996,-31.250,-45.410,0.000
789.000,-34.668,-27.344,-27.832,-49.805,0.000
793.000,-38.086,-27.832,-25.879,-35.156,0.000
797.000,-53.223,-25.391,-23.438,-23.438,0.000
801.000,-30.273,-21.484,-21.973,-14.160,0.000
805.000,-16.113,-22.461,-25.879,-17.090,0.000
809.000,-18.066,-20.996,-29.297,-23.926,0.000
812.000,-27.344,-21.973,-30.273,-33.203,0.000
816.000,-19.531,-23.926,-27.344,-32.227,0.000
820.000,-8.301,-28.320,-31.738,-32.227,0.000
824.000,-34.180,-30.762,-33.203,-31.250,0.000
828.000,-32.227,-19.531,-27.832,-18.066,0.000
832.000,-18.066,-17.090,-32.227,-10.742,0.000
836.000,-34.180,-23.926,-30.273,-13.184,0.000
840.000,-39.551,-22.461,-25.879,-18.555,0.000
844.000,-29.785,-22.461,-27.344,-20.996,0.000
848.000,-19.531,-23.926,-25.391,-15.137,0.000
852.000,-28.320,-25.391,-28.320,-7.812,0.000
855.000,-38.086,-24.414,-30.273,-11.230,0.000
859.000,-38.574,-25.879,-26.367,-18.555,0.000
863.000,-33.203,-22.461,-27.344,-21.484,0.000
867.000,-22.461,-18.066,-31.738,-22.949,0.000
871.000,-24.414,-21.484,-28.320,-29.785,0.000
875.000,-35.645,-25.391,-20.996,-39.551,0.000
879.000,-42.969,-27.832,-20.508,-41.016,0.000
883.000,-35.156,-27.344,-25.879,-42.480,0.000
887.000,-26.367,-25.879,-26.367,-40.039,0.000
891.000,-20.020,-23.438,-25.879,-38.086,0.000
895.000,1.953,-21.484,-26.367,-31.250,0.000
898.000,-2.441,-21.484,-21.484,-25.391,0.000
902.000,-23.438,-25.879,-26.367,-33.203,0.000
906.000,-54.688,-27.832,-33.203,-42.969,0.000
910.000,-59.082,-27.344,-33.691,-38.574,0.000
914.000,-29.785,-26.367,-36.621,-22.461,0.000
918.000,-30.273,-24.414,-38.086,-11.719,0.000
922.000,-37.109,-24.902,-24.414,3.906,0.000
926.000,-29.297,-20.508,-14.648,7.812,0.000
930.000,-25.391,-13.184,-23.926,-5.371,0.000
934.000,-21.973,-18.066,-25.879,-14.648,0.000
937.000,-22.461,-18.555,-23.926,-13.184,0.000
941.000,-14.648,-16.602,-38.086,-5.859,0.000
945.000,-4.883,-15.625,-45.410,-3.906,0.000
949.000,4.883,-10.254,-41.992,-12.207,0.000
953.000,4.883,-6.836,-42.480,-31.250,0.000
957.000,-8.301,-10.742,-43.945,-28.809,0.000
961.000,-5.859,-12.207,-36.621,-14.160,0.000
965.000,4.395,-7.324,-22.461,-5.371,0.000
969.000,14.648,-3.906,-19.043,11.719,0.000
973.000,12.207,-2.930,-31.738,19.043,0.000
977.000,18.555,-2.441,-42.480,9.277,0.000
980.000,21.973,4.395,-41.016,8.789,0.000
984.000,20.508,5.859,-38.574,12.207,0.000
988.000,38.574,-0.977,-43.945,-4.883,0.000
992.000,45.898,-0.488,-42.969,-10.742,0.000
996.000,53.223,2.930,-36.621,14.160,0.000
1000.000,54.199,3.418,-37.109,38.574,0.000
1004.000,22.461,3.906,-37.598,54.688,0.000
1008.000,12.695,0.488,-36.133,54.688,0.000
1012.000,26.367,-5.859,-31.738,45.410,0.000
1016.000,47.852,0.488,-29.785,51.758,0.000
1019.000,62.500,4.883,-30.762,52.246,0.000
1023.000,71.289,-1.465,-30.762,38.574,0.000
1027.000,78.125,1.465,-30.273,44.434,0.000
1031.000,65.430,6.348,-27.344,46.387,0.000
1035.000,64.453,-0.977,-26.855,43.945,0.000
1039.000,69.336,-8.301,-26.855,57.617,0.000
1043.000,51.270,-5.371,-22.461,70.312,0.000
1047.000,31.738,-7.324,-24.414,65.918,0.000
1051.000,32.715,-16.113,-31.738,60.547,0.000
1055.000,51.758,-14.648,-32.227,61.035,0.000
1059.000,51.758,-9.277,-31.738,54.199,0.000
1062.000,49.805,-14.160,-38.574,49.316,0.000
1066.000,64.941,-11.719,-44.434,45.410,0.000
1070.000,40.527,-15.137,-37.109,38.574,0.000
1074.000,32.715,-18.555,-34.668,41.504,0.000
1078.000,54.199,-14.160,-35.645,56.641,0.000
1082.000,35.645,-16.113,-32.715,43.457,0.000
1086.000,20.020,-23.438,-31.738,29.785,0.000
1090.000,28.809,-24.902,-30.762,52.734,0.000
1094.000,29.297,-19.531,-32.227,44.434,0.000
1098.000,14.648,-17.090,-33.691,12.207,0.000
1102.000,18.555,-14.648,-40.527,12.695,0.000
1105.000,20.020,-15.137,-39.062,20.996,0.000
1109.000,11.719,-21.973,-33.691,5.859,0.000
1113.000,13.184,-19.043,-34.668,-14.648,0.000
1117.000,14.648,-14.160,-34.668,-7.812,0.000
1121.000,7.812,-20.996,-26.855,-6.348,0.000
1125.000,-10.742,-26.367,-22.949,-21.973,0.000
1129.000,9.766,-22.461,-25.391,-13.184,0.000
1133.000,11.719,-20.020,-24.902,-10.742,0.000
1137.000,-8.301,-22.949,-31.250,-26.855,0.000
1141.000,-5.371,-26.367,-34.668,-33.691,0.000
1144.000,-21.973,-32.227,-35.156,-32.227,0.000
1148.000,-35.645,-36.621,-38.574,-36.621,0.000
1152.000,-33.203,-37.109,-38.086,-38.574,0.000
1156.000,-37.109,-38.086,-36.133,-27.832,0.000
1160.000,-58.105,-41.016,-31.738,-19.531,0.000
1164.000,-70.801,-42.969,-35.156,-26.367,0.000
1168.000,-57.617,-39.062,-38.574,-23.926,0.000
1172.000,-49.805,-38.574,-36.621,-20.020,0.000
1176.000,-44.434,-42.480,-35.645,-32.715,0.000
1180.000,-47.363,-41.016,-34.180,-44.922,0.000
1184.000,-44.922,-41.992,-39.551,-35.156,0.000
1187.000,-47.852,-44.922,-43.457,-30.273,0.000
1191.000,-56.152,-45.410,-42.480,-34.180,0.000
1195.000,-55.664,-42.480,-39.062,-34.668,0.000
1199.000,-41.992,-38.574,-39.062,-38.086,0.000
1203.000,-25.391,-39.551,-40.527,-28.320,0.000
1207.000,-26.855,-37.598,-29.297,-17.578,0.000
1211.000,-42.969,-36.133,-28.320,-24.414,0.000
1215.000,-50.781,-34.668,-30.762,-35.156,0.000
1219.000,-33.691,-34.668,-34.180,-43.945,0.000
1223.000,-19.043,-36.133,-36.621,-46.875,0.000
1227.000,-24.902,-36.621,-31.250,-41.016,0.000
1230.000,-28.320,-38.086,-33.203,-40.527,0.000
1234.000,-24.902,-34.180,-33.691,-32.715,0.000
1238.000,-18.555,-30.273,-30.762,-21.484,0.000
1242.000,-29.785,-29.297,-33.691,-16.602,0.000
1246.000,-31.738,-24.902,-34.668,-16.602,0.000
1250.000,-13.184,-25.391,-31.738,-12.695,0.000
1254.000,-10.742,-25.391,-30.762,-4.395,0.000
1258.000,-24.414,-20.020,-29.785,-0.488,0.000
1262.000,-35.156,-23.926,-29.785,-2.441,0.000
1266.000,-37.109,-28.809,-29.297,-10.254,0.000
1269.000,-28.320,-28.320,-25.879,-17.578,0.000
1273.000,-21.973,-24.902,-23.926,-24.902,0.000
1277.000,-28.809,-28.809,-32.227,-26.367,0.000
1281.000,-34.668,-35.645,-36.621,-25.391,0.000
1285.000,-40.039,-33.203,-34.668,-25.879,0.000
1289.000,-37.109,-30.762,-37.109,-28.320,0.000
1293.000,-27.344,-27.344,-33.691,-18.555,0.000
1297.000,-27.832,-26.367,-33.203,-12.695,0.000
1301.000,-22.949,-31.250,-35.156,-14.648,0.000
1305.000,-10.742,-32.715,-36.621,-15.625,0.000
1309.000,-0.488,-31.738,-35.645,-25.879,0.000
1312.000,-14.160,-32.227,-35.156,-39.062,0.000
1316.000,-11.230,-28.320,-32.715,-40.527,0.000
1320.000,-3.418,-22.461,-28.320,-27.344,0.000
1324.000,-15.137,-25.391,-32.227,-20.996,0.000
1328.000,-27.344,-31.250,-32.715,-21.484,0.000
1332.000,-43.457,-35.645,-28.809,-24.902,0.000
1336.000,-41.504,-39.551,-35.645,-29.785,0.000
1340.000,-18.555,-33.203,-32.227,-16.113,0.000
1344.000,-21.973,-38.086,-19.043,-9.766,0.000
1348.000,-69.336,-43.945,-24.902,-37.598,0.000
1352.000,-79.590,-42.480,-36.621,-56.152,0.000
1355.000,-68.359,-50.781,-33.203,-58.594,0.000
1359.000,-72.754,-58.105,-23.438,-78.125,0.000
1363.000,-86.914,-54.199,-21.973,-102.539,0.000
1367.000,-97.656,-51.758,-24.414,-123.535,0.000
1371.000,-115.234,-50.781,-28.809,-136.719,0.000
1375.000,-135.254,-49.316,-24.414,-128.906,0.000
1379.000,-136.719,-62.500,-29.297,-125.000,0.000
1383.000,-138.672,-61.523,-30.273,-136.230,0.000
1387.000,-137.207,-55.176,-23.438,-139.160,0.000
1391.000,-136.230,-63.477,-35.156,-139.648,0.000
1394.000,-141.602,-60.059,-36.621,-158.691,0.000
1398.000,-147.461,-52.246,-24.414,-165.039,0.000
1402.000,-136.230,-48.340,-25.391,-151.367,0.000
1406.000,-135.742,-43.945,-30.273,-151.367,0.000
1410.000,-143.066,-68.359,-17.578,-150.879,0.000
1414.000,-154.297,-81.543,-10.254,-150.391,0.000
1418.000,-177.734,-63.965,-22.949,-159.668,0.000
1422.000,-174.805,-65.918,-30.273,-151.855,0.000
1426.000,-168.945,-69.336,-31.738,-146.484,0.000
1430.000,-167.969,-65.430,-37.109,-137.207,0.000
1434.000,-151.367,-55.176,-34.668,-113.770,0.000
1437.000,-145.996,-49.805,-29.785,-106.934,0.000
1441.000,-135.254,-58.105,-27.344,-108.398,0.000
1445.000,-125.000,-60.059,-25.391,-105.469,0.000
1449.000,-119.141,-56.152,-30.273,-96.680,0.000
1453.000,-98.633,-51.758,-29.297,-76.660,0.000
1457.000,-92.773,-49.805,-24.902,-63.965,0.000
1461.000,-94.727,-49.805,-22.949,-65.918,0.000
1465.000,-84.961,-49.316,-24.414,-62.500,0.000
1469.000,-75.195,-44.922,-23.926,-53.223,0.000
1473.000,-63.965,-36.621,-23.438,-53.711,0.000
1477.000,-68.848,-35.156,-24.902,-53.223,0.000
1480.000,-70.312,-37.109,-20.996,-45.410,0.000
1484.000,-59.082,-37.109,-21.973,-48.340,0.000
1488.000,-45.898,-31.738,-27.832,-48.828,0.000
1492.000,-35.645,-31.250,-26.855,-35.645,0.000
1496.000,-41.016,-35.645,-27.832,-43.457,0.000
1500.000,-55.176,-36.133,-35.156,-57.617,0.000
1504.000,-61.035,-35.156,-36.621,-49.805,0.000
1508.000,-53.223,-33.203,-35.156,-42.969,0.000
1512.000,-54.199,-37.598,-34.180,-43.457,0.000
1516.000,-42.480,-41.504,-31.738,-41.992,0.000
1519.000,-42.969,-41.016,-36.621,-41.504,0.000
1523.000,-69.336,-36.621,-37.109,-36.621,0.000
1527.000,-71.777,-34.180,-30.762,-29.785,0.000
1531.000,-62.500,-34.668,-29.297,-28.809,0.000
1535.000,-56.152,-32.227,-26.855,-25.391,0.000
1539.000,-57.129,-32.227,-30.762,-28.320,0.000
1543.000,-54.688,-39.551,-30.762,-25.879,0.000
1547.000,-51.758,-43.945,-24.902,-22.461,0.000
1551.000,-55.176,-37.109,-21.484,-16.113,0.000
1555.000,-50.293,-31.738,-21.973,-1.953,0.000
1559.000,-41.016,-29.785,-32.227,-20.020,0.000
1562.000,-41.016,-28.320,-38.574,-53.711,0.000
1566.000,-45.410,-26.367,-32.715,-59.082,0.000
1570.000,-45.410,-29.297,-21.484,-49.805,0.000
1574.000,-45.410,-36.621,-24.414,-40.527,0.000
1578.000,-48.340,-39.062,-26.855,-40.527,0.000
1582.000,-52.734,-30.762,-20.508,-35.156,0.000
1586.000,-52.734,-25.391,-20.508,-26.367,0.000
1590.000,-46.387,-26.855,-29.785,-30.273,0.000
1594.000,-41.016,-22.949,-32.715,-41.504,0.000
1598.000,-38.574,-29.297,-27.344,-51.758,0.000
1602.000,-28.809,-25.879,-29.785,-57.617,0.000
1605.000,-15.137,-14.160,-27.832,-59.082,0.000
1609.000,-24.902,-18.555,-27.344,-60.059,0.000
1613.000,-40.039,-20.020,-27.344,-51.270,0.000
1617.000,-44.434,-17.090,-24.414,-42.480,0.000
1621.000,-51.270,-18.066,-21.973,-36.133,0.000
1625.000,-48.828,-20.508,-26.367,-25.391,0.000
1629.000,-50.293,-25.391,-32.227,-26.855,0.000
1633.000,-51.270,-30.762,-27.832,-27.832,0.000
1637.000,-42.969,-27.344,-30.273,-26.367,0.000
1641.000,-49.316,-24.414,-34.180,-26.855,0.000
1644.000,-64.453,-28.320,-31.250,-30.762,0.000
1648.000,-63.965,-27.344,-33.203,-36.621,0.000
1652.000,-49.805,-26.855,-34.180,-33.691,0.000
1656.000,-37.598,-28.809,-30.273,-32.715,0.000
1660.000,-39.551,-30.762,-33.691,-37.598,0.000
1664.000,-45.898,-30.762,-34.668,-42.480,0.000
1668.000,-50.293,-33.691,-30.273,-34.668,0.000
1672.000,-41.992,-31.738,-29.297,-40.527,0.000
1676.000,-31.738,-28.809,-29.785,-54.199,0.000
1680.000,-41.992,-29.297,-25.879,-54.199,0.000
1684.000,-41.016,-29.785,-22.461,-51.270,0.000
1687.000,-34.180,-29.297,-25.391,-54.688,0.000
1691.000,-37.598,-29.297,-24.414,-47.363,0.000
1695.000,-42.969,-32.227,-23.438,-29.785,0.000
1699.000,-43.945,-29.785,-26.855,-26.367,0.000
1703.000,-29.785,-24.414,-24.414,-34.668,0.000
1707.000,-25.391,-25.391,-20.996,-41.992,0.000
1711.000,-33.203,-23.438,-24.902,-46.387,0.000
1715.000,-38.574,-24.414,-28.320,-40.039,0.000
1719.000,-24.414,-25.391,-20.996,-24.414,0.000
1723.000,-37.598,-24.902,-20.508,-22.949,0.000
1726.000,-63.965,-19.531,-24.414,-32.227,0.000
1730.000,-57.617,-19.043,-23.438,-27.344,0.000
1734.000,-46.387,-24.414,-24.902,-19.043,0.000
1738.000,-54.199,-24.414,-28.809,-22.461,0.000
1742.000,-75.684,-23.438,-29.785,-33.691,0.000
1746.000,-70.312,-22.949,-27.832,-35.156,0.000
1750.000,-58.594,-25.391,-27.344,-22.949,0.000
1754.000,-35.645,-26.367,-30.762,-4.395,0.000
1758.000,-48.828,-24.902,-30.762,-17.090,0.000
1762.000,-77.148,-21.973,-23.926,-32.715,0.000
1766.000,-60.059,-22.949,-25.879,-30.762,0.000
1769.000,-42.969,-25.879,-29.297,-31.738,0.000
1773.000,-31.250,-24.902,-27.832,-25.879,0.000
1777.000,-29.785,-20.508,-26.855,-37.109,0.000
1781.000,-41.016,-17.090,-22.949,-62.988,0.000
1785.000,-41.992,-15.137,-21.484,-80.078,0.000
1789.000,-20.996,-6.836,-17.090,-74.219,0.000
1793.000,-8.301,-5.371,-22.461,-65.430,0.000
1797.000,2.930,-6.836,-26.367,-56.641,0.000
1801.000,-4.395,-7.324,-31.250,-42.969,0.000
1805.000,-15.137,-10.742,-33.203,-41.016,0.000
1809.000,-11.230,-7.812,-27.832,-35.156,0.000
1812.000,-18.066,-6.348,-30.762,-15.625,0.000
1816.000,-23.926,-9.277,-25.879,-13.184,0.000
1820.000,-40.527,-4.395,-24.414,-8.301,0.000
1824.000,-38.574,-0.488,-27.344,-7.812,0.000
1828.000,-27.344,-6.348,-24.902,-14.648,0.000
1832.000,-15.137,-9.766,-32.227,-8.789,0.000
1836.000,8.301,-1.465,-37.109,16.113,0.000
1840.000,4.883,0.488,-30.273,24.902,0.000
1844.000,-1.465,-6.836,-35.645,15.137,0.000
1848.000,17.090,-5.371,-37.598,17.578,0.000
1851.000,33.691,-2.930,-30.762,25.391,0.000
1855.000,31.738,-5.371,-34.180,30.762,0.000
1859.000,37.598,-7.812,-38.574,32.227,0.000
1863.000,45.898,-2.441,-29.297,37.598,0.000
1867.000,41.016,1.465,-21.484,34.668,0.000
1871.000,50.781,-1.465,-19.531,41.992,0.000
1875.000,51.270,-9.766,-22.949,31.738,0.000
1879.000,46.387,-11.230,-23.438,9.277,0.000
1883.000,73.242,-10.254,-20.508,25.879,0.000
1887.000,87.402,-15.137,-23.926,23.438,0.000
1891.000,86.914,-18.555,-22.949,11.719,0.000
1894.000,101.074,-13.184,-16.602,25.879,0.000
1898.000,69.824,-9.766,-18.555,37.109,0.000
1902.000,16.602,-14.160,-18.555,37.598,0.000
1906.000,9.766,-17.090,-14.648,29.297,0.000
1910.000,25.879,-12.695,-12.695,39.551,0.000
1914.000,22.949,-9.766,-13.184,47.852,0.000
1918.000,5.371,-15.625,-18.555,33.203,0.000
1922.000,8.789,-20.508,-16.113,28.320,0.000
1926.000,16.602,-20.508,-14.648,34.180,0.000
1930.000,27.344,-21.484,-21.484,43.457,0.000
1934.000,38.574,-24.902,-20.020,47.363,0.000
1937.000,39.062,-26.367,-9.766,45.898,0.000
1941.000,33.691,-31.250,-12.695,47.852,0.000
1945.000,31.250,-30.762,-16.602,52.734,0.000
1949.000,13.672,-25.879,-9.277,25.879,0.000
1953.000,12.207,-25.391,-3.418,15.625,0.000
1957.000,32.227,-23.926,-7.324,18.066,0.000
1961.000,39.551,-19.531,-16.602,1.953,0.000
1965.000,44.434,-14.648,-16.602,-3.418,0.000
1969.000,41.504,-19.043,-11.230,-13.672,0.000
1973.000,39.062,-25.879,-11.719,-12.695,0.000
1976.000,28.809,-21.484,-15.625,-5.371,0.000
1980.000,4.395,-23.926,-19.531,3.906,0.000
1984.000,9.277,-28.809,-19.043,9.277,0.000
1988.000,15.137,-29.785,-18.066,3.418,0.000
1992.000,-2.441,-30.762,-14.160,-0.977,0.000
1996.000,-35.156,-31.250,-17.090,-8.301,0.000
2000.000,-31.250,-29.785,-21.973,-13.184,0.000
2004.000,-2.930,-26.367,-20.020,-5.371,0.000
2008.000,-12.695,-33.203,-20.996,-2.441,0.000
2012.000,-22.949,-31.738,-21.484,-1.465,0.000
2016.000,-19.043,-25.879,-21.973,-3.906,0.000
2019.000,-18.066,-25.879,-23.926,-7.812,0.000
2023.000,-17.090,-23.438,-20.020,-4.395,0.000
2027.000,-16.113,-24.902,-20.020,-9.277,0.000
2031.000,-25.391,-31.738,-25.391,-26.367,0.000
2035.000,-22.461,-33.203,-26.855,-20.996,0.000
2039.000,-11.719,-26.855,-27.832,-9.277,0.000
2043.000,-2.441,-24.414,-24.902,-12.207,0.000
2047.000,-14.160,-26.855,-21.973,-4.883,0.000
2051.000,-37.598,-32.715,-27.832,4.883,0.000
2055.000,-41.504,-31.250,-34.180,-7.324,0.000
2059.000,-37.109,-27.832,-32.715,-26.855,0.000
2062.000,-32.227,-29.297,-31.250,-36.133,0.000
2066.000,-28.320,-31.738,-39.551,-47.363,0.000
2070.000,-22.461,-34.180,-43.457,-47.852,0.000
2074.000,-16.602,-32.227,-39.062,-38.574,0.000
2078.000,-23.438,-27.832,-43.457,-34.180,0.000
2082.000,-24.902,-29.785,-41.992,-29.785,0.000
2086.000,-29.785,-27.344,-40.039,-38.086,0.000
2090.000,-34.180,-26.855,-38.574,-40.527,0.000
2094.000,-31.738,-28.320,-35.156,-27.832,0.000
2098.000,-21.973,-26.367,-37.598,-20.508,0.000
2101.000,-14.160,-27.832,-37.598,-11.719,0.000
2105.000,-27.344,-31.738,-38.574,-2.930,0.000
2109.000,-33.691,-31.738,-37.109,-4.883,0.000
2113.000,-36.133,-33.203,-31.250,9.766,0.000
2117.000,-28.809,-41.992,-36.621,16.602,0.000
2121.000,-11.719,-41.016,-35.645,6.348,0.000
2125.000,-14.160,-32.715,-28.809,12.207,0.000
2129.000,-32.715,-29.785,-33.203,12.207,0.000
2133.000,-27.832,-28.809,-38.086,2.930,0.000
2137.000,-19.043,-29.297,-35.156,1.465,0.000
2141.000,-23.926,-31.738,-35.156,1.953,0.000
2144.000,-5.859,-25.879,-33.691,20.508,0.000
2148.000,4.883,-33.691,-21.973,16.113,0.000
2152.000,-20.508,-43.457,-22.461,-23.438,0.000
2156.000,-51.270,-43.457,-38.574,-39.551,0.000
2160.000,-61.035,-53.711,-40.039,-47.852,0.000
2164.000,-64.941,-57.129,-40.039,-67.383,0.000
2168.000,-82.520,-51.270,-45.898,-88.379,0.000
2172.000,-86.426,-64.941,-37.109,-89.355,0.000
2176.000,-118.164,-72.266,-32.715,-94.238,0.000
2180.000,-153.320,-61.035,-25.879,-105.957,0.000
2184.000,-152.832,-50.781,-23.438,-101.562,0.000
2187.000,-152.832,-60.547,-35.645,-101.562,0.000
2191.000,-151.855,-67.871,-41.504,-116.211,0.000
2195.000,-166.504,-52.734,-38.086,-127.930,0.000
2199.000,-182.617,-52.734,-33.203,-144.043,0.000
2203.000,-168.945,-53.223,-37.598,-140.625,0.000
2207.000,-157.715,-54.688,-41.992,-124.512,0.000
2211.000,-160.645,-54.688,-30.273,-128.906,0.000
2215.000,-164.551,-56.641,-16.113,-126.953,0.000
2219.000,-171.875,-66.406,-17.578,-117.676,0.000
2223.000,-157.227,-57.129,-17.578,-107.910,0.000
2226.000,-140.625,-54.688,-19.043,-112.793,0.000
2230.000,-145.508,-61.035,-22.949,-119.141,0.000
2234.000,-149.902,-53.711,-30.762,-117.676,0.000
2238.000,-139.648,-45.410,-35.156,-113.281,0.000
2242.000,-116.211,-39.551,-22.949,-99.609,0.000
2246.000,-105.469,-42.969,-23.438,-97.168,0.000
2250.000,-97.656,-51.270,-34.668,-86.426,0.000
2254.000,-77.148,-48.340,-39.551,-76.172,0.000
2258.000,-72.266,-45.410,-38.574,-63.477,0.000
2262.000,-87.402,-41.016,-31.738,-48.828,0.000
2266.000,-85.938,-41.992,-29.297,-45.410,0.000
2269.000,-62.500,-40.039,-34.668,-39.551,0.000
2273.000,-51.758,-33.691,-32.715,-20.996,0.000
2277.000,-56.152,-35.156,-30.273,-9.766,0.000
2281.000,-54.688,-34.668,-34.180,-20.508,0.000
2285.000,-36.621,-27.832,-32.715,-21.484,0.000
2289.000,-20.508,-27.832,-31.250,-20.996,0.000
2293.000,-18.555,-35.156,-33.691,-21.973,0.000
2297.000,-27.344,-37.598,-35.645,-16.113,0.000
2301.000,-18.555,-38.574,-38.574,-6.836,0.000
2305.000,-23.926,-45.410,-35.645,-2.930,0.000
2309.000,-39.062,-45.898,-26.855,0.000,0.000
2312.000,-31.250,-37.109,-23.438,7.812,0.000
2316.000,-20.996,-31.738,-31.738,12.695,0.000
2320.000,-20.508,-32.715,-32.227,12.207,0.000
2324.000,-31.250,-36.621,-25.391,-2.930,0.000
2328.000,-30.273,-41.504,-23.926,-15.137,0.000
2332.000,-29.297,-45.898,-34.180,-16.113,0.000
2336.000,-30.762,-38.574,-38.574,-8.301,0.000
2340.000,-35.156,-35.645,-28.809,-8.789,0.000
2344.000,-36.133,-37.598,-27.344,-10.742,0.000
2348.000,-18.066,-34.668,-31.250,-12.695,0.000
2351.000,-3.906,-30.273,-32.715,-20.996,0.000
2355.000,-12.207,-31.738,-25.391,-10.742,0.000
2359.000,-16.602,-29.785,-19.043,1.465,0.000
2363.000,-23.438,-24.414,-27.832,5.371,0.000
2367.000,-25.391,-27.344,-35.156,7.324,0.000
2371.000,-13.184,-29.785,-27.832,2.441,0.000
2375.000,-8.789,-34.668,-20.996,2.441,0.000
2379.000,-22.949,-37.598,-21.973,5.859,0.000
2383.000,-30.273,-32.227,-25.879,-0.488,0.000
2387.000,-27.344,-25.879,-28.320,-6.348,0.000
2391.000,-23.926,-22.461,-27.344,-8.301,0.000
2394.000,-23.926,-30.273,-30.273,-10.254,0.000
2398.000,-24.902,-36.621,-30.762,-5.859,0.000
2402.000,-37.109,-39.062,-32.715,-6.348,0.000
2406.000,-51.758,-42.480,-34.180,-8.789,0.000
2410.000,-48.828,-33.203,-27.344,-12.695,0.000
2414.000,-41.016,-22.461,-25.879,-26.855,0.000
2418.000,-41.016,-27.344,-28.809,-35.645,0.000
2422.000,-49.316,-39.062,-30.762,-34.180,0.000
2426.000,-43.457,-30.762,-30.273,-34.180,0.000
2430.000,-36.133,-17.578,-25.391,-32.715,0.000
2434.000,-27.344,-17.578,-22.461,-40.527,0.000
2437.000,-23.438,-21.973,-24.902,-51.758,0.000
2441.000,-39.062,-26.367,-27.344,-51.270,0.000
2445.000,-40.039,-27.832,-27.832,-49.805,0.000
2449.000,-34.668,-23.438,-26.855,-42.969,0.000
2453.000,-33.691,-24.902,-24.414,-34.180,0.000
2457.000,-31.738,-29.785,-22.461,-37.598,0.000
2461.000,-46.875,-31.250,-27.344,-43.945,0.000
2465.000,-43.945,-30.762,-32.227,-40.039,0.000
2469.000,-26.855,-31.738,-30.273,-30.762,0.000
2473.000,-28.809,-35.645,-27.344,-24.902,0.000
2476.000,-30.273,-29.297,-30.273,-26.367,0.000
2480.000,-20.996,-31.738,-32.715,-19.043,0.000
2484.000,-35.156,-38.574,-32.715,-20.508,0.000
2488.000,-41.992,-34.668,-34.668,-24.414,0.000
2492.000,-25.879,-30.273,-35.156,-32.715,0.000
2496.000,-19.043,-28.320,-33.691,-35.645,0.000
2500.000,-20.020,-32.715,-31.738,-23.438,0.000
2504.000,-34.180,-34.668,-32.715,-13.184,0.000
2508.000,-54.199,-33.203,-36.621,-6.348,0.000
2512.000,-60.547,-29.785,-33.203,-4.883,0.000
2516.000,-53.223,-32.227,-34.668,-8.789,0.000
2519.000,-44.434,-38.574,-39.062,-17.090,0.000
2523.000,-30.762,-34.668,-34.668,-18.066,0.000
2527.000,-32.715,-28.809,-32.227,-16.602,0.000
2531.000,-43.945,-34.180,-31.250,-12.695,0.000
2535.000,-41.016,-35.645,-33.203,-11.230,0.000
2539.000,-42.480,-32.227,-38.086,-12.695,0.000
2543.000,-54.688,-34.668,-32.715,-16.113,0.000
2547.000,-50.293,-37.109,-26.855,-20.996,0.000
2551.000,-44.434,-31.738,-30.273,-30.273,0.000
2555.000,-40.039,-26.855,-29.785,-37.598,0.000
2559.000,-39.062,-27.344,-27.344,-32.715,0.000
2562.000,-39.062,-29.297,-30.273,-36.621,0.000
2566.000,-39.062,-32.715,-34.668,-49.805,0.000
2570.000,-33.691,-30.762,-33.691,-54.199,0.000
2574.000,-29.785,-29.785,-30.273,-61.035,0.000
2578.000,-44.922,-32.715,-28.320,-72.266,0.000
2582.000,-39.062,-30.273,-28.809,-80.078,0.000
2586.000,-27.344,-26.367,-29.785,-80.566,0.000
2590.000,-38.574,-30.273,-32.227,-79.590,0.000
2594.000,-54.688,-29.297,-28.809,-82.520,0.000
2598.000,-78.125,-25.879,-26.855,-85.449,0.000
2601.000,-61.523,-29.785,-29.297,-84.473,0.000
2605.000,-34.668,-31.738,-25.879,-64.453,0.000
2609.000,-69.336,-30.273,-31.250,-62.988,0.000
2613.000,-104.980,-33.203,-35.645,-86.914,0.000
2617.000,-99.121,-35.156,-29.297,-75.195,0.000
2621.000,-71.777,-31.250,-23.926,-56.641,0.000
2625.000,-60.547,-25.879,-22.949,-55.176,0.000
2629.000,-50.781,-20.020,-22.461,-44.922,0.000
2633.000,-26.855,-16.602,-28.320,-39.551,0.000
2637.000,-21.973,-13.672,-28.320,-51.270,0.000
2641.000,-37.109,-13.672,-27.832,-63.477,0.000
2644.000,-35.156,-8.789,-20.996,-49.805,0.000
2648.000,-20.996,2.441,-20.020,-29.297,0.000
2652.000,-28.809,1.465,-35.156,-28.320,0.000
2656.000,-27.344,-1.953,-34.180,-32.227,0.000
2660.000,-24.414,-8.789,-43.945,-43.945,0.000
2664.000,-11.230,0.488,-36.133,-40.527,0.000
2668.000,6.836,15.625,-6.348,-32.715,0.000
2672.000,1.953,3.418,-24.902,-42.969,0.000
2676.000,13.672,-2.930,-46.875,-45.898,0.000
2680.000,12.695,-2.930,-37.109,-42.480,0.000
2683.000,20.020,-4.883,-37.109,-25.879,0.000
2687.000,16.602,1.465,-41.016,-7.812,0.000
2691.000,0.977,0.977,-28.809,-7.812,0.000
2695.000,28.320,1.465,-17.090,-4.883,0.000
2699.000,37.598,6.836,-5.371,18.555,0.000
2703.000,35.645,6.348,5.371,35.156,0.000
2707.000,23.926,6.348,13.184,37.598,0.000
2711.000,15.625,5.859,21.973,16.113,0.000
2715.000,32.227,4.883,25.879,3.906,0.000
2719.000,50.293,10.254,35.645,33.691,0.000
2723.000,51.758,12.695,48.828,45.410,0.000
2726.000,40.527,2.930,59.570,35.645,0.000
2730.000,43.945,-1.465,73.242,38.574,0.000
2734.000,40.039,1.465,84.473,23.438,0.000
2738.000,36.133,3.906,93.750,7.324,0.000
2742.000,37.598,2.441,103.027,-1.953,0.000
2746.000,36.133,3.906,116.699,8.789,0.000
2750.000,46.875,1.953,129.395,22.949,0.000
2754.000,54.199,-1.465,127.930,28.809,0.000
2758.000,47.852,0.488,130.371,33.203,0.000
2762.000,44.434,-1.465,130.371,19.531,0.000
2766.000,46.387,-1.953,123.535,24.902,0.000
2769.000,52.246,-4.883,116.699,36.621,0.000
2773.000,67.383,-10.254,111.328,23.926,0.000
2777.000,77.148,-5.371,108.887,27.832,0.000
2781.000,38.086,-1.465,101.562,31.738,0.000
2785.000,2.930,-8.789,89.844,23.438,0.000
2789.000,14.648,-10.742,75.684,38.086,0.000
2793.000,20.508,-14.160,69.824,42.969,0.000
2797.000,24.902,-18.066,64.453,27.344,0.000
2801.000,29.297,-16.113,49.316,20.996,0.000
2805.000,28.809,-16.113,34.180,10.742,0.000
2808.000,28.809,-15.137,28.809,5.859,0.000
2812.000,22.949,-18.555,24.902,9.766,0.000
2816.000,33.691,-24.902,20.996,8.301,0.000
2820.000,29.297,-22.461,16.602,12.207,0.000
2824.000,-2.441,-18.555,15.625,-3.418,0.000
2828.000,-4.883,-17.090,11.719,-21.484,0.000
2832.000,-12.695,-18.555,2.930,-10.254,0.000
2836.000,-14.648,-14.648,-0.977,-0.977,0.000
2840.000,-14.160,-16.113,-5.371,-23.926,0.000
2844.000,-24.414,-29.297,-11.719,-46.875,0.000
2848.000,-16.602,-30.762,-19.531,-55.664,0.000
2851.000,-14.160,-30.762,-24.902,-58.105,0.000
2855.000,-13.672,-28.809,-22.461,-51.270,0.000
2859.000,-17.090,-29.785,-23.926,-47.363,0.000
2863.000,-34.668,-37.598,-29.297,-45.898,0.000
2867.000,-41.016,-35.156,-30.762,-42.969,0.000
2871.000,-37.598,-29.785,-31.738,-35.156,0.000
2875.000,-39.062,-36.621,-36.133,-33.203,0.000
2879.000,-42.480,-33.203,-38.574,-32.715,0.000
2883.000,-41.992,-24.414,-36.621,-25.391,0.000
2887.000,-35.156,-28.320,-34.668,-20.508,0.000
2891.000,-26.855,-31.250,-36.133,-20.508,0.000
2894.000,-21.484,-27.832,-41.504,-19.531,0.000
2898.000,-19.531,-27.344,-43.945,-14.648,0.000
2902.000,-15.625,-24.414,-41.016,-11.719,0.000
2906.000,-12.695,-25.391,-47.363,-18.066,0.000
2910.000,-11.719,-26.855,-54.688,-28.809,0.000
2914.000,-21.973,-26.367,-55.176,-32.715,0.000
2918.000,-18.066,-26.367,-57.129,-29.297,0.000
2922.000,-2.441,-28.809,-51.270,-20.508,0.000
2926.000,-14.648,-30.273,-48.340,-11.719,0.000
2930.000,-37.598,-27.832,-52.734,-15.625,0.000
2933.000,-39.062,-26.367,-52.734,-10.742,0.000
2937.000,-34.668,-27.832,-47.852,-9.766,0.000
2941.000,-34.180,-29.785,-45.410,-15.625,0.000
2945.000,-24.902,-28.320,-45.410,-4.883,0.000
2949.000,-17.578,-26.855,-45.410,1.465,0.000
2953.000,-18.066,-32.715,-42.480,-1.465,0.000
2957.000,-20.508,-37.109,-42.969,0.488,0.000
2961.000,-4.395,-35.645,-37.109,23.926,0.000
2965.000,-2.441,-43.457,-25.391,19.043,0.000
2969.000,-42.480,-47.363,-26.367,-16.602,0.000
2973.000,-73.242,-43.945,-34.668,-22.949,0.000
2976.000,-60.547,-42.969,-34.180,-21.973,0.000
2980.000,-65.430,-48.828,-34.668,-33.203,0.000
2984.000,-92.773,-52.734,-44.922,-57.129,0.000
2988.000,-91.797,-57.129,-39.551,-75.195,0.000
2992.000,-84.473,-59.570,-26.855,-88.379,0.000
2996.000,-92.285,-58.594,-30.762,-98.145,0.000
3000.000,-99.121,-62.988,-36.133,-107.422,0.000
3004.000,-113.770,-61.035,-41.504,-125.000,0.000
3008.000,-148.926,-59.082,-35.645,-126.465,0.000
3012.000,-179.199,-65.918,-31.250,-121.094,0.000
3016.000,-187.500,-63.477,-39.551,-129.395,0.000
3019.000,-167.480,-56.152,-39.062,-135.254,0.000
3023.000,-168.457,-62.988,-37.598,-133.789,0.000
3027.000,-181.152,-61.035,-41.016,-129.883,0.000
3031.000,-179.688,-56.641,-52.734,-130.371,0.000
3035.000,-165.039,-63.965,-60.059,-122.559,0.000
3039.000,-146.973,-69.824,-47.363,-108.398,0.000
3043.000,-144.043,-60.547,-40.527,-106.445,0.000
3047.000,-142.090,-60.547,-46.875,-106.934,0.000
3051.000,-134.766,-69.824,-42.969,-102.539,0.000
3055.000,-125.000,-65.430,-41.016,-100.098,0.000
3058.000,-130.371,-63.477,-49.805,-104.492,0.000
3062.000,-124.512,-61.523,-47.852,-94.727,0.000
3066.000,-104.980,-53.711,-43.457,-84.473,0.000
3070.000,-89.844,-56.152,-46.387,-78.125,0.000
3074.000,-87.891,-52.734,-45.410,-71.289,0.000
3078.000,-96.191,-46.387,-42.480,-75.195,0.000
3082.000,-85.449,-47.852,-50.293,-87.891,0.000
3086.000,-73.730,-47.363,-56.641,-80.566,0.000
3090.000,-70.801,-46.875,-50.781,-63.965,0.000
3094.000,-57.617,-45.898,-44.434,-54.688,0.000
3098.000,-47.852,-39.062,-45.898,-50.293,0.000
3101.000,-37.109,-37.598,-42.969,-48.340,0.000
3105.000,-34.180,-38.574,-37.598,-34.180,0.000
3109.000,-41.504,-37.109,-35.645,-18.555,0.000
3113.000,-48.828,-42.480,-34.668,-16.113,0.000
3117.000,-49.316,-43.457,-31.250,-9.766,0.000
3121.000,-37.598,-40.039,-31.250,-3.906,0.000
3125.000,-30.762,-40.527,-35.156,3.418,0.000
3129.000,-22.461,-42.969,-32.715,17.090,0.000
3133.000,-16.113,-39.551,-32.227,12.207,0.000
3137.000,-9.766,-34.668,-37.109,-5.859,0.000
3141.000,-0.977,-30.762,-38.086,-15.137,0.000
3144.000,-5.859,-33.691,-42.480,-21.973,0.000
3148.000,-10.254,-31.738,-43.945,-27.832,0.000
3152.000,-15.137,-29.785,-40.039,-21.973,0.000
3156.000,-29.785,-30.762,-38.086,-16.113,0.000
3160.000,-45.898,-30.273,-41.016,-29.785,0.000
3164.000,-46.387,-34.668,-42.969,-46.875,0.000
3168.000,-33.691,-32.227,-37.598,-55.176,0.000
3172.000,-22.461,-22.949,-30.273,-49.316,0.000
3176.000,-23.926,-20.508,-30.273,-41.504,0.000
3180.000,-31.738,-24.902,-33.203,-47.852,0.000
3183.000,-34.180,-29.785,-32.715,-52.246,0.000
3187.000,-38.086,-29.297,-34.668,-54.688,0.000
3191.000,-43.945,-26.367,-34.668,-61.035,0.000
3195.000,-50.781,-26.367,-34.180,-68.848,0.000
3199.000,-51.758,-26.855,-35.156,-58.105,0.000
3203.000,-57.617,-31.250,-38.086,-43.457,0.000
3207.000,-61.035,-36.133,-38.574,-38.086,0.000
3211.000,-63.477,-41.504,-43.945,-31.250,0.000
3215.000,-61.035,-39.551,-46.875,-35.645,0.000
3219.000,-56.152,-33.691,-41.504,-34.668,0.000
3223.000,-50.293,-34.180,-42.969,-28.809,0.000
3226.000,-35.645,-29.297,-42.480,-39.551,0.000
3230.000,-23.926,-25.391,-35.645,-36.133,0.000
3234.000,-28.320,-23.926,-38.086,-20.996,0.000
3238.000,-43.457,-28.320,-41.504,-24.902,0.000
3242.000,-46.387,-31.250,-41.016,-29.785,0.000
3246.000,-41.992,-29.785,-40.039,-25.879,0.000
3250.000,-24.414,-26.855,-39.062,-29.297,0.000
3254.000,-6.836,-18.066,-32.227,-29.297,0.000
3258.000,-6.836,-18.555,-28.809,-24.902,0.000
3262.000,-9.277,-22.461,-37.109,-31.250,0.000
3266.000,-16.113,-23.438,-40.527,-30.273,0.000
3269.000,-15.137,-30.273,-38.574,-27.832,0.000
3273.000,-20.020,-33.203,-32.715,-26.367,0.000
3277.000,-40.527,-29.785,-23.926,-27.832,0.000
3281.000,-51.270,-36.133,-26.367,-28.320,0.000
3285.000,-36.133,-36.621,-26.855,-36.621,0.000
3289.000,-23.926,-27.832,-24.414,-41.504,0.000
3293.000,-26.367,-25.391,-29.297,-34.180,0.000
3297.000,-31.250,-25.879,-33.203,-28.809,0.000
3301.000,-37.109,-26.367,-29.785,-23.926,0.000
3305.000,-34.180,-25.879,-29.297,-26.855,0.000
3308.000,-40.039,-27.344,-36.621,-26.367,0.000
3312.000,-58.594,-28.320,-45.410,-23.438,0.000
3316.000,-62.012,-32.715,-44.922,-25.879,0.000
3320.000,-51.758,-36.621,-42.969,-19.531,0.000
3324.000,-51.758,-31.738,-40.527,-7.812,0.000
3328.000,-54.199,-25.391,-32.715,-4.395,0.000
3332.000,-55.664,-24.902,-34.668,-17.090,0.000
3336.000,-51.270,-25.391,-45.410,-35.645,0.000
3340.000,-40.527,-26.367,-49.805,-53.223,0.000
3344.000,-36.621,-31.738,-47.363,-57.617,0.000
3348.000,-29.785,-26.855,-38.574,-48.828,0.000
3351.000,-29.785,-25.391,-41.504,-59.570,0.000
3355.000,-36.621,-23.926,-32.715,-56.641,0.000
3359.000,-44.434,-23.438,-20.508,-50.781,0.000
3363.000,-51.758,-29.297,-31.738,-69.336,0.000
3367.000,-60.059,-31.738,-39.551,-79.590,0.000
3371.000,-66.406,-29.785,-39.062,-78.613,0.000
