timestamp,TP9,AF7,AF8,TP10,Right AUX
0.000,-42.480,-33.203,-28.320,-29.297,0.000
4.000,-41.504,-37.109,-32.715,-23.926,0.000
8.000,-31.738,-36.621,-33.203,-22.461,0.000
12.000,-34.180,-35.156,-36.133,-24.902,0.000
16.000,-40.527,-40.039,-35.156,-26.367,0.000
20.000,-40.527,-40.039,-32.715,-24.414,0.000
23.000,-39.551,-39.551,-35.156,-9.766,0.000
27.000,-30.273,-37.109,-31.250,-3.906,0.000
31.000,-16.602,-35.156,-25.391,-6.348,0.000
35.000,0.000,-32.715,-26.855,-4.883,0.000
39.000,-8.789,-30.762,-25.879,-2.930,0.000
43.000,-19.043,-28.809,-20.996,5.371,0.000
47.000,-29.297,-30.762,-23.926,2.930,0.000
51.000,-45.410,-34.180,-22.461,-12.695,0.000
55.000,-43.945,-30.273,-23.438,-18.066,0.000
59.000,-33.691,-28.809,-28.320,-10.254,0.000
62.000,-29.785,-30.762,-35.156,-15.625,0.000
66.000,-28.320,-28.809,-35.156,-27.344,0.000
70.000,-24.414,-28.320,-29.297,-23.438,0.000
74.000,-41.992,-32.715,-30.762,-20.508,0.000
78.000,-46.875,-31.250,-30.273,-21.484,0.000
82.000,-33.691,-28.809,-29.785,-29.785,0.000
86.000,-39.062,-34.668,-32.715,-48.340,0.000
90.000,-35.645,-36.621,-37.109,-45.898,0.000
94.000,-20.020,-36.621,-34.668,-24.902,0.000
98.000,-42.480,-40.527,-27.832,-35.645,0.000
102.000,-84.473,-37.598,-32.227,-63.965,0.000
105.000,-94.727,-41.992,-37.598,-71.289,0.000
109.000,-102.539,-52.246,-35.645,-77.148,0.000
113.000,-108.887,-48.828,-30.762,-96.680,0.000
117.000,-111.816,-43.457,-33.691,-111.816,0.000
121.000,-115.723,-43.945,-34.180,-109.375,0.000
125.000,-129.883,-48.828,-38.086,-122.070,0.000
129.000,-144.531,-54.199,-37.598,-132.324,0.000
133.000,-146.484,-60.547,-29.785,-131.836,0.000
137.000,-164.062,-58.105,-33.691,-151.367,0.000
141.000,-184.082,-52.734,-38.574,-162.109,0.000
145.000,-176.270,-57.129,-31.738,-163.574,0.000
148.000,-172.852,-62.012,-27.344,-163.086,0.000
152.000,-176.270,-66.895,-33.203,-163.086,0.000
156.000,-179.199,-65.918,-34.668,-169.922,0.000
160.000,-181.152,-59.082,-31.738,-169.922,0.000
164.000,-171.387,-46.387,-26.367,-162.109,0.000
168.000,-171.875,-49.316,-24.414,-156.738,0.000
172.000,-182.129,-62.012,-30.762,-162.598,0.000
176.000,-176.758,-64.453,-37.109,-159.180,0.000
180.000,-155.762,-59.570,-29.785,-139.648,0.000
184.000,-144.531,-59.570,-27.344,-135.254,0.000
187.000,-142.090,-61.035,-36.133,-145.020,0.000
191.000,-131.836,-59.082,-29.785,-123.047,0.000
195.000,-117.188,-59.570,-29.785,-88.867,0.000
199.000,-100.098,-55.664,-30.762,-71.777,0.000
203.000,-91.309,-53.223,-27.832,-64.453,0.000
207.000,-90.332,-54.199,-27.344,-53.711,0.000
211.000,-81.543,-46.875,-22.949,-41.504,0.000
215.000,-74.219,-44.922,-24.902,-29.785,0.000
219.000,-61.035,-46.875,-26.855,-27.832,0.000
223.000,-47.363,-41.016,-26.367,-33.203,0.000
227.000,-36.621,-29.785,-22.949,-24.902,0.000
230.000,-48.340,-29.785,-22.461,-22.461,0.000
234.000,-52.734,-32.715,-24.414,-36.621,0.000
238.000,-40.527,-32.227,-27.344,-43.457,0.000
242.000,-35.645,-33.691,-30.273,-38.086,0.000
246.000,-31.250,-31.250,-29.785,-40.527,0.000
250.000,-42.969,-36.133,-34.180,-48.340,0.000
254.000,-44.434,-43.457,-36.621,-40.527,0.000
258.000,-39.551,-39.062,-27.832,-19.531,0.000
262.000,-50.293,-32.227,-23.926,-13.184,0.000
266.000,-49.805,-33.691,-24.414,-19.531,0.000
270.000,-43.457,-38.574,-25.879,-23.438,0.000
273.000,-46.387,-40.039,-26.855,-25.391,0.000
277.000,-53.711,-41.504,-30.273,-18.066,0.000
281.000,-57.129,-45.410,-32.227,-20.020,0.000
285.000,-48.340,-41.504,-24.414,-22.461,0.000
289.000,-36.621,-37.109,-19.043,-17.578,0.000
293.000,-34.180,-40.039,-22.461,-16.113,0.000
297.000,-39.062,-37.598,-24.414,-17.578,0.000
301.000,-33.203,-32.227,-23.926,-26.855,0.000
305.000,-30.273,-31.738,-23.438,-19.531,0.000
309.000,-32.227,-32.715,-25.879,-12.695,0.000
312.000,-35.645,-31.250,-25.391,-20.508,0.000
316.000,-33.203,-26.367,-24.902,-26.855,0.000
320.000,-29.297,-21.484,-25.879,-20.020,0.000
324.000,-37.598,-24.902,-22.949,-23.438,0.000
328.000,-34.180,-27.832,-19.531,-27.832,0.000
332.000,-25.391,-29.785,-19.043,-26.855,0.000
336.000,-34.668,-35.645,-22.461,-33.203,0.000
340.000,-44.922,-37.109,-26.855,-30.762,0.000
344.000,-38.086,-33.203,-27.344,-24.414,0.000
348.000,-30.762,-29.297,-23.926,-22.949,0.000
352.000,-23.926,-20.996,-17.578,-26.855,0.000
355.000,-18.555,-15.137,-17.578,-23.438,0.000
359.000,-35.645,-20.996,-24.414,-28.809,0.000
363.000,-55.664,-23.926,-23.438,-32.715,0.000
367.000,-53.223,-22.461,-19.043,-26.367,0.000
371.000,-55.664,-20.508,-21.484,-17.090,0.000
375.000,-51.758,-18.555,-21.973,-6.348,0.000
379.000,-51.270,-20.020,-22.949,-0.488,0.000
383.000,-52.246,-18.555,-23.926,-8.301,0.000
387.000,-41.992,-18.066,-27.344,-19.531,0.000
391.000,-27.832,-20.508,-25.391,-17.090,0.000
395.000,-24.902,-19.531,-21.973,-13.184,0.000
398.000,-25.391,-22.461,-22.949,-14.648,0.000
402.000,-24.414,-25.391,-25.879,-23.438,0.000
406.000,-28.809,-25.391,-27.832,-23.438,0.000
410.000,-32.715,-24.414,-26.855,-19.043,0.000
414.000,-25.879,-23.926,-22.949,-23.438,0.000
418.000,-23.926,-24.414,-25.391,-27.344,0.000
422.000,-30.762,-27.832,-26.855,-20.508,0.000
426.000,-29.785,-31.250,-25.879,-10.254,0.000
430.000,-33.691,-31.250,-26.855,-6.836,0.000
434.000,-26.855,-25.879,-24.902,-5.371,0.000
437.000,-22.949,-28.320,-28.320,-6.348,0.000
441.000,-22.949,-30.762,-26.855,-3.906,0.000
445.000,-27.832,-28.320,-25.391,-6.836,0.000
449.000,-31.250,-23.438,-26.855,-13.672,0.000
453.000,-31.738,-25.391,-24.902,-17.090,0.000
457.000,-49.805,-29.785,-26.855,-16.113,0.000
461.000,-49.316,-25.879,-28.809,-20.996,0.000
465.000,-39.551,-25.391,-27.832,-28.320,0.000
469.000,-34.668,-29.785,-25.879,-32.715,0.000
473.000,-33.203,-35.645,-28.809,-28.809,0.000
477.000,-31.738,-33.203,-27.832,-17.578,0.000
480.000,-30.762,-29.785,-26.367,-28.809,0.000
484.000,-33.691,-27.832,-25.879,-37.109,0.000
488.000,-35.645,-28.320,-28.320,-32.715,0.000
492.000,-29.297,-26.367,-28.320,-24.902,0.000
496.000,-20.508,-21.484,-25.391,-28.320,0.000
500.000,-20.996,-28.320,-29.297,-43.945,0.000
504.000,-20.508,-30.273,-32.715,-48.828,0.000
508.000,-13.672,-24.902,-32.715,-42.480,0.000
512.000,-13.672,-23.438,-27.832,-23.438,0.000
516.000,-22.461,-23.926,-31.738,-20.996,0.000
520.000,-48.828,-29.785,-38.574,-44.434,0.000
523.000,-69.336,-33.203,-39.551,-44.922,0.000
527.000,-47.852,-32.715,-37.598,-29.297,0.000
531.000,-16.113,-33.691,-37.598,-25.879,0.000
535.000,-9.277,-29.297,-33.691,-28.809,0.000
539.000,-20.508,-24.414,-32.227,-29.785,0.000
543.000,-20.996,-20.508,-34.180,-16.602,0.000
547.000,-15.137,-22.461,-30.762,-10.254,0.000
551.000,-14.160,-23.438,-30.762,-15.625,0.000
555.000,-2.441,-18.066,-29.785,-23.438,0.000
559.000,-0.977,-19.043,-29.297,-15.137,0.000
562.000,-9.277,-19.531,-32.715,0.488,0.000
566.000,-0.977,-20.020,-33.203,-12.207,0.000
570.000,10.254,-18.555,-28.809,-17.578,0.000
574.000,6.348,-19.531,-27.344,-3.418,0.000
578.000,1.465,-21.484,-28.809,10.254,0.000
582.000,7.324,-16.113,-26.367,16.602,0.000
586.000,9.277,-12.695,-23.926,22.949,0.000
590.000,8.789,-16.602,-22.461,33.691,0.000
594.000,24.902,-15.625,-20.996,36.133,0.000
598.000,31.738,-8.301,-21.973,20.020,0.000
602.000,29.297,-7.324,-24.414,4.883,0.000
605.000,38.574,-9.277,-25.391,13.184,0.000
609.000,36.133,-6.348,-22.949,33.203,0.000
613.000,41.016,-7.324,-20.996,36.621,0.000
617.000,57.617,-9.766,-26.367,29.297,0.000
621.000,56.641,-12.695,-30.762,31.738,0.000
625.000,43.945,-13.184,-30.273,38.086,0.000
629.000,24.902,-15.137,-25.879,45.898,0.000
633.000,8.789,-12.207,-20.996,43.457,0.000
637.000,8.301,-6.348,-23.438,37.598,0.000
641.000,16.602,-5.371,-26.367,28.320,0.000
645.000,27.832,0.977,-23.926,27.832,0.000
648.000,35.645,2.441,-26.367,24.414,0.000
652.000,34.668,-3.418,-29.785,17.090,0.000
656.000,23.438,-7.812,-29.297,23.438,0.000
660.000,27.832,-9.766,-28.809,32.227,0.000
664.000,32.715,-8.301,-29.297,39.062,0.000
668.000,30.273,-10.254,-26.367,40.039,0.000
672.000,37.598,-14.648,-22.949,41.504,0.000
676.000,43.457,-13.672,-18.066,46.387,0.000
680.000,33.203,-9.277,-19.043,49.805,0.000
684.000,40.039,-12.207,-24.414,46.387,0.000
687.000,49.316,-17.090,-27.344,31.738,0.000
691.000,41.504,-13.672,-24.902,34.668,0.000
695.000,26.855,-17.090,-21.484,38.086,0.000
699.000,12.207,-18.555,-21.973,36.621,0.000
703.000,0.488,-15.137,-22.461,37.109,0.000
707.000,0.488,-17.090,-21.484,32.227,0.000
711.000,14.648,-20.508,-21.973,28.320,0.000
715.000,4.395,-24.414,-20.996,21.484,0.000
719.000,3.418,-20.996,-18.066,17.090,0.000
723.000,17.090,-12.695,-20.020,13.184,0.000
727.000,7.324,-15.137,-23.926,13.184,0.000
730.000,-13.672,-29.297,-26.367,-7.812,0.000
734.000,-16.602,-33.203,-25.879,-22.949,0.000
738.000,-9.277,-30.762,-26.855,-18.066,0.000
742.000,-10.254,-33.691,-27.344,-17.090,0.000
746.000,-15.625,-32.227,-29.785,-20.020,0.000
750.000,-8.789,-29.297,-30.762,-18.066,0.000
754.000,-1.465,-31.738,-27.344,-16.113,0.000
758.000,-6.836,-29.297,-20.508,-19.043,0.000
762.000,0.977,-23.438,-18.555,-7.812,0.000
766.000,2.441,-21.973,-24.414,-8.789,0.000
770.000,-4.883,-20.020,-31.738,-19.531,0.000
773.000,8.301,-17.578,-27.344,-2.930,0.000
777.000,0.977,-22.461,-23.438,-10.742,0.000
781.000,-25.391,-26.855,-31.250,-33.203,0.000
785.000,-21.973,-33.203,-38.086,-23.438,0.000
789.000,-9.277,-30.273,-32.715,-10.254,0.000
793.000,-19.531,-25.391,-30.762,-11.719,0.000
797.000,-38.086,-24.902,-35.645,-28.320,0.000
801.000,-37.109,-28.320,-35.645,-42.480,0.000
805.000,-29.785,-35.645,-31.250,-31.738,0.000
809.000,-34.668,-35.645,-33.691,-31.250,0.000
812.000,-50.293,-36.133,-33.691,-33.203,0.000
816.000,-46.387,-34.668,-28.809,-28.809,0.000
820.000,-28.320,-30.762,-30.273,-34.180,0.000
824.000,-30.273,-29.785,-30.273,-38.086,0.000
828.000,-35.645,-31.250,-29.785,-37.598,0.000
832.000,-47.852,-38.574,-32.227,-48.340,0.000
836.000,-52.246,-38.086,-34.668,-48.340,0.000
840.000,-38.574,-31.738,-31.738,-33.691,0.000
844.000,-29.785,-32.227,-26.367,-22.461,0.000
848.000,-33.691,-31.738,-25.879,-21.973,0.000
852.000,-36.621,-29.297,-28.809,-25.879,0.000
855.000,-33.691,-27.832,-34.180,-23.926,0.000
859.000,-36.621,-35.645,-41.992,-19.043,0.000
863.000,-33.203,-34.668,-39.551,-13.184,0.000
867.000,-24.414,-30.762,-36.133,-17.578,0.000
871.000,-28.320,-35.645,-35.156,-17.578,0.000
875.000,-27.832,-37.109,-35.645,-11.719,0.000
879.000,-32.715,-35.156,-40.039,-19.043,0.000
883.000,-33.691,-32.227,-39.551,-27.344,0.000
887.000,-23.438,-30.273,-35.645,-29.297,0.000
891.000,-27.344,-31.738,-33.203,-23.926,0.000
895.000,-45.898,-33.691,-35.645,-26.855,0.000
898.000,-32.715,-30.762,-35.645,-30.762,0.000
902.000,-10.742,-27.832,-35.645,-20.508,0.000
906.000,-25.391,-27.344,-37.109,-24.414,0.000
910.000,-37.598,-27.344,-34.180,-26.367,0.000
914.000,-30.762,-30.762,-35.156,-30.762,0.000
918.000,-34.180,-32.227,-33.691,-29.785,0.000
922.000,-46.387,-32.227,-31.250,-13.672,0.000
926.000,-33.203,-37.109,-32.715,-12.207,0.000
930.000,-32.227,-38.574,-33.203,-16.113,0.000
934.000,-37.598,-34.668,-32.227,-21.484,0.000
937.000,-26.855,-30.762,-30.762,-24.414,0.000
941.000,-35.156,-39.062,-33.203,-17.090,0.000
945.000,-48.340,-39.551,-35.156,-15.137,0.000
949.000,-38.574,-34.668,-30.762,-22.461,0.000
953.000,-41.016,-40.527,-33.203,-30.762,0.000
957.000,-40.527,-44.922,-37.598,-32.715,0.000
961.000,-4.395,-40.527,-34.180,-14.648,0.000
965.000,1.465,-40.527,-22.949,-8.301,0.000
969.000,-53.223,-47.852,-16.602,-38.574,0.000
973.000,-89.355,-50.781,-19.043,-58.105,0.000
977.000,-75.684,-47.852,-27.832,-48.828,0.000
980.000,-83.008,-54.199,-27.832,-57.617,0.000
984.000,-105.469,-61.523,-22.461,-92.773,0.000
988.000,-98.145,-55.176,-21.973,-101.562,0.000
992.000,-109.375,-57.129,-20.020,-113.770,0.000
996.000,-135.254,-64.941,-20.996,-137.695,0.000
1000.000,-140.625,-68.848,-23.438,-146.484,0.000
1004.000,-159.180,-69.824,-24.414,-145.996,0.000
1008.000,-187.012,-75.684,-29.297,-139.160,0.000
1012.000,-187.500,-81.543,-29.785,-133.301,0.000
1016.000,-178.223,-83.008,-20.996,-142.578,0.000
1020.000,-185.547,-76.660,-23.438,-150.879,0.000
1023.000,-177.246,-66.406,-21.484,-130.859,0.000
1027.000,-155.273,-60.059,-12.207,-123.535,0.000
1031.000,-154.785,-59.082,-19.531,-138.184,0.000
1035.000,-160.645,-64.453,-27.344,-138.184,0.000
1039.000,-161.133,-73.242,-23.926,-121.094,0.000
1043.000,-155.762,-63.477,-28.320,-102.539,0.000
1047.000,-145.508,-50.293,-31.738,-113.770,0.000
1051.000,-138.184,-50.293,-28.809,-109.863,0.000
1055.000,-132.812,-53.711,-27.344,-93.262,0.000
1059.000,-116.211,-50.781,-26.855,-89.844,0.000
1062.000,-101.074,-44.922,-28.809,-71.289,0.000
1066.000,-87.891,-40.527,-28.809,-72.266,0.000
1070.000,-70.312,-41.016,-26.855,-80.566,0.000
1074.000,-60.547,-39.062,-25.391,-69.336,0.000
1078.000,-55.176,-36.133,-23.926,-63.477,0.000
1082.000,-38.574,-35.645,-27.344,-62.500,0.000
1086.000,-30.273,-32.715,-27.344,-54.688,0.000
1090.000,-23.926,-26.855,-21.484,-34.668,0.000
1094.000,-33.203,-31.250,-19.043,-31.738,0.000
1098.000,-51.270,-40.039,-20.020,-35.156,0.000
1102.000,-37.598,-32.715,-19.531,-21.973,0.000
1105.000,-27.344,-28.809,-20.508,-19.043,0.000
1109.000,-44.434,-34.180,-21.484,-22.461,0.000
1113.000,-49.805,-30.273,-18.066,-25.879,0.000
1117.000,-42.480,-25.879,-20.508,-31.738,0.000
1121.000,-35.156,-28.809,-24.414,-37.598,0.000
1125.000,-34.668,-32.715,-21.973,-28.320,0.000
1129.000,-49.316,-30.762,-21.484,-19.531,0.000
1133.000,-55.176,-27.832,-22.949,-23.926,0.000
1137.000,-46.387,-33.691,-28.809,-21.484,0.000
1141.000,-41.992,-32.715,-28.320,-7.324,0.000
1145.000,-32.227,-24.902,-19.531,4.395,0.000
1148.000,-29.297,-25.879,-23.438,-1.465,0.000
1152.000,-33.203,-27.344,-29.297,-5.371,0.000
1156.000,-25.879,-23.926,-30.762,-4.883,0.000
1160.000,-30.762,-25.391,-28.809,-9.277,0.000
1164.000,-35.156,-28.809,-26.367,-15.625,0.000
1168.000,-17.090,-29.297,-28.320,-21.484,0.000
1172.000,-11.719,-34.668,-33.203,-17.090,0.000
1176.000,-32.227,-37.598,-32.715,-13.184,0.000
1180.000,-38.574,-35.156,-29.297,-20.020,0.000
1184.000,-20.508,-29.785,-35.645,-29.785,0.000
1187.000,-20.508,-23.926,-32.227,-22.461,0.000
1191.000,-26.855,-26.855,-30.273,-14.160,0.000
1195.000,-20.996,-29.785,-33.203,-21.973,0.000
1199.000,-29.785,-30.273,-32.715,-27.344,0.000
1203.000,-40.039,-30.273,-30.273,-25.879,0.000
1207.000,-33.691,-28.809,-28.809,-15.137,0.000
1211.000,-37.109,-32.715,-31.738,-19.531,0.000
1215.000,-46.875,-33.203,-29.297,-33.203,0.000
1219.000,-47.852,-25.391,-29.785,-33.691,0.000
1223.000,-35.645,-20.508,-32.715,-28.320,0.000
1227.000,-26.855,-18.555,-27.344,-25.391,0.000
1230.000,-26.367,-21.484,-26.367,-31.738,0.000
1234.000,-30.273,-21.484,-33.691,-38.574,0.000
1238.000,-34.668,-22.461,-33.203,-36.621,0.000
1242.000,-31.250,-25.879,-30.273,-39.551,0.000
1246.000,-39.062,-22.461,-29.785,-40.527,0.000
1250.000,-63.477,-22.949,-27.832,-37.109,0.000
1254.000,-61.523,-24.414,-28.320,-37.598,0.000
1258.000,-51.758,-25.879,-25.879,-40.039,0.000
1262.000,-52.734,-25.391,-25.391,-46.387,0.000
1266.000,-60.547,-25.879,-24.902,-46.875,0.000
1270.000,-61.035,-24.414,-23.926,-40.527,0.000
1273.000,-50.293,-23.438,-26.367,-48.340,0.000
1277.000,-52.734,-25.391,-25.391,-45.410,0.000
1281.000,-41.016,-24.414,-24.902,-45.898,0.000
1285.000,-35.645,-23.926,-27.832,-58.594,0.000
1289.000,-44.434,-24.414,-29.297,-57.617,0.000
1293.000,-53.223,-24.414,-23.926,-61.035,0.000
1297.000,-59.570,-23.926,-25.879,-62.012,0.000
1301.000,-52.734,-21.973,-21.973,-62.500,0.000
1305.000,-43.945,-23.926,-18.066,-58.105,0.000
1309.000,-38.086,-27.344,-23.926,-46.387,0.000
1312.000,-45.898,-25.879,-22.461,-42.969,0.000
1316.000,-52.246,-25.391,-20.020,-40.527,0.000
1320.000,-44.922,-22.949,-18.555,-32.227,0.000
1324.000,-40.039,-24.902,-20.508,-32.715,0.000
1328.000,-40.039,-24.902,-25.391,-37.109,0.000
1332.000,-41.504,-23.438,-24.902,-35.156,0.000
1336.000,-48.828,-26.367,-28.320,-34.180,0.000
1340.000,-42.480,-29.785,-30.273,-16.602,0.000
1344.000,-38.086,-29.297,-24.902,-9.766,0.000
1348.000,-34.180,-26.855,-26.367,-24.414,0.000
1352.000,-14.648,-27.344,-27.344,-22.461,0.000
1355.000,5.371,-23.438,-23.438,1.465,0.000
1359.000,12.695,-21.973,-23.438,14.160,0.000
1363.000,-23.926,-23.926,-28.809,-12.207,0.000
1367.000,-67.871,-24.902,-32.227,-33.691,0.000
1371.000,-59.082,-19.043,-33.203,-24.414,0.000
1375.000,-35.156,-15.137,-38.574,-18.066,0.000
1379.000,-27.832,-10.742,-36.621,-16.602,0.000
1383.000,-11.230,-7.324,-33.691,-17.578,0.000
1387.000,-10.254,-10.254,-33.203,-15.625,0.000
1391.000,-17.578,-9.766,-32.227,-8.301,0.000
1394.000,-29.785,-11.719,-32.715,-13.672,0.000
1398.000,-27.832,-11.230,-29.297,-6.348,0.000
1402.000,-11.719,-14.160,-28.809,-6.348,0.000
1406.000,-11.230,-17.578,-30.273,-8.301,0.000
1410.000,-14.648,-13.672,-29.785,-2.930,0.000
1414.000,-24.902,-12.207,-29.297,-2.930,0.000
1418.000,-39.551,-18.066,-27.832,-3.906,0.000
1422.000,-39.551,-15.137,-29.297,-9.277,0.000
1426.000,-33.691,-16.602,-29.297,-13.184,0.000
1430.000,-31.250,-19.531,-24.902,-8.789,0.000
1434.000,-20.020,-15.137,-25.391,-7.812,0.000
1437.000,-21.484,-14.160,-29.297,-12.695,0.000
1441.000,-23.438,-12.695,-26.855,-10.254,0.000
1445.000,-22.461,-19.531,-27.344,-16.113,0.000
1449.000,-31.250,-19.043,-31.738,-23.926,0.000
1453.000,-32.227,-15.137,-32.227,-33.691,0.000
1457.000,-28.809,-19.531,-34.668,-36.621,0.000
1461.000,-27.344,-22.461,-31.738,-26.855,0.000
1465.000,-21.973,-20.996,-29.297,-25.391,0.000
1469.000,-11.230,-21.484,-33.203,-26.367,0.000
1473.000,-28.320,-20.996,-31.738,-20.996,0.000
1477.000,-54.688,-20.996,-30.273,-12.695,0.000
1480.000,-45.410,-21.973,-34.180,-17.578,0.000
1484.000,-28.320,-14.648,-30.762,-32.715,0.000
1488.000,-20.020,-13.184,-31.738,-31.250,0.000
1492.000,-6.836,-20.020,-36.621,-36.133,0.000
1496.000,-20.996,-24.902,-28.320,-38.086,0.000
1500.000,-36.621,-27.832,-27.832,-28.320,0.000
1504.000,-21.484,-28.320,-37.109,-31.738,0.000
1508.000,-32.715,-28.320,-36.621,-31.738,0.000
1512.000,-69.824,-31.250,-34.180,-39.551,0.000
1516.000,-81.543,-37.109,-35.645,-47.852,0.000
1519.000,-53.711,-35.156,-35.645,-28.320,0.000
1523.000,-31.738,-25.391,-30.273,-1.465,0.000
1527.000,-44.434,-25.391,-28.320,-16.602,0.000
1531.000,-56.641,-23.438,-31.250,-42.480,0.000
1535.000,-57.129,-29.297,-35.156,-49.805,0.000
1539.000,-56.641,-36.133,-36.133,-39.551,0.000
1543.000,-44.434,-30.273,-32.715,-15.137,0.000
1547.000,-30.273,-23.926,-28.320,-2.441,0.000
1551.000,-13.672,-22.461,-27.344,-0.977,0.000
1555.000,-6.348,-21.973,-29.297,-4.883,0.000
1559.000,-11.230,-14.648,-28.320,-16.602,0.000
1562.000,-16.113,-19.531,-31.738,-34.180,0.000
1566.000,-23.438,-15.625,-36.133,-38.086,0.000
1570.000,-34.668,-11.230,-32.227,-21.973,0.000
1574.000,-25.391,-14.160,-31.250,-9.277,0.000
1578.000,10.742,-3.906,-26.855,5.371,0.000
1582.000,28.809,-3.418,-25.879,-3.418,0.000
1586.000,29.785,-4.883,-29.785,-18.555,0.000
1590.000,31.250,-2.441,-30.273,1.953,0.000
1594.000,18.555,-2.930,-28.809,12.207,0.000
1598.000,14.160,-0.488,-31.250,0.977,0.000
1602.000,24.414,-1.953,-26.855,4.395,0.000
1605.000,16.113,-3.418,-23.926,13.184,0.000
1609.000,15.137,-2.930,-25.879,25.879,0.000
1613.000,40.039,-0.977,-20.508,38.574,0.000
1617.000,51.758,3.906,-20.996,33.691,0.000
1621.000,55.664,5.859,-24.902,36.621,0.000
1625.000,48.828,1.953,-24.902,52.246,0.000
1629.000,41.016,1.465,-26.855,55.176,0.000
1633.000,42.480,-3.418,-30.762,51.758,0.000
1637.000,63.965,-9.277,-28.320,64.941,0.000
1641.000,76.660,-5.371,-28.320,70.801,0.000
1644.000,68.848,-2.441,-28.320,76.660,0.000
1648.000,57.617,-4.883,-24.414,75.684,0.000
1652.000,48.828,-7.324,-18.555,72.266,0.000
1656.000,53.223,-7.812,-16.602,61.523,0.000
1660.000,53.223,-8.789,-26.367,47.363,0.000
1664.000,53.223,-11.719,-28.320,53.223,0.000
1668.000,59.570,-11.230,-23.438,51.270,0.000
1672.000,56.152,-11.719,-22.949,41.992,0.000
1676.000,39.062,-18.555,-28.809,29.297,0.000
1680.000,16.602,-20.020,-31.250,21.484,0.000
1684.000,11.230,-18.555,-28.320,12.695,0.000
1687.000,14.648,-20.020,-28.320,9.277,0.000
1691.000,24.902,-20.508,-28.809,19.043,0.000
1695.000,26.855,-20.996,-25.879,22.949,0.000
1699.000,12.695,-19.531,-21.484,28.320,0.000
1703.000,21.973,-17.578,-20.508,38.574,0.000
1707.000,29.297,-20.020,-22.949,39.551,0.000
1711.000,18.555,-20.996,-20.996,39.551,0.000
1715.000,31.250,-18.555,-14.648,52.246,0.000
1719.000,41.992,-19.043,-21.973,40.039,0.000
1723.000,27.832,-21.484,-33.203,15.137,0.000
1727.000,24.902,-23.438,-30.762,20.996,0.000
1730.000,35.645,-21.484,-27.832,24.902,0.000
1734.000,25.879,-17.090,-29.297,23.926,0.000
1738.000,18.066,-14.160,-23.438,27.832,0.000
1742.000,31.738,-18.066,-24.414,23.926,0.000
1746.000,41.504,-18.066,-27.832,24.902,0.000
1750.000,33.691,-11.719,-25.391,17.090,0.000
1754.000,7.324,-13.184,-20.996,6.348,0.000
1758.000,11.230,-17.578,-17.090,21.484,0.000
1762.000,16.113,-17.090,-22.461,27.344,0.000
1766.000,13.184,-21.973,-33.691,8.301,0.000
1769.000,13.184,-25.879,-34.668,8.789,0.000
1773.000,7.812,-20.020,-29.785,21.484,0.000
1777.000,-6.836,-21.484,-32.715,12.695,0.000
1781.000,-17.090,-27.832,-28.809,3.906,0.000
1785.000,-2.930,-24.414,-24.414,9.277,0.000
1789.000,3.906,-22.461,-28.809,7.812,0.000
1793.000,2.930,-22.461,-30.273,0.000,0.000
1797.000,-4.395,-25.391,-27.344,0.000,0.000
1801.000,-16.113,-27.344,-22.461,0.488,0.000
1805.000,-1.953,-23.438,-20.508,0.488,0.000
1809.000,0.488,-25.879,-23.438,-7.324,0.000
1812.000,-6.836,-34.180,-23.438,-26.855,0.000
1816.000,-6.348,-35.645,-21.484,-22.949,0.000
1820.000,-15.625,-33.691,-26.855,-25.391,0.000
1824.000,-19.531,-34.180,-31.738,-32.227,0.000
1828.000,-29.297,-29.785,-31.738,-35.645,0.000
1832.000,-20.996,-22.949,-34.180,-37.598,0.000
1836.000,-12.207,-26.855,-31.738,-39.551,0.000
1840.000,-41.016,-35.156,-28.320,-45.898,0.000
1844.000,-45.410,-41.504,-33.203,-47.363,0.000
1848.000,-43.457,-38.574,-34.180,-46.875,0.000
1852.000,-47.852,-31.250,-30.273,-48.828,0.000
1855.000,-43.945,-36.621,-30.273,-53.223,0.000
1859.000,-39.551,-41.016,-29.785,-35.156,0.000
1863.000,-20.508,-32.227,-25.879,-20.996,0.000
1867.000,-14.160,-26.367,-21.973,-23.438,0.000
1871.000,-23.438,-28.320,-20.996,-26.855,0.000
1875.000,-32.715,-31.738,-20.996,-25.391,0.000
1879.000,-34.668,-31.250,-18.555,-16.602,0.000
1883.000,-32.715,-29.297,-19.531,-12.207,0.000
1887.000,-26.855,-25.879,-21.973,-19.043,0.000
1891.000,-26.855,-27.344,-22.949,-18.555,0.000
1894.000,-25.879,-27.832,-22.949,-5.371,0.000
1898.000,-20.508,-25.879,-28.809,-12.207,0.000
1902.000,-12.695,-24.414,-31.250,-27.344,0.000
1906.000,-7.324,-26.367,-32.227,-29.297,0.000
1910.000,-19.043,-27.344,-31.738,-22.949,0.000
1914.000,-21.973,-24.414,-24.414,-16.113,0.000
1918.000,-20.020,-24.414,-24.902,-15.137,0.000
1922.000,-28.320,-21.484,-25.391,-9.766,0.000
1926.000,-18.555,-20.020,-22.461,-0.488,0.000
1930.000,-13.184,-20.508,-27.832,-2.441,0.000
1934.000,-17.090,-20.508,-33.691,-14.160,0.000
1937.000,-14.160,-24.414,-33.203,-22.461,0.000
1941.000,-22.461,-27.344,-33.203,-14.160,0.000
1945.000,-34.668,-27.832,-35.645,-10.742,0.000
1949.000,-39.062,-27.344,-37.109,-20.508,0.000
1953.000,-31.738,-28.320,-36.133,-16.113,0.000
1957.000,-29.785,-36.621,-35.645,-15.625,0.000
1961.000,-36.621,-38.086,-41.992,-16.113,0.000
1965.000,-25.391,-31.250,-40.039,-1.953,0.000
1969.000,-27.344,-37.109,-31.250,-15.625,0.000
1973.000,-65.918,-42.480,-33.691,-41.992,0.000
1977.000,-83.984,-46.387,-35.645,-57.617,0.000
1980.000,-87.891,-51.758,-34.668,-75.684,0.000
1984.000,-93.750,-48.340,-37.598,-90.820,0.000
1988.000,-113.281,-51.270,-39.062,-110.840,0.000
1992.000,-124.023,-56.641,-42.969,-128.418,0.000
1996.000,-126.465,-62.988,-47.852,-135.254,0.000
2000.000,-144.531,-62.988,-45.410,-147.949,0.000
2004.000,-152.344,-68.359,-39.551,-157.715,0.000
2008.000,-173.828,-73.730,-34.180,-163.574,0.000
2012.000,-176.270,-60.059,-31.250,-157.715,0.000
2016.000,-170.410,-65.918,-31.738,-158.203,0.000
2019.000,-194.336,-81.543,-51.270,-179.199,0.000
2023.000,-191.895,-75.684,-54.688,-176.270,0.000
2027.000,-169.922,-73.242,-38.574,-149.414,0.000
2031.000,-167.480,-61.523,-28.809,-152.344,0.000
2035.000,-174.805,-53.223,-21.973,-152.832,0.000
2039.000,-162.598,-56.152,-30.762,-145.508,0.000
2043.000,-166.504,-56.641,-46.875,-137.695,0.000
2047.000,-171.387,-58.594,-33.203,-124.023,0.000
2051.000,-155.762,-59.082,-13.672,-108.398,0.000
2055.000,-150.879,-60.547,-15.137,-103.027,0.000
2059.000,-153.320,-62.012,-18.555,-99.609,0.000
2062.000,-138.184,-62.012,-18.066,-87.891,0.000
2066.000,-122.559,-60.059,-21.973,-83.496,0.000
2070.000,-111.328,-55.176,-25.391,-75.684,0.000
2074.000,-90.332,-54.688,-21.484,-60.547,0.000
2078.000,-80.078,-49.805,-20.020,-45.410,0.000
2082.000,-68.359,-46.875,-20.996,-41.016,0.000
2086.000,-48.828,-46.387,-21.484,-44.434,0.000
2090.000,-49.316,-45.410,-23.926,-38.086,0.000
2094.000,-61.035,-43.457,-25.879,-34.180,0.000
2098.000,-56.641,-41.016,-27.832,-41.504,0.000
2102.000,-43.945,-39.062,-25.391,-49.805,0.000
2105.000,-37.598,-38.086,-23.438,-41.016,0.000
2109.000,-32.715,-40.039,-29.297,-32.227,0.000
2113.000,-34.668,-37.109,-34.180,-32.227,0.000
2117.000,-44.434,-36.133,-33.203,-30.273,0.000
2121.000,-32.227,-35.156,-33.203,-24.902,0.000
2125.000,-37.598,-35.645,-35.645,-16.602,0.000
2129.000,-51.270,-39.551,-40.039,-24.902,0.000
2133.000,-42.480,-37.109,-39.062,-33.691,0.000
2137.000,-28.809,-35.156,-33.203,-30.273,0.000
2141.000,-25.879,-40.527,-35.645,-23.438,0.000
2144.000,-34.180,-41.016,-36.621,-19.531,0.000
2148.000,-40.039,-34.668,-33.203,-12.695,0.000
2152.000,-39.062,-28.809,-30.762,-4.883,0.000
2156.000,-38.086,-29.297,-31.250,-8.789,0.000
2160.000,-39.551,-29.785,-24.902,-4.395,0.000
2164.000,-40.039,-28.809,-21.484,0.000,0.000
2168.000,-27.344,-28.320,-23.438,0.488,0.000
2172.000,-29.785,-24.902,-21.973,-4.883,0.000
2176.000,-41.016,-29.785,-28.320,-6.836,0.000
2180.000,-31.250,-32.227,-31.250,-10.254,0.000
2184.000,-27.344,-28.320,-29.297,-15.625,0.000
2187.000,-26.855,-27.832,-34.180,-16.113,0.000
2191.000,-21.973,-28.320,-40.527,-16.113,0.000
2195.000,-17.090,-24.902,-38.086,-18.555,0.000
2199.000,-6.348,-21.973,-32.227,-24.414,0.000
2203.000,3.418,-25.879,-26.855,-24.902,0.000
2207.000,2.441,-27.344,-22.949,-14.160,0.000
2211.000,2.441,-25.879,-26.855,-9.766,0.000
2215.000,10.742,-21.484,-26.855,-23.926,0.000
2219.000,-19.043,-23.438,-24.902,-25.879,0.000
2223.000,-58.105,-26.367,-22.949,-13.672,0.000
2227.000,-46.387,-20.508,-20.996,-8.301,0.000
2230.000,-37.109,-19.531,-25.391,-14.648,0.000
2234.000,-40.527,-18.066,-28.809,-24.414,0.000
2238.000,-40.527,-19.531,-26.367,-12.695,0.000
2242.000,-36.133,-18.555,-27.344,-0.977,0.000
2246.000,-32.715,-13.184,-27.832,-5.859,0.000
2250.000,-31.738,-17.090,-24.414,-9.277,0.000
2254.000,-34.668,-25.879,-29.785,-14.160,0.000
2258.000,-37.109,-21.973,-32.227,-16.113,0.000
2262.000,-39.551,-21.484,-29.297,-17.090,0.000
2266.000,-34.668,-22.461,-28.809,-25.391,0.000
2269.000,-36.133,-19.531,-26.367,-20.508,0.000
2273.000,-38.574,-22.461,-28.320,-21.484,0.000
2277.000,-32.715,-23.926,-33.691,-29.785,0.000
2281.000,-37.598,-20.996,-32.715,-32.715,0.000
2285.000,-36.133,-20.020,-30.762,-27.832,0.000
2289.000,-33.203,-28.809,-33.691,-27.832,0.000
2293.000,-40.039,-32.715,-34.668,-38.574,0.000
2297.000,-40.527,-26.855,-35.156,-38.086,0.000
2301.000,-32.715,-28.320,-34.180,-38.086,0.000
2305.000,-35.645,-29.297,-32.715,-37.109,0.000
2309.000,-37.109,-25.879,-30.762,-30.273,0.000
2312.000,-34.668,-30.273,-31.738,-34.180,0.000
2316.000,-24.414,-28.809,-31.738,-38.574,0.000
2320.000,-8.789,-32.227,-29.297,-36.133,0.000
2324.000,-4.395,-36.133,-27.344,-27.832,0.000
2328.000,-46.387,-36.621,-25.879,-15.137,0.000
2332.000,-75.684,-36.133,-30.762,-16.602,0.000
2336.000,-52.734,-33.203,-30.762,-19.043,0.000
2340.000,-43.945,-32.227,-27.344,-15.137,0.000
2344.000,-59.082,-27.344,-24.902,-18.066,0.000
2348.000,-63.965,-21.973,-20.996,-16.113,0.000
2352.000,-62.500,-20.996,-21.484,-17.090,0.000
2355.000,-66.895,-20.508,-25.879,-22.949,0.000
2359.000,-55.664,-20.508,-28.809,-31.250,0.000
2363.000,-49.805,-20.508,-28.320,-36.621,0.000
2367.000,-55.664,-23.926,-27.832,-34.180,0.000
2371.000,-45.410,-29.785,-30.762,-33.203,0.000
2375.000,-40.527,-25.391,-27.344,-26.855,0.000
2379.000,-41.016,-24.414,-26.855,-30.762,0.000
2383.000,-45.410,-28.320,-25.879,-33.691,0.000
2387.000,-43.457,-24.414,-27.832,-26.855,0.000
2391.000,-31.250,-20.996,-31.250,-25.879,0.000
2394.000,-35.645,-23.438,-30.273,-29.297,0.000
2398.000,-44.434,-25.391,-34.180,-43.945,0.000
2402.000,-42.480,-26.367,-36.133,-51.758,0.000
2406.000,-38.574,-28.320,-34.668,-49.805,0.000
2410.000,-48.340,-31.738,-31.250,-49.805,0.000
2414.000,-39.062,-29.785,-29.297,-51.270,0.000
2418.000,-7.812,-23.926,-26.855,-38.086,0.000
2422.000,14.160,-20.508,-25.391,-20.996,0.000
2426.000,-13.184,-20.996,-24.414,-28.320,0.000
2430.000,-62.500,-24.414,-22.949,-33.203,0.000
2434.000,-73.730,-24.414,-28.320,-30.273,0.000
2437.000,-52.246,-22.949,-28.809,-23.926,0.000
2441.000,-29.297,-24.414,-27.832,-16.113,0.000
2445.000,-28.809,-20.508,-29.297,-8.789,0.000
2449.000,-29.297,-19.531,-31.250,-13.672,0.000
2453.000,-17.578,-17.578,-30.273,-15.137,0.000
2457.000,-24.414,-15.625,-30.762,-5.371,0.000
2461.000,-26.367,-16.602,-33.203,-1.465,0.000
2465.000,-9.277,-11.719,-26.855,1.465,0.000
2469.000,18.555,-2.441,-22.949,5.859,0.000
2473.000,21.484,0.977,-24.902,6.348,0.000
2477.000,3.418,-5.371,-26.367,6.348,0.000
2480.000,6.348,-8.789,-24.902,4.395,0.000
2484.000,16.602,-8.789,-26.855,-0.488,0.000
2488.000,18.555,-8.789,-30.762,7.324,0.000
2492.000,20.508,-5.371,-29.297,20.020,0.000
2496.000,21.484,-1.953,-28.809,16.602,0.000
2500.000,13.184,-2.930,-33.203,4.883,0.000
2504.000,7.812,-5.859,-35.156,-0.488,0.000
2508.000,11.230,-6.348,-25.879,16.113,0.000
2512.000,14.648,-0.488,-15.625,41.504,0.000
2516.000,17.578,3.418,-16.113,29.297,0.000
2519.000,36.133,-0.977,-20.508,25.391,0.000
2523.000,40.527,-6.836,-17.578,30.762,0.000
2527.000,24.902,-6.836,-17.578,18.066,0.000
2531.000,19.043,-3.906,-20.020,16.602,0.000
2535.000,18.066,-10.254,-21.973,12.207,0.000
2539.000,20.996,-13.184,-19.531,21.973,0.000
2543.000,26.855,-10.254,-21.973,27.832,0.000
2547.000,32.227,-5.371,-23.926,24.414,0.000
2551.000,53.223,-0.488,-19.043,21.484,0.000
2555.000,63.965,-3.906,-20.996,21.973,0.000
2559.000,50.293,-4.883,-23.438,27.344,0.000
2562.000,13.184,-7.324,-22.461,27.832,0.000
2566.000,-10.254,-8.789,-19.531,31.250,0.000
2570.000,11.230,-5.371,-19.043,47.852,0.000
2574.000,22.949,-5.859,-24.902,43.457,0.000
2578.000,22.949,-5.859,-25.879,31.250,0.000
2582.000,19.043,-5.859,-23.438,32.227,0.000
2586.000,14.648,-6.836,-20.996,32.227,0.000
2590.000,22.949,-2.930,-20.508,41.992,0.000
2594.000,28.809,-6.348,-22.461,41.016,0.000
2598.000,20.508,-10.742,-20.508,31.738,0.000
2602.000,22.949,-10.742,-20.996,34.668,0.000
2605.000,17.578,-14.160,-20.996,32.227,0.000
2609.000,-1.465,-16.602,-19.531,21.973,0.000
2613.000,-5.371,-14.648,-22.461,18.555,0.000
2617.000,11.230,-17.578,-24.902,28.809,0.000
2621.000,28.320,-12.207,-20.508,42.969,0.000
2625.000,18.555,-8.301,-21.973,31.738,0.000
2629.000,3.906,-13.184,-30.273,14.160,0.000
2633.000,15.625,-11.719,-29.297,10.254,0.000
2637.000,26.855,-12.207,-26.367,-8.301,0.000
2641.000,19.531,-11.230,-27.344,-13.672,0.000
2644.000,19.043,-9.766,-29.785,-2.441,0.000
2648.000,32.715,-14.648,-30.273,-5.371,0.000
2652.000,25.879,-18.066,-28.809,-23.926,0.000
2656.000,5.859,-20.020,-30.762,-27.832,0.000
2660.000,-1.465,-23.438,-29.785,-18.555,0.000
2664.000,-6.836,-22.461,-32.227,-26.855,0.000
2668.000,4.395,-16.602,-31.738,-31.738,0.000
2672.000,-1.953,-18.066,-30.273,-32.715,0.000
2676.000,-28.809,-22.949,-33.203,-36.133,0.000
2680.000,-42.969,-24.414,-30.762,-37.598,0.000
2684.000,-41.992,-25.391,-28.809,-38.574,0.000
2687.000,-26.367,-26.855,-27.832,-30.273,0.000
2691.000,-25.391,-28.320,-24.414,-31.250,0.000
2695.000,-37.598,-29.297,-23.926,-43.945,0.000
2699.000,-31.250,-28.809,-21.484,-45.898,0.000
2703.000,-12.207,-27.344,-18.555,-34.180,0.000
2707.000,-9.277,-28.320,-20.508,-19.043,0.000
2711.000,-39.062,-33.691,-21.484,-26.367,0.000
2715.000,-54.199,-39.062,-29.785,-60.059,0.000
2719.000,-46.387,-41.992,-30.273,-74.219,0.000
2723.000,-44.922,-41.016,-24.414,-57.129,0.000
2727.000,-54.199,-44.922,-21.484,-62.012,0.000
2730.000,-76.660,-48.828,-24.414,-89.355,0.000
2734.000,-97.656,-54.688,-25.879,-105.469,0.000
2738.000,-106.445,-56.152,-22.949,-98.633,0.000
2742.000,-100.098,-52.246,-26.855,-102.539,0.000
2746.000,-94.727,-55.176,-29.297,-120.117,0.000
2750.000,-95.703,-58.105,-25.879,-120.605,0.000
2754.000,-102.051,-57.617,-24.902,-132.812,0.000
2758.000,-101.562,-55.176,-24.414,-144.531,0.000
2762.000,-104.004,-53.711,-19.531,-138.672,0.000
2766.000,-129.395,-57.129,-19.531,-147.949,0.000
2769.000,-146.973,-57.617,-21.484,-153.320,0.000
2773.000,-169.434,-56.641,-22.461,-143.066,0.000
2777.000,-192.383,-61.523,-27.832,-150.879,0.000
2781.000,-171.387,-61.035,-27.832,-158.203,0.000
2785.000,-158.203,-57.129,-24.902,-150.879,0.000
2789.000,-162.598,-52.246,-22.461,-156.738,0.000
2793.000,-165.039,-54.688,-24.414,-167.480,0.000
2797.000,-149.414,-57.129,-27.344,-167.969,0.000
2801.000,-135.254,-54.199,-28.809,-164.551,0.000
2805.000,-125.000,-51.758,-26.855,-157.715,0.000
2809.000,-126.953,-51.758,-30.762,-151.367,0.000
2812.000,-135.254,-51.758,-28.320,-132.812,0.000
2816.000,-123.047,-48.340,-27.832,-117.676,0.000
2820.000,-99.121,-42.969,-29.785,-114.258,0.000
2824.000,-87.402,-45.898,-25.879,-103.516,0.000
2828.000,-87.891,-44.922,-26.367,-95.215,0.000
2832.000,-71.777,-34.180,-26.855,-85.449,0.000
2836.000,-62.012,-32.715,-25.879,-69.336,0.000
2840.000,-53.711,-30.762,-24.414,-44.922,0.000
2844.000,-44.922,-34.180,-24.902,-35.645,0.000
2848.000,-34.180,-37.109,-24.902,-45.898,0.000
2852.000,-24.414,-28.809,-26.367,-41.016,0.000
2855.000,-23.438,-29.785,-28.320,-32.227,0.000
2859.000,-21.484,-35.645,-33.691,-37.598,0.000
2863.000,-14.160,-33.691,-36.621,-40.039,0.000
2867.000,-4.883,-30.273,-34.180,-38.086,0.000
2871.000,-11.719,-30.273,-36.133,-31.738,0.000
2875.000,-37.109,-31.738,-35.645,-16.602,0.000
2879.000,-58.594,-37.109,-36.133,-10.742,0.000
2883.000,-54.199,-35.645,-30.762,-11.230,0.000
2887.000,-31.250,-33.203,-32.227,-15.625,0.000
2891.000,-25.879,-33.203,-36.133,-23.926,0.000
2894.000,-17.090,-31.250,-33.203,-29.297,0.000
2898.000,-8.301,-33.203,-30.273,-36.621,0.000
2902.000,-11.230,-34.668,-31.250,-42.480,0.000
2906.000,-38.574,-37.109,-34.668,-41.504,0.000
2910.000,-48.340,-37.598,-32.715,-33.691,0.000
2914.000,-31.738,-31.738,-31.250,-33.691,0.000
2918.000,-37.598,-32.715,-36.133,-46.387,0.000
2922.000,-41.016,-37.109,-35.645,-53.223,0.000
2926.000,-35.645,-33.691,-34.668,-53.223,0.000
2930.000,-33.691,-34.180,-38.574,-47.852,0.000
2934.000,-24.414,-30.273,-39.062,-41.016,0.000
2937.000,-22.461,-25.879,-41.016,-41.992,0.000
2941.000,-23.438,-28.809,-37.598,-33.203,0.000
2945.000,-9.766,-27.344,-35.645,-19.531,0.000
2949.000,-3.418,-26.855,-32.715,-17.090,0.000
2953.000,-8.789,-27.344,-34.668,-12.207,0.000
2957.000,-27.344,-30.273,-38.574,-19.531,0.000
2961.000,-48.340,-33.691,-38.574,-35.156,0.000
2965.000,-32.227,-26.855,-37.109,-17.578,0.000
2969.000,-4.883,-22.949,-39.551,-5.859,0.000
2973.000,0.977,-17.578,-44.434,-13.184,0.000
2976.000,-4.883,-11.719,-45.410,-20.508,0.000
2980.000,-10.254,-16.602,-46.875,-22.949,0.000
2984.000,8.789,-10.254,-37.598,-1.953,0.000
2988.000,18.066,-4.395,-32.227,11.230,0.000
2992.000,0.488,-8.789,-31.250,4.883,0.000
2996.000,-10.742,-11.230,-26.855,5.371,0.000
3000.000,5.371,-9.277,-27.832,5.371,0.000
3004.000,27.832,-7.324,-25.879,10.254,0.000
3008.000,22.461,-7.324,-29.297,28.809,0.000
3012.000,11.719,-10.742,-29.297,34.180,0.000
3016.000,14.648,-12.695,-29.297,17.578,0.000
3019.000,20.996,-12.207,-30.762,11.719,0.000
3023.000,19.531,-9.766,-25.879,23.438,0.000
3027.000,20.996,-6.348,-26.855,37.598,0.000
3031.000,34.180,-1.465,-29.297,33.691,0.000
3035.000,31.250,-0.977,-36.133,16.602,0.000
3039.000,20.020,-6.836,-42.969,11.230,0.000
3043.000,6.348,-8.789,-38.086,8.789,0.000
3047.000,11.719,-2.930,-31.738,18.066,0.000
3051.000,25.391,-7.812,-29.785,30.762,0.000
3055.000,27.344,-16.113,-35.156,34.180,0.000
3059.000,15.625,-15.137,-38.086,32.227,0.000
3062.000,9.766,-18.066,-41.504,22.949,0.000
3066.000,28.809,-18.066,-42.480,18.066,0.000
3070.000,27.832,-15.137,-37.598,13.184,0.000
3074.000,19.531,-20.996,-32.715,6.348,0.000
3078.000,27.344,-26.855,-30.762,6.348,0.000
3082.000,20.996,-22.461,-35.645,3.418,0.000
3086.000,4.883,-19.531,-35.645,-2.441,0.000
3090.000,0.000,-20.020,-30.273,1.465,0.000
3094.000,-12.207,-20.508,-30.762,16.602,0.000
3098.000,-12.695,-24.902,-30.762,23.926,0.000
3101.000,6.348,-24.414,-27.832,16.602,0.000
3105.000,3.906,-21.484,-28.320,11.719,0.000
3109.000,2.441,-19.531,-29.297,14.160,0.000
3113.000,11.230,-16.602,-29.785,14.160,0.000
3117.000,3.906,-19.043,-31.250,8.301,0.000
3121.000,7.324,-20.508,-33.691,14.648,0.000
3125.000,19.043,-18.066,-34.668,26.367,0.000
3129.000,23.926,-3.906,-36.133,23.438,0.000
3133.000,14.160,-2.930,-36.621,17.578,0.000
3137.000,16.602,-11.230,-32.227,22.949,0.000
3141.000,32.227,-8.789,-29.297,34.180,0.000
3144.000,20.508,-5.371,-27.344,32.227,0.000
3148.000,13.184,-4.883,-23.926,6.348,0.000
3152.000,19.531,-5.371,-20.508,2.930,0.000
3156.000,27.832,-7.324,-24.414,9.277,0.000
3160.000,31.250,-8.301,-29.297,12.207,0.000
3164.000,20.508,-6.348,-27.344,16.602,0.000
3168.000,12.695,-7.812,-25.391,6.348,0.000
3172.000,13.672,-7.812,-28.320,-0.488,0.000
3176.000,13.184,-6.348,-32.715,2.441,0.000
3180.000,9.766,-12.695,-31.738,-3.418,0.000
3184.000,6.348,-17.090,-24.414,2.930,0.000
3187.000,-5.371,-18.066,-25.879,16.602,0.000
3191.000,-7.324,-17.090,-27.832,22.461,0.000
3195.000,-6.348,-18.066,-25.391,19.531,0.000
3199.000,-9.766,-23.926,-26.855,10.742,0.000
3203.000,-17.578,-23.438,-26.855,13.184,0.000
3207.000,-15.625,-20.996,-21.973,19.043,0.000
3211.000,-24.414,-21.484,-21.973,20.020,0.000
3215.000,-45.410,-24.414,-29.297,9.277,0.000
3219.000,-46.875,-29.785,-28.320,2.930,0.000
3223.000,-30.762,-24.902,-25.879,8.789,0.000
3226.000,-33.691,-22.461,-23.438,11.230,0.000
3230.000,-37.598,-24.902,-18.555,4.395,0.000
3234.000,-27.832,-26.855,-20.508,-7.324,0.000
3238.000,-28.320,-32.715,-21.484,-9.277,0.000
3242.000,-19.531,-34.180,-19.531,-1.465,0.000
3246.000,-6.836,-32.227,-18.066,3.906,0.000
3250.000,-11.719,-32.715,-16.602,1.465,0.000
3254.000,-18.555,-31.250,-18.555,-2.930,0.000
3258.000,-9.766,-23.438,-19.043,4.395,0.000
3262.000,-10.742,-20.996,-16.113,14.160,0.000
3266.000,-18.555,-22.949,-20.508,7.324,0.000
3269.000,-20.508,-21.484,-26.367,-13.672,0.000
3273.000,-23.926,-19.531,-24.414,-18.066,0.000
3277.000,-21.484,-22.461,-24.414,-7.324,0.000
3281.000,-15.137,-24.414,-25.391,-13.184,0.000
3285.000,1.953,-23.438,-24.902,-23.438,0.000
3289.000,-4.395,-24.414,-25.879,-16.113,0.000
3293.000,-28.320,-24.414,-30.762,-8.789,0.000
3297.000,-28.320,-21.484,-32.227,-8.789,0.000
3301.000,-22.949,-21.484,-25.391,-14.160,0.000
3305.000,-20.508,-24.902,-22.461,-19.043,0.000
3309.000,-22.949,-23.438,-23.926,-12.695,0.000
3312.000,-33.203,-23.926,-24.902,-8.789,0.000
3316.000,-29.785,-23.926,-23.438,-10.254,0.000
3320.000,-37.598,-25.879,-28.320,-5.859,0.000
3324.000,-48.828,-34.180,-30.762,-2.930,0.000
3328.000,-50.293,-36.133,-32.227,-9.766,0.000
3332.000,-51.270,-31.738,-33.691,-11.719,0.000
3336.000,-31.738,-32.227,-31.250,-6.836,0.000
3340.000,-14.160,-27.832,-31.250,-10.742,0.000
3344.000,-8.789,-24.902,-35.156,-16.602,0.000
3348.000,-21.973,-25.879,-34.668,-9.766,0.000
3351.000,-48.340,-26.367,-36.133,-14.648,0.000
3355.000,-52.734,-29.785,-37.109,-23.438,0.000
3359.000,-43.945,-33.691,-36.133,-16.602,0.000
3363.000,-39.551,-31.250,-35.156,-11.230,0.000
3367.000,-36.133,-34.668,-36.133,-19.043,0.000
3371.000,-25.391,-33.691,-40.039,-32.227,0.000
