timestamp,TP9,AF7,AF8,TP10,Right AUX
0.000,-8.789,-20.996,-31.250,-7.324,0.000
4.000,-22.949,-23.438,-35.156,-41.016,0.000
8.000,-35.645,-25.391,-35.156,-52.246,0.000
12.000,-36.621,-27.344,-34.668,-46.875,0.000
16.000,-22.461,-27.832,-34.180,-31.250,0.000
20.000,-3.906,-19.531,-31.738,-23.926,0.000
23.000,1.953,-18.066,-41.992,-35.156,0.000
27.000,0.488,-20.508,-43.457,-28.809,0.000
31.000,-20.020,-16.113,-37.109,-19.043,0.000
35.000,-11.719,-12.695,-32.715,-21.973,0.000
39.000,1.953,-11.230,-27.832,-16.113,0.000
43.000,-3.906,-10.742,-24.414,0.977,0.000
47.000,-20.020,-9.766,-20.508,21.973,0.000
51.000,-27.832,-10.742,-23.438,17.578,0.000
55.000,-20.508,-13.672,-34.180,1.465,0.000
59.000,-1.465,-11.230,-36.621,7.324,0.000
62.000,4.395,-8.301,-41.504,20.508,0.000
66.000,-16.113,-11.719,-44.434,7.324,0.000
70.000,-26.367,-14.160,-41.992,-6.836,0.000
74.000,-2.930,-7.812,-42.969,10.742,0.000
78.000,19.043,-6.836,-35.156,38.086,0.000
82.000,26.855,-3.418,-23.926,44.922,0.000
86.000,25.391,0.977,-25.391,35.645,0.000
90.000,10.742,2.930,-26.855,51.270,0.000
94.000,16.602,6.836,-27.832,53.223,0.000
98.000,32.715,6.348,-27.832,9.766,0.000
102.000,53.223,11.230,-20.020,-20.020,0.000
105.000,57.129,9.766,-21.484,-5.859,0.000
109.000,27.832,5.859,-21.484,15.625,0.000
113.000,11.230,9.277,-17.578,20.996,0.000
117.000,26.855,6.836,-22.461,31.738,0.000
121.000,39.062,1.465,-23.926,40.039,0.000
125.000,17.090,1.465,-21.973,30.762,0.000
129.000,-1.953,0.977,-24.414,22.949,0.000
133.000,12.695,-3.418,-21.973,26.367,0.000
137.000,37.598,-3.906,-16.113,39.062,0.000
141.000,45.410,3.418,-17.090,40.527,0.000
145.000,29.785,3.906,-15.137,39.551,0.000
148.000,22.461,0.000,-11.230,48.828,0.000
152.000,27.344,-7.324,-9.277,46.875,0.000
156.000,24.902,-10.254,-12.207,42.969,0.000
160.000,13.184,-6.348,-12.207,50.293,0.000
164.000,15.137,-10.742,-9.277,56.641,0.000
168.000,34.180,-10.254,-11.719,59.082,0.000
172.000,57.129,-6.836,-19.043,38.574,0.000
176.000,77.637,-9.766,-23.926,2.930,0.000
180.000,83.496,-9.766,-22.949,-11.719,0.000
184.000,23.438,-9.766,-21.973,0.488,0.000
187.000,-12.207,-9.766,-24.414,14.648,0.000
191.000,15.137,-10.742,-18.555,23.438,0.000
195.000,2.441,-18.066,-19.043,9.277,0.000
199.000,1.465,-19.043,-26.367,-7.812,0.000
203.000,21.484,-12.207,-22.949,-8.301,0.000
207.000,12.695,-9.766,-24.414,-5.371,0.000
211.000,-21.973,-15.625,-28.320,10.742,0.000
215.000,-45.898,-20.996,-28.809,10.742,0.000
219.000,-44.922,-21.973,-24.414,0.000,0.000
223.000,-36.621,-21.484,-28.809,2.930,0.000
227.000,-25.879,-25.879,-33.691,9.766,0.000
230.000,-30.762,-33.203,-30.762,-2.441,0.000
234.000,-37.598,-35.156,-30.762,-25.879,0.000
238.000,-33.691,-32.227,-31.738,-28.320,0.000
242.000,-24.902,-29.297,-30.273,-13.672,0.000
246.000,-19.043,-25.879,-26.367,-8.789,0.000
250.000,-20.996,-31.738,-32.227,-27.344,0.000
254.000,-20.996,-34.668,-33.691,-24.414,0.000
258.000,-12.695,-30.762,-29.297,-5.859,0.000
262.000,-17.090,-31.250,-22.949,-8.301,0.000
266.000,-39.551,-28.320,-20.996,-12.207,0.000
270.000,-50.293,-29.297,-18.066,-15.625,0.000
273.000,-40.039,-37.598,-20.996,-12.695,0.000
277.000,-19.531,-38.574,-26.367,-11.719,0.000
281.000,-5.371,-35.156,-31.250,-26.367,0.000
285.000,-19.531,-33.691,-29.785,-37.598,0.000
289.000,-31.250,-34.668,-27.344,-52.246,0.000
293.000,-30.273,-30.273,-33.203,-65.918,0.000
297.000,-43.945,-33.203,-28.809,-59.570,0.000
301.000,-43.457,-31.250,-24.902,-56.641,0.000
305.000,-41.992,-22.461,-25.879,-47.852,0.000
309.000,-43.457,-20.508,-26.855,-36.621,0.000
312.000,-43.457,-15.625,-22.461,-31.738,0.000
316.000,-45.898,-18.066,-20.996,-31.738,0.000
320.000,-49.316,-25.391,-27.832,-42.969,0.000
324.000,-59.082,-28.809,-35.645,-45.898,0.000
328.000,-43.945,-26.367,-40.527,-24.902,0.000
332.000,-16.113,-22.949,-25.391,-9.277,0.000
336.000,-36.133,-28.809,-20.996,-34.668,0.000
340.000,-68.848,-35.645,-33.691,-70.801,0.000
344.000,-69.824,-33.691,-27.832,-68.359,0.000
348.000,-65.918,-36.621,-29.785,-68.359,0.000
352.000,-83.984,-44.434,-34.668,-101.074,0.000
355.000,-114.258,-46.387,-31.738,-125.000,0.000
359.000,-135.254,-47.363,-32.227,-126.465,0.000
363.000,-141.113,-58.594,-33.203,-125.000,0.000
367.000,-147.949,-85.449,-36.133,-145.020,0.000
371.000,-138.672,-77.637,-32.227,-160.645,0.000
375.000,-136.719,-58.105,-27.832,-157.715,0.000
379.000,-145.020,-59.570,-34.180,-153.809,0.000
383.000,-153.320,-57.617,-36.621,-148.438,0.000
387.000,-173.340,-53.711,-34.180,-155.273,0.000
391.000,-169.434,-57.129,-24.414,-147.461,0.000
395.000,-147.461,-56.641,-11.230,-128.906,0.000
398.000,-153.809,-63.477,-17.090,-126.953,0.000
402.000,-169.434,-66.406,-23.438,-126.465,0.000
406.000,-153.809,-61.523,-18.555,-106.934,0.000
410.000,-129.883,-62.012,-18.066,-85.938,0.000
414.000,-118.164,-61.035,-21.484,-86.914,0.000
418.000,-111.328,-49.316,-21.973,-82.520,0.000
422.000,-100.586,-40.527,-22.461,-67.871,0.000
426.000,-107.910,-44.434,-23.926,-53.711,0.000
430.000,-102.539,-42.480,-23.438,-48.340,0.000
434.000,-78.125,-37.598,-22.949,-46.875,0.000
437.000,-64.941,-40.527,-27.832,-44.434,0.000
441.000,-58.594,-38.574,-28.809,-35.156,0.000
445.000,-48.828,-34.668,-25.391,-32.715,0.000
449.000,-46.387,-35.645,-25.391,-37.109,0.000
453.000,-41.504,-31.250,-25.879,-30.273,0.000
457.000,-29.297,-27.344,-26.855,-31.250,0.000
461.000,-39.062,-29.785,-26.855,-29.785,0.000
465.000,-43.457,-28.320,-23.926,-20.020,0.000
469.000,-38.086,-26.855,-24.414,-20.020,0.000
473.000,-29.785,-24.414,-24.414,-28.809,0.000
477.000,-28.809,-21.973,-20.020,-22.461,0.000
480.000,-30.273,-25.879,-26.855,-19.531,0.000
484.000,-20.996,-31.738,-31.250,-33.203,0.000
488.000,-14.648,-37.598,-30.762,-36.133,0.000
492.000,-32.715,-39.551,-34.668,-22.949,0.000
496.000,-46.875,-38.574,-33.203,-8.301,0.000
500.000,-48.340,-38.086,-28.809,-10.254,0.000
504.000,-39.062,-35.156,-33.691,-21.973,0.000
508.000,-30.273,-32.227,-34.668,-17.090,0.000
512.000,-35.645,-31.738,-31.250,-7.812,0.000
516.000,-41.016,-28.809,-34.180,-15.137,0.000
519.000,-33.691,-28.809,-34.180,-30.762,0.000
523.000,-29.297,-31.250,-33.691,-28.809,0.000
527.000,-33.691,-32.715,-34.180,-24.414,0.000
531.000,-29.297,-32.715,-33.691,-23.926,0.000
535.000,-23.926,-30.762,-34.180,-28.809,0.000
539.000,-21.484,-29.297,-38.574,-39.062,0.000
543.000,-21.973,-26.367,-36.133,-33.203,0.000
547.000,-55.176,-28.320,-35.645,-31.738,0.000
551.000,-64.941,-25.879,-31.738,-37.109,0.000
555.000,-50.293,-26.367,-25.391,-32.715,0.000
559.000,-50.781,-32.227,-27.344,-21.484,0.000
562.000,-42.969,-32.227,-30.273,-30.273,0.000
566.000,-43.945,-28.809,-33.691,-45.410,0.000
570.000,-34.668,-24.414,-32.227,-41.016,0.000
574.000,-26.855,-24.902,-29.785,-20.996,0.000
578.000,-41.016,-27.344,-32.227,-11.230,0.000
582.000,-60.547,-31.250,-30.273,-20.020,0.000
586.000,-65.430,-34.668,-29.297,-35.645,0.000
590.000,-54.688,-33.203,-34.668,-36.133,0.000
594.000,-43.457,-30.273,-32.227,-7.812,0.000
598.000,-36.621,-27.832,-27.344,4.395,0.000
602.000,-30.762,-27.832,-29.785,-9.277,0.000
605.000,-28.809,-31.738,-32.227,-20.020,0.000
609.000,-29.297,-34.668,-32.227,-25.879,0.000
613.000,-38.574,-33.691,-32.227,-22.461,0.000
617.000,-40.039,-26.855,-32.715,-19.043,0.000
621.000,-35.156,-25.391,-34.668,-21.973,0.000
625.000,-34.180,-23.926,-33.203,-20.020,0.000
629.000,-22.461,-23.438,-32.227,-17.090,0.000
633.000,-15.625,-22.461,-32.227,-18.555,0.000
637.000,-37.109,-25.879,-29.297,-25.879,0.000
641.000,-41.992,-27.344,-28.809,-31.250,0.000
644.000,-28.320,-23.438,-29.785,-31.738,0.000
648.000,-37.109,-30.273,-31.250,-41.992,0.000
652.000,-37.598,-31.738,-33.203,-53.711,0.000
656.000,-28.809,-25.879,-31.250,-43.945,0.000
660.000,-39.551,-24.902,-32.715,-41.504,0.000
664.000,-44.434,-24.902,-31.738,-45.898,0.000
668.000,-42.480,-24.902,-27.832,-31.738,0.000
672.000,-28.320,-20.508,-28.320,-25.879,0.000
676.000,-30.273,-16.602,-25.879,-38.574,0.000
680.000,-41.504,-19.043,-26.855,-37.109,0.000
684.000,-33.203,-15.625,-26.855,-25.879,0.000
687.000,-34.668,-12.207,-26.855,-34.180,0.000
691.000,-20.020,-13.672,-29.297,-37.109,0.000
695.000,-0.977,-12.207,-24.902,-23.926,0.000
699.000,-3.418,-11.719,-22.461,-15.625,0.000
703.000,-25.879,-16.602,-23.438,-4.883,0.000
707.000,-34.180,-18.066,-23.926,-0.488,0.000
711.000,-24.902,-18.555,-27.344,-13.672,0.000
715.000,-16.602,-20.020,-28.809,-26.855,0.000
719.000,-20.996,-18.555,-28.320,-17.578,0.000
723.000,-20.020,-20.508,-27.832,-12.695,0.000
727.000,-1.953,-18.066,-26.367,-13.184,0.000
730.000,5.371,-18.555,-22.461,-8.301,0.000
734.000,10.254,-23.926,-23.926,-22.461,0.000
738.000,-15.625,-20.996,-23.926,-21.973,0.000
742.000,-62.012,-18.555,-25.879,-10.742,0.000
746.000,-52.734,-21.973,-29.785,-22.949,0.000
750.000,-39.551,-26.367,-30.273,-31.250,0.000
754.000,-45.898,-25.879,-31.250,-22.949,0.000
758.000,-43.945,-24.414,-30.762,-21.973,0.000
762.000,-29.785,-20.996,-30.762,-31.738,0.000
766.000,-25.391,-25.391,-34.180,-41.504,0.000
769.000,-33.203,-25.879,-36.621,-45.410,0.000
773.000,-36.621,-21.484,-32.715,-43.457,0.000
777.000,-32.715,-22.949,-30.273,-41.992,0.000
781.000,-30.762,-18.066,-30.762,-36.133,0.000
785.000,-28.320,-17.578,-33.691,-36.621,0.000
789.000,-13.672,-21.973,-35.156,-38.086,0.000
793.000,-19.531,-22.461,-36.621,-43.945,0.000
797.000,-33.203,-23.926,-34.180,-51.270,0.000
801.000,-34.668,-26.855,-34.668,-50.293,0.000
805.000,-34.180,-27.832,-38.574,-44.922,0.000
809.000,-5.859,-23.438,-36.621,-35.645,0.000
812.000,17.578,-17.578,-30.762,-26.367,0.000
816.000,-13.672,-16.113,-31.738,-17.578,0.000
820.000,-57.129,-20.996,-29.785,-38.574,0.000
824.000,-82.031,-28.809,-29.785,-66.406,0.000
828.000,-65.918,-22.949,-28.809,-48.340,0.000
832.000,-37.109,-16.113,-21.484,-20.996,0.000
836.000,-43.945,-20.508,-26.855,-23.926,0.000
840.000,-46.387,-17.578,-26.855,-28.809,0.000
844.000,-23.438,-13.184,-20.020,-22.949,0.000
848.000,-16.602,-13.672,-24.902,-14.648,0.000
852.000,-28.809,-12.207,-32.227,-13.184,0.000
855.000,-31.250,-13.184,-25.879,-16.113,0.000
859.000,-20.508,-11.719,-24.902,-4.395,0.000
863.000,-9.277,-1.953,-33.203,-0.977,0.000
867.000,-8.789,-2.441,-32.227,-1.953,0.000
871.000,6.836,-6.836,-30.762,3.418,0.000
875.000,9.766,-4.395,-31.250,8.301,0.000
879.000,9.277,-5.371,-29.297,6.348,0.000
883.000,3.418,-6.836,-26.367,3.418,0.000
887.000,2.441,-5.371,-26.855,-0.488,0.000
891.000,24.414,-3.906,-30.273,-8.301,0.000
894.000,39.062,-0.488,-32.715,-8.301,0.000
898.000,30.273,-1.465,-37.598,-19.531,0.000
902.000,12.207,-7.812,-35.156,-8.789,0.000
906.000,20.996,-6.836,-26.367,9.766,0.000
910.000,16.113,-0.488,-27.832,-3.906,0.000
914.000,11.230,-3.906,-32.715,-10.742,0.000
918.000,15.625,-10.254,-28.320,7.324,0.000
922.000,6.836,-10.742,-24.414,20.020,0.000
926.000,13.184,-9.277,-23.438,20.996,0.000
930.000,17.578,-11.719,-27.832,20.508,0.000
934.000,1.465,-11.230,-29.297,13.184,0.000
937.000,5.859,-6.348,-28.320,17.578,0.000
941.000,8.789,-6.348,-31.738,15.625,0.000
945.000,13.184,-10.254,-34.180,0.977,0.000
949.000,32.227,-3.418,-30.273,22.461,0.000
953.000,28.320,-0.977,-27.344,35.645,0.000
957.000,25.879,-0.488,-24.902,20.508,0.000
961.000,38.086,2.441,-27.832,14.160,0.000
965.000,37.109,5.371,-26.367,20.508,0.000
969.000,27.832,3.906,-18.555,30.762,0.000
973.000,40.039,2.441,-22.461,39.551,0.000
977.000,49.316,-0.488,-23.438,35.645,0.000
980.000,51.270,-6.348,-23.926,5.371,0.000
984.000,48.340,-6.348,-29.785,-19.043,0.000
988.000,29.297,-3.906,-33.691,0.488,0.000
992.000,31.738,-6.836,-30.273,8.789,0.000
996.000,39.062,-12.695,-32.715,-6.836,0.000
1000.000,9.766,-15.137,-38.086,-0.977,0.000
1004.000,-20.508,-10.742,-34.180,12.695,0.000
1008.000,-5.859,-9.766,-33.203,10.742,0.000
1012.000,10.254,-14.160,-30.273,-1.953,0.000
1016.000,-8.789,-15.625,-28.320,0.977,0.000
1019.000,-7.324,-12.207,-27.832,19.531,0.000
1023.000,13.672,-8.301,-28.320,21.973,0.000
1027.000,20.996,-7.812,-22.949,16.113,0.000
1031.000,17.090,-16.602,-26.855,-3.418,0.000
1035.000,21.973,-18.066,-32.227,-7.812,0.000
1039.000,23.438,-9.766,-30.762,-2.930,0.000
1043.000,9.766,-13.672,-34.668,-15.137,0.000
1047.000,-3.418,-21.973,-36.621,-9.766,0.000
1051.000,-1.953,-18.555,-34.180,-1.465,0.000
1055.000,-0.977,-20.996,-31.250,7.812,0.000
1059.000,3.418,-17.578,-25.879,-5.371,0.000
1062.000,17.090,-15.625,-26.367,-30.273,0.000
1066.000,3.906,-20.996,-27.344,-24.414,0.000
1070.000,-13.672,-21.484,-24.414,-10.742,0.000
1074.000,-15.625,-19.043,-26.367,0.977,0.000
1078.000,-10.742,-20.020,-22.461,-15.137,0.000
1082.000,4.395,-22.461,-22.949,-33.691,0.000
1086.000,20.996,-20.996,-32.715,-31.738,0.000
1090.000,13.184,-22.949,-36.621,-19.043,0.000
1094.000,-15.625,-27.344,-30.762,-17.090,0.000
1098.000,-16.602,-31.738,-26.855,-18.555,0.000
1102.000,-19.531,-38.574,-31.250,-18.555,0.000
1105.000,-21.973,-34.180,-32.227,-19.531,0.000
1109.000,-25.879,-26.855,-29.297,-30.762,0.000
1113.000,-50.293,-31.738,-23.438,-41.992,0.000
1117.000,-69.824,-36.621,-21.484,-43.457,0.000
1121.000,-71.289,-38.574,-27.344,-50.293,0.000
1125.000,-70.801,-37.598,-24.414,-69.336,0.000
1129.000,-68.359,-38.086,-17.578,-74.219,0.000
1133.000,-58.105,-39.062,-16.602,-60.059,0.000
1137.000,-59.570,-41.992,-20.508,-62.012,0.000
1141.000,-79.102,-43.457,-20.996,-83.496,0.000
1144.000,-80.566,-42.480,-19.531,-87.402,0.000
1148.000,-86.426,-43.457,-20.508,-99.121,0.000
1152.000,-112.305,-44.922,-22.461,-120.117,0.000
1156.000,-112.305,-42.969,-22.461,-113.281,0.000
1160.000,-113.281,-47.852,-22.461,-119.141,0.000
1164.000,-124.512,-54.199,-23.926,-129.395,0.000
1168.000,-126.953,-52.734,-26.367,-128.418,0.000
1172.000,-135.742,-53.223,-30.762,-137.207,0.000
1176.000,-140.625,-56.152,-26.855,-145.508,0.000
1180.000,-143.555,-58.594,-20.996,-140.625,0.000
1184.000,-148.926,-61.035,-14.160,-132.324,0.000
1187.000,-160.156,-63.477,-13.672,-141.602,0.000
1191.000,-157.715,-59.082,-12.695,-129.395,0.000
1195.000,-151.855,-60.547,-15.137,-118.164,0.000
1199.000,-150.879,-67.383,-24.414,-120.117,0.000
1203.000,-140.137,-68.359,-19.043,-105.957,0.000
1207.000,-145.996,-63.477,-15.137,-113.281,0.000
1211.000,-141.602,-59.570,-19.531,-120.117,0.000
1215.000,-130.371,-56.641,-22.949,-124.023,0.000
1219.000,-131.348,-51.270,-20.020,-120.605,0.000
1223.000,-120.605,-53.711,-19.531,-103.516,0.000
1227.000,-111.328,-56.641,-19.531,-93.750,0.000
1230.000,-112.793,-52.734,-21.484,-88.867,0.000
1234.000,-110.840,-51.270,-25.391,-79.590,0.000
1238.000,-100.586,-51.270,-21.973,-70.312,0.000
1242.000,-94.238,-47.852,-21.484,-67.383,0.000
1246.000,-89.844,-48.340,-27.344,-62.988,0.000
1250.000,-81.543,-53.223,-27.832,-49.316,0.000
1254.000,-62.500,-48.340,-26.367,-34.180,0.000
1258.000,-42.480,-40.039,-23.926,-27.344,0.000
1262.000,-29.785,-35.156,-23.926,-22.461,0.000
1266.000,-24.902,-34.180,-25.391,-12.695,0.000
1269.000,-29.785,-36.621,-28.809,1.953,0.000
1273.000,-32.715,-33.203,-23.438,11.719,0.000
1277.000,-31.738,-30.273,-20.996,11.719,0.000
1281.000,-37.109,-36.133,-29.785,10.254,0.000
1285.000,-32.715,-38.086,-31.250,14.648,0.000
1289.000,-24.414,-29.785,-23.926,12.695,0.000
1293.000,-22.461,-32.227,-24.902,6.348,0.000
1297.000,-16.602,-36.133,-26.367,11.230,0.000
1301.000,-10.742,-31.738,-21.973,19.531,0.000
1305.000,-20.996,-30.273,-22.461,20.996,0.000
1309.000,-21.973,-31.738,-23.438,10.742,0.000
1312.000,-10.254,-29.297,-20.508,3.906,0.000
1316.000,-0.488,-29.785,-20.996,15.137,0.000
1320.000,0.977,-28.809,-20.508,30.762,0.000
1324.000,0.977,-22.461,-16.602,27.832,0.000
1328.000,7.812,-18.066,-18.066,9.277,0.000
1332.000,2.441,-23.438,-19.043,6.836,0.000
1336.000,-2.441,-24.902,-19.043,10.254,0.000
1340.000,5.859,-20.508,-17.578,7.324,0.000
1344.000,15.625,-23.926,-15.625,12.207,0.000
1348.000,-13.672,-27.344,-14.648,8.301,0.000
1352.000,-32.227,-28.320,-16.113,-3.906,0.000
1355.000,-16.602,-22.949,-19.043,-4.883,0.000
1359.000,-26.855,-20.996,-23.926,-13.184,0.000
1363.000,-21.484,-24.902,-31.250,-25.879,0.000
1367.000,-18.555,-24.414,-27.344,-11.230,0.000
1371.000,-41.016,-25.879,-23.926,-2.930,0.000
1375.000,-45.898,-26.367,-21.973,-9.766,0.000
1379.000,-43.457,-30.762,-20.508,-10.254,0.000
1383.000,-31.738,-29.785,-24.414,-9.766,0.000
1387.000,-29.297,-23.926,-25.879,2.441,0.000
1391.000,-23.438,-20.020,-26.367,4.395,0.000
1394.000,-18.066,-21.973,-24.414,-13.184,0.000
1398.000,-24.414,-20.996,-24.902,-17.090,0.000
1402.000,-32.715,-16.113,-34.668,-6.348,0.000
1406.000,-33.203,-14.648,-34.180,-4.883,0.000
1410.000,-24.902,-18.066,-34.668,-23.926,0.000
1414.000,-24.902,-19.531,-34.180,-32.227,0.000
1418.000,-25.879,-20.020,-32.227,-23.438,0.000
1422.000,-34.180,-21.484,-37.109,-26.367,0.000
1426.000,-30.273,-16.602,-38.086,-30.273,0.000
1430.000,-21.484,-18.066,-41.992,-30.762,0.000
1434.000,-16.602,-21.484,-44.922,-30.273,0.000
1437.000,-13.184,-22.949,-48.340,-45.410,0.000
1441.000,-28.809,-20.020,-45.898,-56.641,0.000
1445.000,-43.945,-21.484,-41.504,-51.270,0.000
1449.000,-42.969,-24.902,-41.016,-46.875,0.000
1453.000,-40.039,-23.438,-38.086,-31.738,0.000
1457.000,-33.203,-26.855,-36.621,-26.855,0.000
1461.000,-35.156,-28.809,-33.203,-33.203,0.000
1465.000,-45.410,-27.832,-32.227,-29.297,0.000
1469.000,-41.504,-28.809,-31.738,-19.531,0.000
1473.000,-38.086,-28.809,-27.344,-17.090,0.000
1477.000,-34.180,-26.367,-24.414,-12.695,0.000
1480.000,-36.133,-26.367,-21.484,-9.766,0.000
1484.000,-42.969,-30.762,-19.531,-12.207,0.000
1488.000,-43.945,-29.785,-16.602,-8.789,0.000
1492.000,-39.551,-28.809,-16.113,-4.883,0.000
1496.000,-35.645,-32.227,-17.578,-11.230,0.000
1500.000,-43.457,-34.668,-19.043,-14.648,0.000
1504.000,-42.969,-32.715,-19.531,-9.766,0.000
1508.000,-31.250,-33.691,-23.438,-16.602,0.000
1512.000,-38.086,-34.180,-23.926,-15.625,0.000
1516.000,-34.180,-28.320,-20.020,-7.324,0.000
1519.000,-23.926,-26.855,-17.578,-8.789,0.000
1523.000,-24.414,-26.855,-19.531,-7.324,0.000
1527.000,-14.648,-25.391,-23.438,-18.066,0.000
1531.000,-20.996,-25.391,-25.879,-36.133,0.000
1535.000,-33.691,-21.973,-24.902,-36.621,0.000
1539.000,-28.320,-17.578,-27.344,-38.086,0.000
1543.000,-18.066,-20.508,-29.785,-43.945,0.000
1547.000,-18.555,-20.020,-25.391,-35.645,0.000
1551.000,-33.203,-17.578,-26.855,-24.414,0.000
1555.000,-41.016,-20.020,-31.738,-16.602,0.000
1559.000,-30.762,-20.508,-34.180,-18.066,0.000
1562.000,-21.484,-20.508,-32.227,-28.320,0.000
1566.000,-21.973,-19.531,-30.273,-19.531,0.000
1570.000,-26.367,-22.949,-33.691,-2.441,0.000
1574.000,-46.387,-22.461,-37.598,-10.254,0.000
1578.000,-61.523,-26.367,-39.062,-31.738,0.000
1582.000,-53.711,-32.227,-40.039,-24.414,0.000
1586.000,-34.180,-31.250,-42.480,-2.441,0.000
1590.000,-22.949,-26.367,-41.504,-7.324,0.000
1594.000,-22.949,-19.531,-34.668,-11.719,0.000
1598.000,-21.973,-21.484,-34.180,-5.371,0.000
1602.000,-3.418,-15.137,-34.180,-1.465,0.000
1605.000,-10.742,-12.695,-25.879,6.836,0.000
1609.000,-18.555,-17.578,-24.414,4.395,0.000
1613.000,-11.230,-17.090,-29.785,-0.488,0.000
1617.000,-10.742,-17.090,-28.809,9.277,0.000
1621.000,-5.859,-15.625,-23.926,18.555,0.000
1625.000,0.977,-11.719,-24.902,7.812,0.000
1629.000,10.742,-4.883,-22.461,10.254,0.000
1633.000,18.066,-3.906,-23.926,11.230,0.000
1637.000,12.207,-11.230,-23.438,-0.488,0.000
1641.000,-0.488,-16.602,-25.391,-0.977,0.000
1644.000,-0.488,-13.184,-29.297,9.277,0.000
1648.000,-6.348,-14.648,-26.855,10.742,0.000
1652.000,-4.395,-13.672,-25.879,20.020,0.000
1656.000,8.789,-9.277,-27.344,31.738,0.000
1660.000,19.531,-8.789,-24.902,30.273,0.000
1664.000,14.648,-6.836,-24.902,24.902,0.000
1668.000,-4.395,-11.230,-23.926,32.227,0.000
1672.000,10.742,-11.230,-19.531,53.711,0.000
1676.000,39.062,-6.348,-25.879,51.758,0.000
1680.000,57.617,-3.418,-33.203,22.949,0.000
1684.000,52.734,-3.906,-30.762,25.391,0.000
1687.000,32.227,-2.930,-28.320,41.504,0.000
1691.000,22.461,-1.953,-27.832,45.898,0.000
1695.000,35.645,0.488,-25.879,49.805,0.000
1699.000,33.203,2.441,-20.508,47.363,0.000
1703.000,23.926,2.441,-18.555,53.711,0.000
1707.000,36.133,5.859,-19.043,45.898,0.000
1711.000,58.105,5.859,-22.949,34.180,0.000
1715.000,71.777,6.836,-30.273,33.691,0.000
1719.000,78.613,3.418,-26.367,45.898,0.000
1723.000,37.598,-5.371,-22.461,63.477,0.000
1726.000,7.812,-5.371,-27.832,55.176,0.000
1730.000,23.926,-2.441,-31.250,40.527,0.000
1734.000,24.414,-3.418,-25.391,37.598,0.000
1738.000,27.344,0.488,-29.297,42.480,0.000
1742.000,43.457,1.465,-36.621,43.945,0.000
1746.000,51.758,-3.418,-35.156,32.715,0.000
1750.000,39.551,-3.418,-30.762,46.875,0.000
1754.000,18.066,-4.395,-28.809,47.852,0.000
1758.000,14.160,-2.441,-28.320,35.645,0.000
1762.000,19.531,-2.441,-19.043,39.062,0.000
1766.000,31.738,-6.348,-13.672,43.945,0.000
1769.000,50.293,-5.371,-20.508,55.176,0.000
1773.000,48.340,-7.812,-22.949,34.668,0.000
1777.000,41.504,-8.789,-28.809,3.418,0.000
1781.000,19.531,-13.184,-32.227,-3.906,0.000
1785.000,1.465,-16.602,-30.762,9.277,0.000
1789.000,2.441,-17.090,-28.320,17.578,0.000
1793.000,11.230,-21.484,-23.926,9.766,0.000
1797.000,8.789,-18.555,-25.879,10.254,0.000
1801.000,-12.695,-24.414,-25.391,15.625,0.000
1805.000,-8.301,-26.855,-20.996,12.695,0.000
1809.000,7.324,-21.973,-17.578,17.578,0.000
1812.000,-1.953,-28.320,-21.973,10.742,0.000
1816.000,-4.883,-31.250,-29.297,4.395,0.000
1820.000,6.348,-25.391,-21.973,20.996,0.000
1824.000,2.441,-23.926,-20.508,29.297,0.000
1828.000,-18.066,-30.762,-25.391,11.230,0.000
1832.000,-37.598,-31.738,-23.926,7.324,0.000
1836.000,-26.855,-29.785,-23.438,13.184,0.000
1840.000,-9.766,-28.320,-22.461,-7.324,0.000
1844.000,-2.930,-24.414,-25.879,-20.020,0.000
1848.000,3.906,-25.391,-30.273,-26.855,0.000
1851.000,-9.277,-25.879,-30.762,-26.855,0.000
1855.000,-16.602,-30.762,-30.762,-12.695,0.000
1859.000,-17.090,-35.645,-32.715,-20.996,0.000
1863.000,-18.066,-30.273,-29.297,-29.785,0.000
1867.000,-33.203,-31.250,-28.809,-15.625,0.000
1871.000,-57.617,-31.250,-31.738,-20.020,0.000
1875.000,-59.570,-28.809,-33.691,-39.062,0.000
1879.000,-44.434,-30.273,-38.086,-29.297,0.000
1883.000,-32.715,-26.367,-38.086,-20.996,0.000
1887.000,-44.922,-27.344,-37.109,-29.785,0.000
1891.000,-46.387,-29.785,-33.691,-38.086,0.000
1894.000,-35.645,-28.809,-30.273,-41.504,0.000
1898.000,-41.016,-28.809,-28.320,-27.832,0.000
1902.000,-45.410,-27.344,-27.832,-19.531,0.000
1906.000,-43.945,-29.785,-33.691,-22.949,0.000
1910.000,-26.855,-30.273,-35.156,-11.230,0.000
1914.000,-9.766,-32.227,-23.926,-4.395,0.000
1918.000,-41.016,-35.645,-21.973,-30.762,0.000
1922.000,-70.801,-34.668,-27.832,-52.734,0.000
1926.000,-75.195,-37.598,-27.832,-54.688,0.000
1930.000,-94.238,-46.875,-28.320,-62.012,0.000
1934.000,-100.098,-51.758,-24.902,-70.312,0.000
1937.000,-108.398,-56.641,-24.902,-88.379,0.000
1941.000,-129.883,-63.965,-28.809,-111.816,0.000
1945.000,-124.512,-62.012,-34.180,-137.207,0.000
1949.000,-126.953,-61.035,-35.156,-161.621,0.000
1953.000,-147.461,-61.035,-32.227,-161.621,0.000
1957.000,-151.855,-61.523,-31.250,-147.461,0.000
1961.000,-157.227,-61.523,-27.832,-145.996,0.000
1965.000,-157.227,-61.035,-24.414,-141.602,0.000
1969.000,-135.254,-64.453,-22.461,-130.371,0.000
1973.000,-137.695,-60.547,-23.438,-136.719,0.000
1976.000,-153.809,-59.570,-25.879,-139.160,0.000
1980.000,-146.484,-58.105,-20.508,-134.277,0.000
1984.000,-147.949,-62.500,-15.625,-122.559,0.000
1988.000,-151.855,-68.848,-15.625,-108.887,0.000
1992.000,-141.602,-57.617,-25.391,-113.770,0.000
1996.000,-128.906,-51.758,-30.273,-117.676,0.000
2000.000,-118.652,-52.246,-24.902,-104.004,0.000
2004.000,-118.652,-50.781,-22.461,-87.402,0.000
2008.000,-105.957,-51.270,-21.973,-82.520,0.000
2012.000,-90.820,-53.711,-29.297,-85.938,0.000
2016.000,-79.102,-46.875,-30.273,-67.871,0.000
2019.000,-67.383,-43.457,-21.973,-45.410,0.000
2023.000,-61.523,-46.387,-23.926,-44.434,0.000
2027.000,-49.316,-41.992,-23.926,-39.062,0.000
2031.000,-37.109,-32.715,-22.949,-39.062,0.000
2035.000,-36.133,-29.785,-29.785,-37.598,0.000
2039.000,-37.109,-33.203,-35.645,-36.133,0.000
2043.000,-32.227,-34.668,-31.738,-50.781,0.000
2047.000,-19.531,-32.715,-27.832,-53.711,0.000
2051.000,-16.113,-31.738,-27.832,-35.156,0.000
2055.000,-31.250,-34.668,-32.715,-22.949,0.000
2059.000,-27.344,-31.250,-36.133,-21.973,0.000
2062.000,-9.277,-29.785,-31.250,-14.160,0.000
2066.000,-20.996,-36.133,-28.809,-1.953,0.000
2070.000,-32.227,-33.203,-27.832,3.418,0.000
2074.000,-37.109,-32.715,-20.996,0.488,0.000
2078.000,-36.621,-29.785,-20.996,-6.348,0.000
2082.000,-20.508,-22.949,-27.344,-5.859,0.000
2086.000,-20.020,-27.832,-28.809,-2.930,0.000
2090.000,-19.531,-27.344,-25.879,1.953,0.000
2094.000,-14.160,-25.391,-22.461,3.418,0.000
2098.000,-22.461,-31.250,-29.785,-3.906,0.000
2101.000,-22.461,-29.785,-29.785,-3.418,0.000
2105.000,-23.438,-24.902,-26.855,0.000,0.000
2109.000,-29.785,-24.902,-31.738,0.000,0.000
2113.000,-26.367,-26.367,-32.715,-2.930,0.000
2117.000,-29.785,-25.879,-31.250,3.906,0.000
2121.000,-21.484,-24.414,-24.414,6.348,0.000
2125.000,-13.184,-24.414,-23.926,-6.348,0.000
2129.000,-10.254,-20.996,-30.273,-22.949,0.000
2133.000,-4.395,-14.648,-29.785,-27.344,0.000
2137.000,-12.695,-18.555,-28.809,-24.902,0.000
2141.000,-17.578,-24.414,-28.809,-29.785,0.000
2144.000,-10.742,-21.484,-28.809,-30.273,0.000
2148.000,-14.160,-22.949,-27.832,-28.320,0.000
2152.000,-31.738,-26.855,-27.344,-19.531,0.000
2156.000,-38.574,-28.809,-29.297,-24.902,0.000
2160.000,-28.320,-27.344,-29.785,-37.109,0.000
2164.000,-23.438,-27.344,-24.902,-33.203,0.000
2168.000,-20.508,-31.250,-22.461,-29.785,0.000
2172.000,-36.133,-28.809,-21.484,-28.809,0.000
2176.000,-57.617,-23.926,-20.020,-29.785,0.000
2180.000,-45.410,-23.926,-20.996,-32.715,0.000
2184.000,-41.016,-24.414,-22.949,-27.344,0.000
2187.000,-42.480,-21.973,-28.809,-26.855,0.000
2191.000,-42.480,-22.949,-27.344,-41.016,0.000
2195.000,-51.270,-28.320,-33.203,-46.387,0.000
2199.000,-51.270,-33.203,-40.039,-43.945,0.000
2203.000,-54.199,-34.180,-41.992,-50.781,0.000
2207.000,-53.711,-31.738,-42.480,-58.594,0.000
2211.000,-39.062,-31.250,-38.574,-58.594,0.000
2215.000,-41.016,-28.809,-36.133,-50.781,0.000
2219.000,-44.922,-27.832,-34.180,-47.852,0.000
2223.000,-37.109,-27.832,-29.785,-55.176,0.000
2226.000,-27.832,-32.715,-31.250,-64.941,0.000
2230.000,-43.457,-38.086,-36.621,-65.430,0.000
2234.000,-69.336,-31.250,-32.715,-50.781,0.000
2238.000,-61.523,-25.391,-30.273,-56.152,0.000
2242.000,-46.387,-22.461,-26.855,-62.012,0.000
2246.000,-33.203,-19.531,-22.461,-50.781,0.000
2250.000,-31.250,-24.902,-23.926,-47.852,0.000
2254.000,-51.270,-26.367,-23.926,-42.969,0.000
2258.000,-62.012,-26.367,-24.902,-40.039,0.000
2262.000,-61.523,-27.344,-24.902,-52.246,0.000
2266.000,-46.875,-29.297,-19.043,-55.664,0.000
2269.000,-22.461,-23.438,-14.160,-41.504,0.000
2273.000,-33.203,-21.484,-11.230,-37.109,0.000
2277.000,-55.664,-27.344,-10.254,-42.480,0.000
2281.000,-67.383,-26.367,-17.578,-41.992,0.000
2285.000,-69.336,-27.832,-23.926,-37.109,0.000
2289.000,-62.988,-20.996,-20.508,-29.785,0.000
2293.000,-63.965,-22.461,-21.973,-36.133,0.000
2297.000,-58.594,-30.273,-26.855,-43.945,0.000
2301.000,-48.340,-25.879,-26.367,-32.715,0.000
2305.000,-39.062,-24.414,-20.020,-28.320,0.000
2309.000,-43.457,-27.832,-15.137,-41.016,0.000
2312.000,-66.895,-32.715,-19.531,-50.293,0.000
2316.000,-62.988,-29.297,-22.461,-45.410,0.000
2320.000,-49.316,-26.367,-21.973,-46.387,0.000
2324.000,-53.223,-30.273,-24.902,-57.129,0.000
2328.000,-62.988,-27.344,-29.297,-55.664,0.000
2332.000,-49.316,-23.438,-27.832,-51.270,0.000
2336.000,-46.387,-27.344,-26.367,-54.199,0.000
2340.000,-62.012,-20.508,-28.809,-60.059,0.000
2344.000,-58.594,-15.625,-25.391,-52.734,0.000
2348.000,-60.059,-22.461,-24.414,-51.758,0.000
2351.000,-60.059,-24.902,-28.320,-54.688,0.000
2355.000,-53.223,-22.461,-27.344,-42.969,0.000
2359.000,-51.758,-18.555,-27.832,-34.180,0.000
2363.000,-48.340,-17.090,-33.691,-33.203,0.000
2367.000,-43.457,-20.508,-37.109,-26.367,0.000
2371.000,-34.180,-26.855,-36.133,-21.484,0.000
2375.000,-28.320,-25.391,-28.320,-21.484,0.000
2379.000,-29.785,-23.438,-26.367,-29.297,0.000
2383.000,-33.203,-25.879,-31.250,-44.434,0.000
2387.000,-41.992,-20.996,-30.273,-41.504,0.000
2391.000,-33.691,-19.531,-30.273,-30.762,0.000
2394.000,-20.996,-24.902,-34.180,-42.969,0.000
2398.000,-25.879,-24.414,-36.621,-45.410,0.000
2402.000,-25.391,-22.949,-31.250,-33.203,0.000
2406.000,-29.785,-24.414,-24.902,-40.527,0.000
2410.000,-38.574,-18.066,-27.832,-50.781,0.000
2414.000,-32.227,-15.625,-34.668,-54.688,0.000
2418.000,-30.273,-22.461,-30.762,-53.223,0.000
2422.000,-34.180,-22.461,-24.902,-37.109,0.000
2426.000,-39.551,-20.996,-29.785,-34.668,0.000
2430.000,-44.434,-25.391,-30.273,-37.109,0.000
2434.000,-40.039,-23.438,-25.879,-37.109,0.000
2437.000,-42.969,-23.438,-23.438,-38.086,0.000
2441.000,-46.875,-22.461,-21.484,-43.457,0.000
2445.000,-43.945,-20.996,-20.020,-46.387,0.000
2449.000,-43.457,-21.484,-20.996,-36.133,0.000
2453.000,-39.551,-23.438,-25.391,-21.973,0.000
2457.000,-34.180,-22.949,-23.926,-22.461,0.000
2461.000,-31.738,-21.973,-26.367,-30.273,0.000
2465.000,-29.785,-26.367,-29.785,-31.738,0.000
2469.000,-29.297,-21.484,-24.414,-21.973,0.000
2473.000,-33.691,-16.602,-20.996,-14.160,0.000
2476.000,-27.832,-21.484,-20.020,-22.949,0.000
2480.000,-16.602,-27.832,-25.879,-30.762,0.000
2484.000,-19.043,-25.391,-29.785,-22.949,0.000
2488.000,-36.133,-22.461,-25.391,-19.043,0.000
2492.000,-37.598,-25.879,-24.902,-23.438,0.000
2496.000,-26.367,-26.367,-27.344,-32.227,0.000
2500.000,-20.020,-25.879,-24.902,-33.691,0.000
2504.000,-13.184,-27.344,-20.996,-18.555,0.000
2508.000,-26.855,-26.855,-20.996,-26.367,0.000
2512.000,-50.781,-24.902,-20.508,-36.621,0.000
2516.000,-51.758,-26.855,-23.438,-24.414,0.000
2519.000,-40.039,-27.344,-25.879,-26.855,0.000
2523.000,-35.156,-22.461,-26.367,-32.227,0.000
2527.000,-24.414,-21.484,-29.785,-36.621,0.000
2531.000,-14.648,-24.414,-28.320,-17.578,0.000
2535.000,-37.109,-22.461,-24.414,-2.930,0.000
2539.000,-62.012,-24.414,-21.484,-28.809,0.000
2543.000,-58.105,-23.926,-17.090,-49.316,0.000
2547.000,-42.969,-18.555,-17.090,-38.086,0.000
2551.000,-31.250,-23.926,-23.926,-18.066,0.000
2555.000,-19.531,-30.762,-25.879,-16.602,0.000
2559.000,-1.953,-27.344,-26.855,-22.949,0.000
2562.000,7.812,-23.438,-30.762,-20.020,0.000
2566.000,31.250,-14.160,-28.809,-4.883,0.000
2570.000,41.992,-7.324,-27.832,5.859,0.000
2574.000,4.395,-11.230,-28.320,14.160,0.000
2578.000,0.488,-17.090,-27.832,27.832,0.000
2582.000,23.926,-14.648,-26.367,36.621,0.000
2586.000,42.969,-10.254,-25.391,47.852,0.000
2590.000,50.293,-3.906,-25.879,51.270,0.000
2594.000,14.648,-5.371,-25.879,39.551,0.000
2598.000,0.977,-10.742,-22.949,41.992,0.000
2601.000,22.461,-2.441,-23.438,62.988,0.000
2605.000,20.508,-4.883,-24.414,64.453,0.000
2609.000,32.715,-5.859,-22.949,60.547,0.000
2613.000,48.828,3.418,-26.367,59.570,0.000
2617.000,36.621,2.441,-24.414,55.664,0.000
2621.000,41.504,0.488,-27.344,55.664,0.000
2625.000,56.641,-2.441,-29.785,47.363,0.000
2629.000,61.035,-1.465,-27.344,38.086,0.000
2633.000,65.918,1.953,-33.691,37.109,0.000
2637.000,67.383,5.859,-36.133,38.086,0.000
2641.000,59.570,5.371,-27.832,37.109,0.000
2644.000,70.801,1.465,-23.438,42.969,0.000
2648.000,86.426,2.930,-21.973,57.129,0.000
2652.000,67.383,0.977,-25.391,49.805,0.000
2656.000,41.504,-6.348,-27.832,41.504,0.000
2660.000,40.527,-5.371,-31.738,52.734,0.000
2664.000,52.246,-1.953,-31.250,63.965,0.000
2668.000,65.430,-1.953,-29.785,57.617,0.000
2672.000,66.406,-9.766,-31.250,45.898,0.000
2676.000,51.758,-10.254,-34.180,51.270,0.000
2680.000,39.062,-8.789,-35.645,64.941,0.000
2684.000,18.066,-7.324,-31.250,68.848,0.000
2687.000,14.160,-3.906,-35.156,54.688,0.000
2691.000,30.762,-5.859,-31.738,58.594,0.000
2695.000,37.109,-9.277,-20.020,65.918,0.000
2699.000,36.133,-14.160,-18.066,63.965,0.000
2703.000,26.855,-12.695,-21.484,54.688,0.000
2707.000,24.414,-8.301,-19.531,46.875,0.000
2711.000,35.645,-8.301,-18.555,42.480,0.000
2715.000,43.945,-10.254,-16.602,44.434,0.000
2719.000,42.969,-11.230,-19.043,36.621,0.000
2723.000,28.809,-12.695,-20.508,17.090,0.000
2726.000,31.738,-10.254,-17.578,25.391,0.000
2730.000,44.922,-11.230,-15.137,34.668,0.000
2734.000,49.316,-12.207,-12.207,36.133,0.000
2738.000,48.828,-3.906,-14.160,31.738,0.000
2742.000,48.828,-4.883,-14.648,22.461,0.000
2746.000,57.617,-7.324,-18.066,21.973,0.000
2750.000,49.805,-8.789,-21.973,32.227,0.000
2754.000,24.902,-19.043,-21.484,38.574,0.000
2758.000,6.348,-23.438,-22.461,32.715,0.000
2762.000,0.488,-24.902,-19.043,31.738,0.000
2766.000,5.859,-28.320,-18.066,34.668,0.000
2769.000,-1.953,-24.902,-23.926,36.133,0.000
2773.000,-7.324,-20.508,-18.066,37.109,0.000
2777.000,6.348,-20.508,-14.648,27.832,0.000
2781.000,17.578,-20.020,-17.090,22.949,0.000
2785.000,20.020,-20.996,-18.066,24.902,0.000
2789.000,32.227,-24.902,-17.090,20.508,0.000
2793.000,10.254,-26.367,-18.066,7.812,0.000
2797.000,-1.465,-26.367,-23.926,16.602,0.000
2801.000,-3.906,-27.832,-23.438,16.113,0.000
2805.000,-40.527,-31.250,-24.902,-8.789,0.000
2809.000,-29.785,-27.344,-26.855,-10.254,0.000
2812.000,-24.414,-22.949,-23.926,0.488,0.000
2816.000,-28.320,-20.996,-26.855,6.348,0.000
2820.000,-27.832,-23.438,-26.367,-6.836,0.000
2824.000,-29.297,-29.785,-24.902,-26.367,0.000
2828.000,-35.156,-32.227,-31.738,-34.668,0.000
2832.000,-33.203,-28.809,-31.738,-37.109,0.000
2836.000,-28.809,-29.297,-26.367,-33.691,0.000
2840.000,-32.715,-30.762,-22.949,-22.461,0.000
2844.000,-31.250,-25.879,-14.160,-3.418,0.000
2848.000,-39.062,-24.414,-17.578,1.953,0.000
2851.000,-34.668,-27.832,-19.043,-3.418,0.000
2855.000,-21.973,-30.762,-15.137,-2.441,0.000
2859.000,-1.953,-23.926,-14.648,1.953,0.000
2863.000,7.812,-18.066,-13.672,3.418,0.000
2867.000,-17.090,-32.227,-19.531,-10.254,0.000
2871.000,-37.109,-33.203,-25.879,-17.578,0.000
2875.000,-30.273,-20.996,-24.414,-2.930,0.000
2879.000,-30.762,-16.113,-19.043,10.742,0.000
2883.000,-44.922,-20.996,-20.020,8.789,0.000
2887.000,-33.691,-27.344,-19.043,6.348,0.000
2891.000,-7.324,-25.879,-17.090,2.441,0.000
2894.000,-12.695,-25.879,-16.113,-13.184,0.000
2898.000,-28.809,-26.855,-13.184,-1.953,0.000
2902.000,-29.297,-22.949,-8.789,10.742,0.000
2906.000,-32.715,-21.973,-7.812,1.465,0.000
2910.000,-26.367,-24.414,-12.695,-5.859,0.000
2914.000,-30.273,-24.414,-14.160,-14.160,0.000
2918.000,-42.480,-22.461,-19.043,-17.578,0.000
2922.000,-42.480,-25.391,-23.926,-27.832,0.000
2926.000,-36.133,-27.344,-24.414,-51.270,0.000
2930.000,-27.832,-26.367,-21.973,-56.641,0.000
2934.000,-23.438,-28.320,-22.949,-44.434,0.000
2937.000,-41.992,-29.297,-25.391,-47.852,0.000
2941.000,-63.965,-32.227,-22.949,-59.570,0.000
2945.000,-50.781,-34.180,-23.926,-55.176,0.000
2949.000,-49.316,-35.645,-23.926,-42.480,0.000
2953.000,-64.453,-37.598,-28.320,-42.480,0.000
2957.000,-64.453,-39.551,-31.250,-41.992,0.000
2961.000,-48.828,-34.180,-23.438,-24.902,0.000
2965.000,-32.227,-38.086,-16.113,-18.555,0.000
2969.000,-42.480,-43.945,-22.949,-44.434,0.000
2973.000,-75.684,-43.457,-25.879,-66.895,0.000
2976.000,-85.449,-47.363,-22.949,-70.312,0.000
2980.000,-80.566,-51.270,-25.391,-77.148,0.000
2984.000,-115.234,-58.594,-27.344,-106.445,0.000
2988.000,-154.785,-59.082,-29.785,-120.605,0.000
2992.000,-168.457,-57.129,-30.273,-122.070,0.000
2996.000,-176.758,-61.523,-38.574,-137.695,0.000
3000.000,-170.898,-66.406,-35.156,-139.160,0.000
3004.000,-176.758,-68.848,-27.344,-143.066,0.000
3008.000,-184.082,-67.383,-32.715,-163.574,0.000
3012.000,-170.410,-58.105,-27.832,-167.969,0.000
3016.000,-172.852,-58.594,-27.832,-168.457,0.000
3019.000,-177.734,-72.266,-35.156,-169.922,0.000
3023.000,-172.363,-69.336,-28.320,-157.715,0.000
3027.000,-186.035,-61.523,-24.902,-167.480,0.000
3031.000,-182.129,-56.152,-29.785,-166.016,0.000
3035.000,-165.527,-56.152,-25.391,-144.531,0.000
3039.000,-171.875,-57.617,-22.949,-140.137,0.000
3043.000,-166.992,-50.293,-21.973,-142.578,0.000
3047.000,-152.832,-49.316,-23.926,-137.695,0.000
3051.000,-139.648,-52.246,-24.414,-121.094,0.000
3055.000,-134.277,-50.293,-24.902,-114.746,0.000
3058.000,-121.094,-47.852,-29.785,-108.398,0.000
3062.000,-99.609,-51.270,-29.785,-100.098,0.000
3066.000,-93.262,-49.805,-26.855,-86.426,0.000
3070.000,-96.191,-47.363,-23.926,-73.730,0.000
3074.000,-95.215,-48.340,-25.879,-69.824,0.000
3078.000,-83.496,-44.922,-24.414,-65.430,0.000
3082.000,-76.172,-47.363,-28.320,-69.336,0.000
3086.000,-77.148,-50.293,-33.691,-63.477,0.000
3090.000,-58.594,-47.363,-30.273,-55.176,0.000
3094.000,-62.988,-44.434,-28.320,-66.406,0.000
3098.000,-70.801,-46.387,-23.926,-69.824,0.000
3101.000,-60.547,-45.898,-22.461,-58.594,0.000
3105.000,-45.410,-41.016,-29.297,-51.758,0.000
3109.000,-28.809,-40.039,-32.227,-54.199,0.000
3113.000,-35.645,-37.598,-28.320,-47.852,0.000
3117.000,-56.641,-33.691,-25.391,-30.762,0.000
3121.000,-57.617,-30.273,-22.461,-23.926,0.000
3125.000,-45.410,-26.855,-22.461,-26.367,0.000
3129.000,-36.621,-28.320,-24.414,-23.438,0.000
3133.000,-33.203,-27.832,-27.344,-18.066,0.000
3137.000,-35.156,-28.320,-29.785,-13.672,0.000
3141.000,-38.574,-28.320,-28.320,-15.137,0.000
3144.000,-36.133,-28.320,-33.691,-19.531,0.000
3148.000,-34.180,-26.855,-35.156,-18.555,0.000
3152.000,-39.062,-28.320,-30.762,-14.648,0.000
3156.000,-38.574,-31.738,-30.762,-15.137,0.000
3160.000,-41.016,-33.691,-30.273,-24.902,0.000
3164.000,-35.156,-31.738,-30.273,-25.879,0.000
3168.000,-27.344,-23.438,-29.785,-19.531,0.000
3172.000,-32.715,-23.926,-28.320,-19.043,0.000
3176.000,-35.156,-28.320,-29.785,-21.484,0.000
3180.000,-36.133,-27.344,-26.855,-15.625,0.000
3183.000,-31.250,-30.762,-24.414,-6.348,0.000
3187.000,-27.344,-31.250,-25.391,-5.371,0.000
3191.000,-33.691,-31.738,-24.902,-14.648,0.000
3195.000,-34.668,-30.273,-21.484,-26.367,0.000
3199.000,-33.203,-32.227,-20.020,-20.996,0.000
3203.000,-36.133,-32.715,-21.484,-14.160,0.000
3207.000,-37.109,-29.297,-19.043,-13.672,0.000
3211.000,-45.898,-28.809,-18.066,-14.648,0.000
3215.000,-47.852,-29.785,-23.438,-7.324,0.000
3219.000,-41.992,-28.809,-24.414,2.930,0.000
3223.000,-33.691,-27.832,-22.949,-3.906,0.000
3226.000,-27.344,-21.484,-25.879,-9.766,0.000
3230.000,-42.969,-23.438,-26.855,-0.488,0.000
3234.000,-49.316,-32.227,-20.996,6.836,0.000
3238.000,-28.320,-31.738,-19.531,-2.441,0.000
3242.000,-12.207,-28.809,-23.926,-13.672,0.000
3246.000,-19.531,-28.320,-22.949,-19.043,0.000
3250.000,-37.109,-30.273,-26.855,-14.648,0.000
3254.000,-40.527,-27.344,-30.762,-16.113,0.000
3258.000,-44.922,-26.367,-32.227,-39.062,0.000
3262.000,-48.828,-30.273,-35.156,-41.992,0.000
3266.000,-55.664,-34.180,-35.645,-32.715,0.000
3269.000,-64.453,-33.691,-33.691,-33.203,0.000
3273.000,-59.570,-26.367,-27.832,-35.645,0.000
3277.000,-52.734,-27.832,-23.438,-29.297,0.000
3281.000,-54.688,-28.809,-26.855,-31.738,0.000
3285.000,-51.758,-24.414,-25.391,-35.645,0.000
3289.000,-48.828,-23.438,-20.020,-33.203,0.000
3293.000,-59.570,-25.879,-21.973,-44.434,0.000
3297.000,-62.500,-28.809,-27.344,-52.734,0.000
3301.000,-57.617,-24.902,-27.344,-56.152,0.000
3305.000,-62.012,-25.879,-26.367,-57.617,0.000
3308.000,-69.336,-30.762,-30.762,-61.035,0.000
3312.000,-73.730,-34.180,-33.203,-61.523,0.000
3316.000,-72.266,-29.785,-28.809,-54.688,0.000
3320.000,-53.711,-23.926,-28.809,-49.316,0.000
3324.000,-39.551,-27.832,-32.227,-58.105,0.000
3328.000,-40.527,-35.645,-31.250,-74.219,0.000
3332.000,-46.387,-34.180,-30.273,-68.848,0.000
3336.000,-75.684,-34.180,-35.156,-57.129,0.000
3340.000,-95.703,-38.574,-36.621,-61.035,0.000
3344.000,-84.961,-37.598,-31.250,-62.500,0.000
3348.000,-69.824,-32.227,-30.762,-55.176,0.000
3351.000,-62.012,-30.762,-34.668,-55.176,0.000
3355.000,-56.152,-29.297,-31.738,-55.176,0.000
3359.000,-41.504,-28.809,-30.762,-56.152,0.000
3363.000,-46.387,-26.855,-29.785,-53.711,0.000
3367.000,-76.172,-26.367,-24.902,-33.691,0.000
3371.000,-83.496,-24.902,-24.414,-31.738,0.000
3375.000,-75.195,-24.414,-26.367,-46.875,0.000
3379.000,-64.941,-27.832,-24.902,-42.969,0.000
3383.000,-47.363,-31.250,-24.902,-33.203,0.000
3387.000,-34.180,-28.809,-27.832,-19.043,0.000
3391.000,-52.246,-23.926,-26.855,-28.809,0.000
3394.000,-74.219,-25.391,-31.250,-62.988,0.000
3398.000,-72.754,-27.832,-35.156,-76.172,0.000
3402.000,-60.547,-23.438,-36.133,-55.664,0.000
3406.000,-59.082,-21.484,-38.574,-41.016,0.000
3410.000,-61.035,-25.391,-35.645,-53.223,0.000
3414.000,-43.945,-20.508,-35.156,-49.316,0.000
3418.000,-34.668,-16.602,-35.645,-34.668,0.000
