timestamp,TP9,AF7,AF8,TP10,Right AUX
0.000,-55.176,-28.320,-18.555,-42.969,0.000
4.000,-56.641,-37.598,-19.531,-44.922,0.000
8.000,-59.570,-39.551,-25.879,-43.457,0.000
12.000,-43.945,-38.574,-27.344,-45.410,0.000
16.000,-42.969,-33.203,-27.832,-50.293,0.000
20.000,-56.641,-38.086,-23.926,-45.410,0.000
23.000,-57.617,-32.227,-20.020,-38.086,0.000
27.000,-62.012,-26.855,-20.508,-35.645,0.000
31.000,-76.660,-35.645,-21.484,-27.832,0.000
35.000,-83.496,-37.109,-24.902,-21.973,0.000
39.000,-77.148,-32.227,-26.367,-27.344,0.000
43.000,-75.195,-36.621,-25.879,-33.691,0.000
47.000,-61.035,-37.109,-23.438,-33.691,0.000
51.000,-30.273,-31.250,-24.902,-16.602,0.000
55.000,-34.668,-28.320,-30.762,-16.113,0.000
59.000,-52.734,-23.926,-31.250,-38.574,0.000
62.000,-40.527,-20.020,-33.691,-42.480,0.000
66.000,-13.672,-19.043,-37.109,-33.691,0.000
70.000,-1.953,-14.648,-39.551,-29.297,0.000
74.000,-16.602,-16.113,-40.527,-26.855,0.000
78.000,-24.902,-9.766,-38.574,-2.930,0.000
82.000,-33.203,-2.441,-39.062,1.953,0.000
86.000,-28.320,-0.977,-41.992,-9.766,0.000
90.000,2.930,5.371,-40.039,-9.277,0.000
94.000,6.348,7.812,-44.434,-15.625,0.000
98.000,-12.207,9.277,-48.828,-7.324,0.000
102.000,-10.254,13.672,-48.340,-5.859,0.000
105.000,12.695,19.043,-50.781,-5.859,0.000
109.000,17.578,23.926,-51.270,3.418,0.000
113.000,0.977,25.879,-57.617,-0.488,0.000
117.000,1.465,24.414,-61.523,3.418,0.000
121.000,0.000,21.484,-55.664,12.207,0.000
125.000,-7.812,23.926,-53.223,11.719,0.000
129.000,-5.371,20.020,-58.105,1.465,0.000
133.000,-1.465,19.043,-57.129,5.859,0.000
137.000,4.395,20.996,-49.316,17.578,0.000
141.000,14.160,18.555,-46.875,15.625,0.000
145.000,5.371,20.020,-46.875,2.441,0.000
148.000,-0.977,15.625,-48.340,-5.859,0.000
152.000,1.465,12.207,-53.223,-7.324,0.000
156.000,5.371,14.160,-58.105,-5.371,0.000
160.000,0.000,14.648,-54.199,8.789,0.000
164.000,-6.836,18.555,-55.664,13.672,0.000
168.000,-8.789,21.484,-56.152,10.742,0.000
172.000,4.883,20.020,-52.246,9.277,0.000
176.000,10.254,18.555,-46.387,11.230,0.000
180.000,2.441,15.137,-46.387,11.719,0.000
184.000,6.348,14.160,-52.246,5.371,0.000
187.000,9.766,10.254,-52.734,-10.254,0.000
191.000,2.930,12.207,-51.270,-9.766,0.000
195.000,-23.438,19.531,-54.688,-5.371,0.000
199.000,-21.973,19.531,-58.105,-14.648,0.000
203.000,-10.254,12.207,-56.641,-21.484,0.000
207.000,-5.371,8.301,-51.270,-12.695,0.000
211.000,-11.719,13.672,-51.758,-5.859,0.000
215.000,-22.949,12.695,-49.805,-21.973,0.000
219.000,-29.297,7.812,-47.852,-27.344,0.000
223.000,-27.832,7.812,-50.293,-26.855,0.000
227.000,-20.020,9.277,-48.828,-35.645,0.000
230.000,-14.160,5.371,-45.898,-32.715,0.000
234.000,-19.531,-2.441,-45.898,-32.715,0.000
238.000,-20.020,-4.883,-43.945,-36.621,0.000
242.000,-9.766,-2.930,-35.156,-30.762,0.000
246.000,-5.859,-5.859,-41.016,-25.391,0.000
250.000,-0.977,-4.883,-41.016,-26.855,0.000
254.000,-16.602,-2.441,-27.344,-18.555,0.000
258.000,-17.090,-2.441,-27.344,2.930,0.000
262.000,-23.438,-1.953,-27.344,0.000,0.000
266.000,-39.062,-8.789,-26.367,-18.555,0.000
270.000,-33.203,-11.719,-30.273,-23.438,0.000
273.000,-28.320,-9.277,-29.297,-15.625,0.000
277.000,-23.438,-11.230,-28.809,-21.484,0.000
281.000,-35.156,-17.578,-29.297,-36.133,0.000
285.000,-43.457,-20.508,-27.832,-27.344,0.000
289.000,-28.320,-17.090,-23.438,-11.230,0.000
293.000,-21.484,-13.672,-21.484,-15.625,0.000
297.000,-21.484,-12.695,-24.414,-35.156,0.000
301.000,-19.043,-14.648,-26.855,-34.668,0.000
305.000,-6.836,-22.949,-32.227,-27.832,0.000
309.000,-9.766,-26.367,-35.645,-26.367,0.000
312.000,-26.367,-21.484,-36.621,-26.855,0.000
316.000,-48.340,-21.973,-32.715,-44.434,0.000
320.000,-50.781,-29.297,-27.832,-43.457,0.000
324.000,-37.598,-32.227,-32.227,-32.227,0.000
328.000,-41.016,-29.785,-40.039,-41.504,0.000
332.000,-31.250,-24.902,-36.621,-35.645,0.000
336.000,-8.301,-20.508,-22.949,-11.230,0.000
340.000,-39.551,-33.691,-15.137,-20.508,0.000
344.000,-67.871,-44.922,-21.973,-50.781,0.000
348.000,-54.199,-45.898,-20.508,-44.434,0.000
352.000,-58.105,-59.082,-10.254,-49.805,0.000
355.000,-82.031,-65.918,-10.254,-59.570,0.000
359.000,-104.492,-64.941,-7.324,-48.828,0.000
363.000,-110.840,-71.777,0.488,-60.547,0.000
367.000,-128.418,-80.566,-1.953,-74.707,0.000
371.000,-142.090,-88.867,2.441,-66.406,0.000
375.000,-133.789,-93.262,7.324,-62.012,0.000
379.000,-118.652,-91.309,6.348,-64.453,0.000
383.000,-114.258,-94.238,7.812,-65.430,0.000
387.000,-118.652,-104.980,10.254,-65.430,0.000
391.000,-118.164,-104.980,11.230,-53.223,0.000
395.000,-109.375,-103.027,18.066,-39.551,0.000
398.000,-111.328,-102.051,28.809,-39.062,0.000
402.000,-106.445,-105.957,29.785,-47.852,0.000
406.000,-113.281,-108.887,28.809,-44.922,0.000
410.000,-121.582,-103.027,26.367,-35.645,0.000
414.000,-106.934,-108.398,23.926,-49.316,0.000
418.000,-96.680,-108.398,26.367,-58.594,0.000
422.000,-97.656,-104.980,26.855,-45.410,0.000
426.000,-106.445,-107.422,20.996,-44.922,0.000
430.000,-95.215,-108.887,17.090,-53.223,0.000
434.000,-70.312,-106.934,20.020,-48.828,0.000
437.000,-79.102,-105.469,18.555,-44.922,0.000
441.000,-119.141,-108.887,15.137,-37.109,0.000
445.000,-138.184,-108.398,15.625,-33.691,0.000
449.000,-127.441,-100.098,12.207,-39.551,0.000
453.000,-120.605,-98.145,14.160,-30.762,0.000
457.000,-123.535,-97.656,13.184,-31.250,0.000
461.000,-107.910,-91.797,6.836,-32.227,0.000
465.000,-82.520,-83.984,5.371,-21.973,0.000
469.000,-70.801,-77.148,5.859,-27.344,0.000
473.000,-71.289,-72.266,0.488,-30.762,0.000
477.000,-73.242,-68.848,0.000,-30.273,0.000
480.000,-70.312,-63.477,1.465,-30.273,0.000
484.000,-71.289,-60.059,-4.883,-31.738,0.000
488.000,-70.312,-56.152,-9.277,-26.367,0.000
492.000,-68.359,-50.293,-12.695,-29.297,0.000
496.000,-57.617,-45.898,-14.160,-41.016,0.000
500.000,-50.781,-41.992,-15.625,-36.133,0.000
504.000,-40.039,-41.504,-20.020,-19.531,0.000
508.000,-36.621,-36.621,-20.020,-19.043,0.000
512.000,-43.457,-33.691,-20.996,-28.320,0.000
516.000,-31.738,-35.156,-27.344,-38.086,0.000
520.000,-37.109,-37.598,-30.762,-44.434,0.000
523.000,-41.992,-39.062,-28.320,-35.645,0.000
527.000,-43.945,-41.016,-36.133,-41.016,0.000
531.000,-46.387,-39.062,-36.621,-41.504,0.000
535.000,-40.039,-34.180,-31.738,-34.668,0.000
539.000,-37.109,-38.574,-32.715,-36.621,0.000
543.000,-42.969,-43.457,-37.598,-41.992,0.000
547.000,-48.828,-41.992,-38.574,-41.992,0.000
551.000,-53.711,-46.387,-37.598,-36.621,0.000
555.000,-61.035,-52.246,-35.156,-26.855,0.000
559.000,-46.875,-48.340,-33.203,-27.832,0.000
562.000,-42.480,-41.504,-31.738,-39.551,0.000
566.000,-37.598,-40.527,-28.809,-38.574,0.000
570.000,-46.387,-42.969,-29.785,-25.879,0.000
574.000,-64.453,-41.992,-28.809,-24.414,0.000
578.000,-73.730,-36.621,-22.461,-32.715,0.000
582.000,-64.941,-39.551,-21.973,-33.691,0.000
586.000,-57.129,-44.434,-29.297,-37.598,0.000
590.000,-57.129,-43.457,-27.344,-32.715,0.000
594.000,-44.434,-39.062,-18.555,-24.902,0.000
598.000,-38.574,-31.250,-16.602,-41.992,0.000
602.000,-33.691,-28.809,-13.184,-45.410,0.000
605.000,-28.809,-32.715,-11.719,-25.391,0.000
609.000,-30.273,-28.809,-17.090,-20.020,0.000
613.000,-23.926,-29.785,-19.043,-29.297,0.000
617.000,-24.902,-34.180,-19.043,-31.250,0.000
621.000,-44.434,-30.762,-17.578,-31.738,0.000
625.000,-49.805,-28.320,-17.578,-42.969,0.000
629.000,-46.387,-29.785,-21.973,-42.480,0.000
633.000,-38.574,-31.738,-20.020,-30.762,0.000
637.000,-44.922,-28.809,-21.973,-26.367,0.000
641.000,-57.129,-25.879,-22.461,-32.227,0.000
645.000,-46.387,-29.297,-20.508,-24.414,0.000
648.000,-46.387,-31.250,-25.391,-28.809,0.000
652.000,-50.781,-39.062,-27.344,-34.180,0.000
656.000,-40.527,-37.109,-20.996,-33.691,0.000
660.000,-44.922,-32.715,-20.508,-43.457,0.000
664.000,-57.129,-32.715,-25.879,-45.410,0.000
668.000,-53.711,-34.668,-21.973,-43.945,0.000
672.000,-53.711,-36.133,-25.879,-42.969,0.000
676.000,-71.289,-31.738,-28.809,-43.457,0.000
680.000,-72.266,-36.621,-27.344,-50.293,0.000
684.000,-55.176,-40.039,-30.273,-53.223,0.000
687.000,-55.176,-34.180,-27.344,-44.922,0.000
691.000,-62.012,-30.762,-25.879,-33.203,0.000
695.000,-67.871,-34.180,-30.762,-44.434,0.000
699.000,-68.848,-36.133,-30.273,-53.711,0.000
703.000,-57.617,-40.039,-32.715,-39.062,0.000
707.000,-48.340,-41.992,-34.180,-30.273,0.000
711.000,-51.270,-36.621,-32.715,-28.320,0.000
715.000,-60.059,-33.203,-32.715,-26.855,0.000
719.000,-63.965,-36.621,-36.133,-18.066,0.000
723.000,-64.453,-34.668,-38.574,-15.137,0.000
727.000,-59.570,-31.738,-35.156,-21.484,0.000
730.000,-52.734,-31.250,-32.715,-40.039,0.000
734.000,-43.457,-30.273,-31.250,-48.828,0.000
738.000,-40.527,-24.902,-34.668,-41.992,0.000
742.000,-56.641,-25.391,-35.156,-45.898,0.000
746.000,-76.172,-27.344,-32.227,-45.410,0.000
750.000,-67.383,-27.832,-28.320,-37.598,0.000
754.000,-54.688,-28.320,-33.203,-40.039,0.000
758.000,-50.781,-24.902,-39.551,-41.992,0.000
762.000,-46.875,-27.344,-33.691,-51.758,0.000
766.000,-50.293,-24.414,-31.250,-52.734,0.000
769.000,-48.340,-19.531,-32.227,-39.062,0.000
773.000,-51.758,-20.020,-28.809,-27.344,0.000
777.000,-52.734,-18.066,-27.832,-24.902,0.000
781.000,-47.852,-23.438,-27.344,-35.156,0.000
785.000,-46.387,-23.926,-30.762,-39.551,0.000
789.000,-39.062,-22.461,-31.738,-29.785,0.000
793.000,-7.812,-25.391,-24.414,-5.859,0.000
797.000,2.441,-15.625,-19.043,0.488,0.000
801.000,-39.062,-9.277,-17.578,-25.879,0.000
805.000,-56.152,-13.184,-21.484,-35.156,0.000
809.000,-37.598,-11.230,-24.414,-16.113,0.000
812.000,-34.668,-8.301,-21.484,-13.184,0.000
816.000,-33.203,-7.324,-21.484,-21.973,0.000
820.000,-17.578,-4.883,-25.391,-12.695,0.000
824.000,-24.414,-1.465,-34.180,-9.766,0.000
828.000,-27.344,-0.488,-33.203,-16.602,0.000
832.000,-12.695,-1.953,-35.645,-20.996,0.000
836.000,-10.254,-6.348,-40.527,-45.898,0.000
840.000,-3.906,-11.230,-40.039,-40.527,0.000
844.000,3.418,-1.465,-37.109,-26.367,0.000
848.000,-1.953,-2.930,-33.691,-29.297,0.000
852.000,-8.301,-11.230,-43.457,-25.391,0.000
855.000,-3.418,-8.789,-50.781,-22.949,0.000
859.000,-25.879,-5.859,-43.457,-17.578,0.000
863.000,-41.992,-2.930,-42.480,-12.207,0.000
867.000,-18.066,2.930,-42.480,-7.812,0.000
871.000,0.488,4.395,-41.016,-2.441,0.000
875.000,-2.930,-0.977,-43.945,0.977,0.000
879.000,-21.484,-7.812,-53.711,-16.113,0.000
883.000,-13.672,-4.883,-54.688,-16.602,0.000
887.000,-3.906,4.883,-47.852,17.578,0.000
891.000,-17.578,12.695,-49.805,27.344,0.000
894.000,-18.555,21.973,-44.434,12.695,0.000
898.000,1.953,25.391,-44.434,17.578,0.000
902.000,10.742,29.297,-48.828,17.090,0.000
906.000,20.020,29.297,-45.410,15.625,0.000
910.000,39.551,28.320,-43.945,24.414,0.000
914.000,14.160,26.367,-43.945,9.766,0.000
918.000,13.672,18.066,-42.969,0.977,0.000
922.000,24.902,24.414,-46.875,4.395,0.000
926.000,15.137,25.391,-45.410,9.766,0.000
930.000,35.156,22.461,-44.434,5.859,0.000
934.000,34.668,25.879,-48.340,-13.184,0.000
937.000,6.836,25.879,-45.898,-14.160,0.000
941.000,14.648,26.855,-44.922,-7.324,0.000
945.000,11.719,26.855,-47.363,-3.906,0.000
949.000,2.441,26.855,-47.852,-6.348,0.000
953.000,7.812,27.832,-49.316,-16.602,0.000
957.000,17.090,22.949,-53.223,-16.113,0.000
961.000,28.809,23.926,-51.758,-4.883,0.000
965.000,25.879,28.320,-46.875,6.348,0.000
969.000,5.859,24.414,-47.363,-1.465,0.000
973.000,9.277,18.066,-46.387,-6.836,0.000
977.000,6.836,20.508,-44.434,2.441,0.000
980.000,-7.324,21.484,-48.340,0.977,0.000
984.000,-5.371,15.137,-50.293,-7.812,0.000
988.000,-0.488,20.020,-49.805,-6.836,0.000
992.000,-2.441,17.578,-50.781,-9.277,0.000
996.000,-5.859,12.695,-48.340,-11.230,0.000
1000.000,-30.762,16.113,-46.875,-14.648,0.000
1004.000,-41.504,11.719,-43.945,-3.418,0.000
1008.000,-26.855,9.277,-41.016,7.812,0.000
1012.000,-20.508,2.441,-44.922,-15.625,0.000
1016.000,-0.488,-3.418,-47.852,-25.879,0.000
1019.000,19.043,-2.441,-43.457,-10.742,0.000
1023.000,-12.207,-2.930,-41.016,-4.883,0.000
1027.000,-25.879,-6.836,-44.434,-14.648,0.000
1031.000,-12.207,-4.395,-38.574,-8.789,0.000
1035.000,-23.438,-3.906,-31.738,-1.465,0.000
1039.000,-27.832,-9.766,-30.762,-7.812,0.000
1043.000,-19.531,-7.324,-27.832,-5.371,0.000
1047.000,-20.020,-1.953,-28.320,-12.695,0.000
1051.000,-7.812,-3.418,-29.297,-7.812,0.000
1055.000,-3.418,-5.371,-27.344,5.859,0.000
1059.000,-17.090,-9.277,-27.344,-11.719,0.000
1062.000,-20.020,-15.137,-24.414,-15.625,0.000
1066.000,-22.949,-12.695,-22.949,-7.812,0.000
1070.000,-19.531,-19.531,-27.832,-12.695,0.000
1074.000,-17.090,-25.391,-25.879,-10.742,0.000
1078.000,-17.090,-20.996,-23.926,-7.324,0.000
1082.000,-11.230,-14.648,-27.344,-8.301,0.000
1086.000,-0.488,-17.090,-24.414,-1.953,0.000
1090.000,-7.324,-18.555,-22.461,6.836,0.000
1094.000,-15.625,-16.602,-24.902,-1.953,0.000
1098.000,-19.531,-14.648,-29.297,-19.043,0.000
1102.000,-24.902,-19.043,-36.133,-24.414,0.000
1105.000,-26.367,-29.297,-34.668,-18.066,0.000
1109.000,-41.016,-29.785,-26.855,-17.578,0.000
1113.000,-56.641,-28.320,-27.832,-20.996,0.000
1117.000,-56.152,-28.809,-35.156,-28.809,0.000
1121.000,-49.316,-25.391,-34.180,-27.344,0.000
1125.000,-39.551,-22.461,-29.785,-20.996,0.000
1129.000,-27.832,-20.508,-30.762,-19.531,0.000
1133.000,-29.785,-22.461,-33.203,-27.832,0.000
1137.000,-44.434,-25.879,-28.320,-25.391,0.000
1141.000,-40.527,-21.484,-26.855,-22.461,0.000
1144.000,-41.504,-27.832,-27.832,-35.156,0.000
1148.000,-40.527,-35.156,-26.855,-44.434,0.000
1152.000,-41.992,-31.250,-23.438,-40.039,0.000
1156.000,-52.246,-26.855,-20.508,-25.391,0.000
1160.000,-53.711,-28.320,-21.973,-16.602,0.000
1164.000,-47.363,-33.691,-22.949,-22.949,0.000
1168.000,-28.809,-28.320,-22.461,-24.902,0.000
1172.000,-28.320,-25.879,-23.926,-23.438,0.000
1176.000,-40.527,-34.668,-26.367,-28.320,0.000
1180.000,-35.156,-38.086,-23.438,-34.180,0.000
1184.000,-33.691,-31.738,-19.531,-26.367,0.000
1187.000,-35.156,-31.738,-28.320,-12.207,0.000
1191.000,-33.203,-36.133,-30.762,-19.531,0.000
1195.000,-29.297,-33.691,-24.902,-24.902,0.000
1199.000,-27.344,-32.715,-22.949,-27.344,0.000
1203.000,-30.273,-35.645,-27.344,-9.766,0.000
1207.000,-37.598,-36.133,-26.855,-11.230,0.000
1211.000,-34.668,-35.156,-22.461,-30.273,0.000
1215.000,-18.066,-29.785,-27.344,-20.996,0.000
1219.000,-8.789,-24.902,-22.949,-0.488,0.000
1223.000,-33.691,-34.668,-14.160,2.441,0.000
1227.000,-43.945,-46.875,-19.043,-19.531,0.000
1230.000,-21.484,-42.969,-20.508,-27.344,0.000
1234.000,-18.066,-45.410,-17.578,-34.180,0.000
1238.000,-21.484,-51.270,-12.207,-29.297,0.000
1242.000,-49.316,-52.246,-11.719,-26.367,0.000
1246.000,-78.125,-63.965,-14.648,-48.340,0.000
1250.000,-64.941,-63.965,-5.371,-42.480,0.000
1254.000,-64.941,-68.848,0.000,-53.711,0.000
1258.000,-100.586,-80.566,-0.977,-67.383,0.000
1262.000,-105.469,-72.754,5.859,-48.828,0.000
1266.000,-106.934,-80.078,7.812,-57.129,0.000
1269.000,-113.770,-84.961,3.906,-58.105,0.000
1273.000,-102.539,-85.449,1.465,-36.133,0.000
1277.000,-105.469,-88.379,6.348,-50.781,0.000
1281.000,-113.770,-85.449,7.812,-77.148,0.000
1285.000,-98.633,-86.914,9.277,-75.684,0.000
1289.000,-97.656,-92.773,5.859,-80.078,0.000
1293.000,-96.680,-93.750,2.930,-77.637,0.000
1297.000,-97.656,-91.797,4.883,-84.961,0.000
1301.000,-101.074,-88.867,-1.953,-97.656,0.000
1305.000,-64.941,-83.984,-6.348,-78.613,0.000
1309.000,-45.898,-87.891,-6.836,-62.500,0.000
1312.000,-60.059,-88.379,-9.277,-71.289,0.000
1316.000,-82.031,-87.891,-6.836,-72.754,0.000
1320.000,-104.004,-89.355,-7.812,-62.988,0.000
1324.000,-110.840,-87.402,-9.766,-58.594,0.000
1328.000,-130.859,-89.844,-9.277,-55.664,0.000
1332.000,-138.672,-87.402,-11.719,-56.641,0.000
1336.000,-86.914,-83.008,-7.812,-47.363,0.000
1340.000,-47.852,-74.707,-5.371,-29.785,0.000
1344.000,-74.219,-68.359,-8.301,-38.574,0.000
1348.000,-127.441,-69.824,-10.254,-37.598,0.000
1352.000,-132.324,-69.824,-7.812,-22.949,0.000
1355.000,-119.141,-71.777,-7.324,-15.625,0.000
1359.000,-111.328,-70.312,-9.766,-18.066,0.000
1363.000,-97.656,-63.965,-7.324,-19.531,0.000
1367.000,-80.078,-62.500,-7.812,-19.531,0.000
1371.000,-74.707,-64.941,-14.160,-23.438,0.000
1375.000,-65.918,-62.012,-14.648,-25.391,0.000
1379.000,-50.781,-55.176,-11.230,-28.809,0.000
1383.000,-51.270,-50.293,-13.672,-41.504,0.000
1387.000,-42.969,-50.781,-18.066,-46.387,0.000
1391.000,-33.203,-51.270,-20.996,-39.551,0.000
1394.000,-34.180,-45.898,-16.602,-31.250,0.000
1398.000,-46.387,-41.016,-19.531,-27.344,0.000
1402.000,-45.898,-39.062,-23.438,-17.578,0.000
1406.000,-33.691,-39.062,-19.531,-11.719,0.000
1410.000,-29.785,-35.645,-16.113,-16.113,0.000
1414.000,-26.367,-35.156,-15.625,-28.809,0.000
1418.000,-33.203,-39.551,-23.438,-32.227,0.000
1422.000,-32.227,-43.457,-29.785,-22.461,0.000
1426.000,-24.902,-44.922,-18.066,-9.277,0.000
1430.000,-31.250,-41.504,-8.789,0.000,0.000
1434.000,-50.781,-41.016,-15.137,-21.973,0.000
1437.000,-69.336,-46.387,-13.672,-32.227,0.000
1441.000,-67.871,-48.340,-9.766,-19.043,0.000
1445.000,-68.848,-54.199,-11.230,-41.016,0.000
1449.000,-82.520,-57.129,-4.395,-56.152,0.000
1453.000,-94.238,-56.641,0.977,-48.340,0.000
1457.000,-92.285,-61.035,-2.930,-46.387,0.000
1461.000,-86.426,-59.570,-10.742,-52.246,0.000
1465.000,-84.473,-61.035,-7.812,-49.805,0.000
1469.000,-72.754,-65.918,-4.395,-45.898,0.000
1473.000,-72.754,-61.035,-6.836,-50.781,0.000
1476.000,-80.078,-59.570,-7.324,-42.480,0.000
1480.000,-83.496,-58.105,-9.277,-32.715,0.000
1484.000,-86.426,-60.059,-10.742,-34.180,0.000
1488.000,-76.172,-58.105,-12.695,-32.715,0.000
1492.000,-62.500,-57.617,-12.207,-30.273,0.000
1496.000,-64.453,-63.477,-8.789,-27.832,0.000
1500.000,-55.176,-56.641,-7.812,-36.133,0.000
1504.000,-45.410,-55.176,-7.812,-38.086,0.000
1508.000,-53.711,-56.152,-9.766,-20.020,0.000
1512.000,-41.016,-51.270,-15.625,-21.484,0.000
1516.000,-35.156,-50.781,-15.625,-31.738,0.000
1519.000,-38.574,-55.664,-13.184,-25.879,0.000
1523.000,-39.062,-49.805,-16.113,-19.043,0.000
1527.000,-36.133,-53.223,-20.508,-23.438,0.000
1531.000,-14.160,-51.758,-18.555,-27.832,0.000
1535.000,-12.207,-40.039,-16.113,-22.949,0.000
1539.000,-24.902,-40.039,-18.066,-23.926,0.000
1543.000,-38.086,-39.062,-16.602,-29.785,0.000
1547.000,-39.062,-32.227,-20.996,-37.598,0.000
1551.000,-33.691,-34.180,-22.949,-43.945,0.000
1555.000,-48.340,-36.621,-20.020,-37.109,0.000
1559.000,-71.289,-39.551,-20.508,-32.227,0.000
1562.000,-78.613,-43.457,-18.066,-36.133,0.000
1566.000,-66.895,-38.086,-18.066,-31.738,0.000
1570.000,-73.730,-41.992,-22.949,-24.902,0.000
1574.000,-74.707,-46.387,-23.926,-30.762,0.000
1578.000,-58.594,-34.668,-20.508,-29.785,0.000
1582.000,-57.617,-29.785,-16.113,-30.762,0.000
1586.000,-58.594,-29.297,-15.625,-50.781,0.000
1590.000,-49.805,-26.855,-21.484,-57.129,0.000
1594.000,-44.922,-29.785,-19.531,-47.363,0.000
1598.000,-39.551,-28.320,-21.484,-51.270,0.000
1601.000,-51.270,-27.832,-30.273,-52.246,0.000
1605.000,-54.199,-25.879,-32.715,-49.805,0.000
1609.000,-36.621,-24.414,-33.203,-54.688,0.000
1613.000,-23.926,-20.996,-38.086,-58.105,0.000
1617.000,-20.996,-20.020,-39.062,-56.641,0.000
1621.000,-28.320,-20.020,-30.273,-35.645,0.000
1625.000,-35.645,-9.277,-31.738,-19.531,0.000
1629.000,-32.227,-15.137,-38.574,-29.297,0.000
1633.000,-18.555,-33.691,-34.180,-30.762,0.000
1637.000,-12.207,-30.762,-31.738,-26.367,0.000
1641.000,-37.598,-22.949,-36.133,-22.949,0.000
1644.000,-67.871,-28.320,-31.250,-14.160,0.000
1648.000,-74.219,-30.762,-24.902,-9.766,0.000
1652.000,-62.988,-25.391,-26.367,-12.695,0.000
1656.000,-52.246,-29.785,-30.273,-8.789,0.000
1660.000,-41.016,-30.762,-30.273,-9.766,0.000
1664.000,-40.039,-31.250,-28.809,-24.414,0.000
1668.000,-38.574,-30.762,-28.809,-17.578,0.000
1672.000,-34.180,-24.414,-26.855,-7.324,0.000
1676.000,-36.133,-21.973,-24.414,-10.742,0.000
1680.000,-20.020,-23.926,-22.461,-25.391,0.000
1684.000,-12.695,-28.320,-18.555,-37.598,0.000
1687.000,-19.531,-28.320,-18.555,-33.691,0.000
1691.000,-3.906,-25.879,-20.508,-33.203,0.000
1695.000,9.766,-27.344,-25.391,-36.133,0.000
1699.000,7.324,-27.832,-29.297,-39.551,0.000
1703.000,-4.395,-24.414,-28.320,-27.832,0.000
1707.000,-11.719,-27.344,-20.020,-4.395,0.000
1711.000,1.465,-22.949,-15.625,11.719,0.000
1715.000,-10.742,-23.926,-20.996,-12.207,0.000
1719.000,-59.082,-25.879,-28.320,-45.898,0.000
1723.000,-69.824,-23.926,-32.227,-32.227,0.000
1726.000,-34.180,-18.555,-25.879,-13.184,0.000
1730.000,-22.949,-11.719,-22.461,-9.277,0.000
1734.000,-29.785,-11.719,-28.320,-13.184,0.000
1738.000,-26.367,-8.301,-30.762,-10.254,0.000
1742.000,-22.949,-5.859,-31.250,-0.488,0.000
1746.000,-28.809,-9.277,-31.738,-4.883,0.000
1750.000,-25.391,-1.953,-30.762,-7.324,0.000
1754.000,-17.090,4.883,-34.180,-3.906,0.000
1758.000,-25.391,7.324,-39.551,0.977,0.000
1762.000,-18.555,7.324,-41.504,-2.441,0.000
1766.000,1.465,20.508,-40.039,-3.418,0.000
1769.000,15.137,27.832,-37.109,-0.488,0.000
1773.000,21.973,15.137,-39.062,-4.883,0.000
1777.000,7.812,21.484,-46.875,-9.766,0.000
1781.000,7.324,19.043,-48.340,-20.996,0.000
1785.000,4.395,15.625,-43.945,-23.926,0.000
1789.000,-10.254,22.461,-47.363,-21.973,0.000
1793.000,11.719,27.344,-51.758,-21.973,0.000
1797.000,23.438,29.297,-54.199,-29.785,0.000
1801.000,3.418,27.832,-57.617,-32.715,0.000
1805.000,-9.277,24.902,-58.594,-18.555,0.000
1809.000,-6.836,21.973,-62.500,-6.348,0.000
1812.000,-0.488,25.391,-62.988,-10.254,0.000
1816.000,14.160,24.902,-59.570,-10.742,0.000
1820.000,28.809,22.461,-52.734,1.953,0.000
1824.000,32.227,23.438,-54.199,0.977,0.000
1828.000,19.531,28.809,-61.523,-0.977,0.000
1832.000,-10.742,26.367,-60.059,-6.348,0.000
1836.000,-2.441,19.043,-56.152,-0.488,0.000
1840.000,10.742,20.508,-58.105,7.324,0.000
1844.000,4.395,19.531,-58.105,5.859,0.000
1848.000,13.672,21.973,-58.105,1.953,0.000
1851.000,22.461,28.320,-54.688,8.789,0.000
1855.000,20.020,21.484,-50.781,22.949,0.000
1859.000,20.020,25.879,-55.664,22.949,0.000
1863.000,20.508,25.391,-51.758,11.719,0.000
1867.000,20.996,18.066,-46.387,-3.906,0.000
1871.000,34.668,23.438,-50.293,-7.812,0.000
1875.000,41.016,23.926,-48.828,-2.930,0.000
1879.000,37.109,21.973,-39.062,-4.883,0.000
1883.000,48.340,21.484,-37.109,-11.719,0.000
1887.000,31.738,19.531,-37.109,-20.996,0.000
1891.000,20.996,17.578,-34.668,-18.066,0.000
1894.000,17.578,12.695,-32.715,-3.906,0.000
1898.000,4.883,12.695,-33.691,-4.883,0.000
1902.000,1.953,10.254,-35.645,-11.719,0.000
1906.000,-6.348,7.324,-29.785,-17.578,0.000
1910.000,-9.766,10.254,-30.273,-14.648,0.000
1914.000,-37.598,6.348,-35.645,-28.320,0.000
1918.000,-45.410,0.977,-35.156,-31.250,0.000
1922.000,-25.391,-0.488,-31.738,-8.789,0.000
1926.000,-18.066,2.930,-28.320,-13.184,0.000
1930.000,-29.785,1.953,-31.738,-34.668,0.000
1934.000,-32.227,-3.418,-31.250,-35.645,0.000
1937.000,-21.973,-4.395,-27.832,-23.438,0.000
1941.000,-34.668,-2.441,-31.738,-17.090,0.000
1945.000,-42.969,-1.465,-31.738,-30.273,0.000
1949.000,-24.902,-0.488,-30.762,-36.133,0.000
1953.000,-20.020,-3.418,-34.180,-17.578,0.000
1957.000,-21.973,-7.812,-35.156,-18.555,0.000
1961.000,-17.090,-4.883,-37.598,-25.391,0.000
1965.000,-35.645,-1.953,-39.551,-31.250,0.000
1969.000,-45.410,-4.395,-41.992,-33.203,0.000
1973.000,-28.320,-12.207,-42.969,-26.855,0.000
1976.000,-23.438,-14.648,-41.992,-34.668,0.000
1980.000,-10.742,-12.207,-39.062,-37.598,0.000
1984.000,15.137,-8.301,-37.109,-36.133,0.000
1988.000,3.418,-7.812,-35.645,-27.832,0.000
1992.000,-22.949,-12.207,-33.203,-25.879,0.000
1996.000,-21.484,-10.254,-32.227,-26.855,0.000
2000.000,-3.418,-6.348,-27.832,-18.555,0.000
2004.000,-0.488,-15.137,-33.691,-20.020,0.000
2008.000,-16.602,-19.531,-32.715,-25.391,0.000
2012.000,-19.043,-15.137,-29.785,-20.508,0.000
2016.000,-23.926,-15.625,-37.109,-17.578,0.000
2019.000,-35.645,-17.578,-36.133,-13.672,0.000
2023.000,-28.320,-20.508,-32.715,-6.348,0.000
2027.000,-30.762,-11.719,-29.785,-11.719,0.000
2031.000,-31.250,-16.113,-28.809,-18.066,0.000
2035.000,-18.555,-32.227,-26.855,-18.066,0.000
2039.000,-20.020,-25.879,-27.344,-17.578,0.000
2043.000,-21.973,-22.949,-29.297,-16.113,0.000
2047.000,-21.484,-27.832,-31.250,-25.879,0.000
2051.000,-23.926,-22.949,-38.086,-38.574,0.000
2055.000,-42.480,-18.555,-34.180,-28.320,0.000
2059.000,-75.195,-23.926,-34.668,-23.438,0.000
2062.000,-57.617,-25.879,-33.691,-17.578,0.000
2066.000,-28.809,-21.484,-28.320,-19.531,0.000
2070.000,-18.555,-17.090,-30.273,-22.461,0.000
2074.000,-15.137,-17.090,-34.180,-17.578,0.000
2078.000,-28.809,-28.320,-31.738,-29.785,0.000
2082.000,-15.137,-28.809,-32.715,-31.250,0.000
2086.000,-11.230,-25.879,-34.180,-30.273,0.000
2090.000,-16.113,-33.203,-27.344,-27.832,0.000
2094.000,-8.789,-35.645,-26.855,-34.668,0.000
2098.000,-17.578,-27.832,-33.691,-47.363,0.000
2101.000,-24.902,-29.785,-35.645,-44.434,0.000
2105.000,-41.016,-36.133,-41.016,-22.461,0.000
2109.000,-43.945,-33.203,-29.297,7.812,0.000
2113.000,-48.828,-35.156,-8.301,10.254,0.000
2117.000,-69.824,-42.480,-8.789,-20.508,0.000
2121.000,-68.848,-52.246,-17.578,-33.691,0.000
2125.000,-67.871,-61.035,-13.672,-25.391,0.000
2129.000,-62.012,-62.988,-0.488,-29.297,0.000
2133.000,-52.246,-66.406,0.977,-37.109,0.000
2137.000,-60.547,-64.941,-3.418,-44.922,0.000
2141.000,-77.637,-71.289,-1.953,-45.410,0.000
2144.000,-78.613,-75.684,5.371,-45.898,0.000
2148.000,-71.289,-74.707,7.812,-67.383,0.000
2152.000,-70.801,-82.031,3.906,-71.777,0.000
2156.000,-81.055,-82.031,5.371,-61.523,0.000
2160.000,-90.820,-83.496,11.230,-73.730,0.000
2164.000,-99.609,-88.379,15.625,-71.289,0.000
2168.000,-104.980,-82.520,14.160,-60.059,0.000
2172.000,-99.121,-86.914,12.207,-62.500,0.000
2176.000,-105.469,-92.773,19.043,-59.082,0.000
2180.000,-116.211,-92.285,20.020,-52.246,0.000
2183.000,-113.281,-99.609,12.695,-60.547,0.000
2187.000,-93.750,-103.027,11.719,-48.340,0.000
2191.000,-94.238,-104.980,10.742,-48.340,0.000
2195.000,-104.004,-106.934,6.836,-72.754,0.000
2199.000,-87.891,-96.680,7.324,-67.383,0.000
2203.000,-73.730,-100.098,12.695,-50.781,0.000
2207.000,-60.059,-103.516,11.719,-59.570,0.000
2211.000,-62.012,-96.680,6.348,-56.641,0.000
2215.000,-97.168,-98.145,9.766,-59.082,0.000
2219.000,-109.863,-102.539,5.859,-55.176,0.000
2223.000,-100.098,-103.027,0.000,-45.898,0.000
2226.000,-83.496,-96.680,0.488,-47.852,0.000
2230.000,-58.594,-91.309,0.488,-54.199,0.000
2234.000,-57.129,-86.914,-0.977,-57.617,0.000
2238.000,-72.266,-86.914,-7.324,-51.270,0.000
2242.000,-85.938,-80.078,-11.230,-45.898,0.000
2246.000,-88.379,-74.707,-9.766,-49.805,0.000
2250.000,-64.453,-69.824,-11.719,-49.805,0.000
2254.000,-60.547,-70.801,-15.625,-38.574,0.000
2258.000,-77.148,-72.266,-17.090,-38.574,0.000
2262.000,-76.172,-67.871,-16.602,-37.109,0.000
2266.000,-61.523,-68.848,-13.672,-22.461,0.000
2269.000,-58.105,-63.965,-16.602,-15.137,0.000
2273.000,-68.848,-60.059,-22.949,-10.254,0.000
2277.000,-56.641,-60.059,-20.996,-18.066,0.000
2281.000,-49.805,-56.641,-25.879,-39.551,0.000
2285.000,-44.434,-62.500,-30.762,-38.574,0.000
2289.000,-44.922,-64.941,-28.809,-24.414,0.000
2293.000,-58.594,-56.641,-27.832,-21.484,0.000
2297.000,-51.758,-53.223,-26.855,-25.879,0.000
2301.000,-42.480,-49.316,-25.879,-24.414,0.000
2305.000,-52.734,-49.805,-26.855,-25.879,0.000
2308.000,-42.480,-53.223,-23.926,-26.855,0.000
2312.000,-38.574,-46.387,-17.578,-30.273,0.000
2316.000,-41.992,-41.992,-17.578,-41.504,0.000
2320.000,-43.945,-41.992,-18.555,-36.133,0.000
2324.000,-47.852,-42.480,-16.113,-17.090,0.000
2328.000,-36.621,-43.457,-16.602,-18.555,0.000
2332.000,-29.785,-44.922,-21.973,-32.715,0.000
2336.000,-23.438,-39.062,-25.879,-20.508,0.000
2340.000,-32.227,-40.527,-18.066,-0.977,0.000
2344.000,-41.016,-46.387,-14.160,-1.953,0.000
2348.000,-39.551,-41.016,-16.602,-17.578,0.000
2351.000,-38.574,-40.527,-20.996,-25.879,0.000
2355.000,-34.180,-49.316,-23.926,-25.391,0.000
2359.000,-38.086,-47.363,-21.973,-23.926,0.000
2363.000,-51.758,-42.969,-20.996,-33.691,0.000
2367.000,-52.734,-45.410,-20.996,-45.410,0.000
2371.000,-44.922,-38.574,-18.066,-38.574,0.000
2375.000,-41.504,-35.645,-19.043,-24.414,0.000
2379.000,-52.734,-38.086,-22.949,-20.508,0.000
2383.000,-58.105,-35.156,-21.973,-23.438,0.000
2387.000,-44.922,-35.156,-21.484,-23.926,0.000
2391.000,-43.457,-39.062,-27.344,-34.180,0.000
2394.000,-42.969,-40.039,-28.320,-40.039,0.000
2398.000,-36.133,-39.062,-27.832,-40.527,0.000
2402.000,-43.457,-39.062,-28.320,-38.574,0.000
2406.000,-56.152,-36.621,-32.715,-31.738,0.000
2410.000,-56.641,-35.645,-33.691,-31.738,0.000
2414.000,-48.340,-38.574,-27.832,-47.363,0.000
2418.000,-30.273,-40.039,-33.691,-47.363,0.000
2422.000,-33.691,-37.109,-33.691,-34.668,0.000
2426.000,-65.918,-40.039,-25.879,-26.367,0.000
2430.000,-67.383,-38.574,-22.949,-32.227,0.000
2433.000,-53.711,-35.645,-27.832,-31.738,0.000
2437.000,-44.434,-34.180,-33.203,-23.438,0.000
2441.000,-27.832,-33.691,-31.738,-35.645,0.000
2445.000,-36.133,-35.645,-31.738,-39.062,0.000
2449.000,-43.945,-34.180,-30.762,-39.551,0.000
2453.000,-35.645,-32.227,-25.391,-36.621,0.000
2457.000,-49.316,-31.738,-24.902,-29.297,0.000
2461.000,-56.152,-30.762,-22.949,-33.203,0.000
2465.000,-50.781,-29.297,-24.414,-44.434,0.000
2469.000,-45.410,-25.879,-27.832,-45.410,0.000
2473.000,-35.156,-25.391,-27.344,-38.574,0.000
2476.000,-30.273,-30.273,-23.926,-36.621,0.000
2480.000,-33.691,-25.391,-27.344,-41.504,0.000
2484.000,-31.738,-28.320,-32.227,-48.340,0.000
2488.000,-31.738,-30.762,-25.391,-40.039,0.000
2492.000,-44.922,-23.926,-26.367,-34.668,0.000
2496.000,-36.133,-24.902,-26.855,-39.551,0.000
2500.000,-33.691,-33.203,-25.391,-36.133,0.000
2504.000,-48.340,-36.621,-23.438,-31.250,0.000
2508.000,-34.180,-32.227,-24.414,-25.879,0.000
2512.000,-18.555,-38.086,-29.297,-34.668,0.000
2516.000,-24.902,-39.551,-26.367,-43.945,0.000
2519.000,-33.203,-39.062,-22.949,-26.855,0.000
2523.000,-46.875,-40.039,-20.996,-14.648,0.000
2527.000,-68.848,-41.992,-21.973,-23.926,0.000
2531.000,-67.871,-40.039,-20.508,-22.461,0.000
2535.000,-49.805,-32.227,-15.625,-15.625,0.000
2539.000,-39.062,-34.668,-19.043,-20.508,0.000
2543.000,-53.223,-29.297,-22.949,-30.762,0.000
2547.000,-52.246,-27.832,-25.391,-38.086,0.000
2551.000,-29.297,-31.738,-27.344,-37.109,0.000
2555.000,-13.184,-30.762,-28.809,-20.020,0.000
2558.000,5.371,-21.973,-31.250,-4.395,0.000
2562.000,-29.785,-15.137,-30.273,-28.320,0.000
2566.000,-60.059,-20.020,-29.297,-60.059,0.000
2570.000,-44.922,-25.879,-36.133,-42.969,0.000
2574.000,-27.344,-19.531,-39.551,-10.742,0.000
2578.000,-16.113,-11.230,-38.086,-22.949,0.000
2582.000,-34.668,-6.836,-43.945,-43.457,0.000
2586.000,-36.133,0.000,-45.898,-26.855,0.000
2590.000,-32.227,4.395,-41.016,-23.438,0.000
2594.000,-26.855,11.230,-40.527,-22.949,0.000
2598.000,-10.254,9.277,-43.945,-18.066,0.000
2601.000,4.395,9.766,-48.340,-17.578,0.000
2605.000,0.977,16.113,-47.852,-10.742,0.000
2609.000,-3.418,12.695,-51.758,-17.090,0.000
2613.000,0.488,15.137,-58.105,-18.555,0.000
2617.000,-5.859,12.695,-60.547,-17.090,0.000
2621.000,-12.207,12.695,-63.477,-17.090,0.000
2625.000,-13.184,21.484,-62.012,-6.348,0.000
2629.000,2.930,20.996,-57.617,-8.789,0.000
2633.000,13.672,24.414,-57.617,-20.020,0.000
2637.000,18.555,32.227,-58.105,-19.043,0.000
2641.000,19.531,37.109,-56.641,-8.301,0.000
2644.000,13.184,37.109,-51.758,0.000,0.000
2648.000,6.348,34.668,-51.758,-6.348,0.000
2652.000,20.508,38.086,-55.664,-8.789,0.000
2656.000,25.391,37.598,-56.641,-1.953,0.000
2660.000,21.973,34.668,-52.246,-1.465,0.000
2664.000,28.320,37.109,-50.781,-6.836,0.000
2668.000,27.832,38.086,-54.199,-7.812,0.000
2672.000,18.066,32.227,-54.199,-2.441,0.000
2676.000,20.020,22.461,-51.270,-6.348,0.000
2680.000,34.668,24.414,-48.828,-13.184,0.000
2683.000,40.039,23.926,-54.688,-16.113,0.000
2687.000,39.062,24.414,-58.594,-10.742,0.000
2691.000,43.945,27.832,-51.758,-2.441,0.000
2695.000,26.367,27.344,-49.316,-3.418,0.000
2699.000,0.000,23.438,-50.781,0.000,0.000
2703.000,4.395,23.926,-51.758,15.137,0.000
2707.000,15.625,25.391,-52.246,23.438,0.000
2711.000,12.207,16.602,-56.152,4.395,0.000
2715.000,1.465,12.695,-51.758,-0.488,0.000
2719.000,-8.301,13.184,-47.363,7.812,0.000
2723.000,-9.766,14.160,-47.363,0.977,0.000
2726.000,-5.371,20.508,-43.457,-9.766,0.000
2730.000,-11.230,13.672,-46.875,-15.625,0.000
2734.000,-22.949,7.324,-51.270,-26.367,0.000
2738.000,0.000,10.254,-48.340,-19.043,0.000
2742.000,12.207,15.137,-45.898,-8.789,0.000
2746.000,5.859,20.020,-46.387,-13.672,0.000
2750.000,-3.906,11.230,-48.828,-9.766,0.000
2754.000,-32.715,1.465,-48.340,-9.277,0.000
2758.000,-14.160,7.324,-39.551,-5.371,0.000
2762.000,18.555,14.160,-36.133,-5.371,0.000
2766.000,21.973,14.648,-41.016,-5.371,0.000
2769.000,17.090,11.230,-43.457,0.000,0.000
2773.000,-8.301,0.488,-38.086,2.441,0.000
2777.000,-19.531,1.953,-38.574,-8.789,0.000
2781.000,-18.066,-2.441,-42.969,-21.484,0.000
2785.000,-14.160,-1.953,-40.527,-16.602,0.000
2789.000,-9.277,5.371,-38.086,-13.184,0.000
2793.000,-9.766,-1.465,-38.574,-14.648,0.000
2797.000,-12.695,-1.953,-37.598,-23.926,0.000
2801.000,-1.953,0.488,-34.668,-28.809,0.000
2805.000,-10.742,-7.812,-33.203,-20.508,0.000
2808.000,-31.250,-11.230,-39.062,-19.531,0.000
2812.000,-24.902,-11.719,-41.504,-11.719,0.000
2816.000,-10.742,-12.207,-41.992,-10.254,0.000
2820.000,-13.672,-15.625,-42.969,-12.207,0.000
2824.000,-29.785,-20.508,-34.668,-11.719,0.000
2828.000,-45.410,-21.973,-33.691,-19.531,0.000
2832.000,-47.852,-27.832,-38.574,-39.551,0.000
2836.000,-47.852,-29.785,-38.574,-39.062,0.000
2840.000,-52.246,-25.879,-35.156,-30.273,0.000
2844.000,-46.875,-24.414,-31.250,-31.250,0.000
2848.000,-29.297,-16.113,-33.691,-32.227,0.000
2851.000,-11.230,-16.113,-36.621,-31.738,0.000
2855.000,-24.902,-23.926,-37.598,-15.625,0.000
2859.000,-39.062,-24.902,-31.250,-23.926,0.000
2863.000,-36.133,-29.785,-26.367,-39.062,0.000
2867.000,-42.480,-30.762,-25.879,-35.645,0.000
2871.000,-41.016,-37.109,-24.902,-42.480,0.000
2875.000,-43.457,-32.227,-26.855,-38.574,0.000
2879.000,-50.781,-29.785,-29.297,-30.762,0.000
2883.000,-49.805,-34.668,-32.227,-28.320,0.000
2887.000,-30.273,-30.762,-33.691,-19.531,0.000
2891.000,-13.184,-30.762,-29.297,-11.719,0.000
2894.000,-16.602,-30.273,-25.391,-17.578,0.000
2898.000,-14.648,-27.344,-25.879,-20.508,0.000
2902.000,-20.020,-22.461,-29.785,-11.719,0.000
2906.000,-32.715,-27.344,-29.785,-6.348,0.000
2910.000,-28.809,-25.391,-27.344,-13.184,0.000
2914.000,-24.902,-21.973,-31.738,-15.137,0.000
2918.000,-13.672,-18.555,-33.203,-17.090,0.000
2922.000,-17.578,-17.578,-30.273,-14.648,0.000
2926.000,-31.250,-23.926,-34.180,-13.672,0.000
2930.000,-31.738,-21.973,-29.785,-13.672,0.000
2933.000,-23.926,-19.531,-25.879,-17.578,0.000
2937.000,-9.766,-21.484,-28.320,-18.066,0.000
2941.000,-23.926,-24.414,-22.949,-4.883,0.000
2945.000,-35.645,-25.879,-25.391,-17.090,0.000
2949.000,-23.926,-24.902,-30.762,-25.391,0.000
2953.000,-16.113,-23.926,-26.367,-15.625,0.000
2957.000,-14.160,-23.438,-27.344,-20.508,0.000
2961.000,-20.020,-25.879,-30.762,-28.320,0.000
2965.000,-5.859,-27.832,-23.926,-27.344,0.000
2969.000,-8.789,-25.391,-20.020,-24.414,0.000
2973.000,-34.180,-24.902,-20.020,-17.090,0.000
2976.000,-42.969,-25.879,-20.508,-13.672,0.000
2980.000,-45.410,-26.367,-20.020,-21.973,0.000
2984.000,-45.410,-30.273,-17.090,-20.020,0.000
2988.000,-53.223,-29.297,-20.508,-7.812,0.000
2992.000,-61.523,-34.668,-26.855,-11.719,0.000
2996.000,-28.320,-36.621,-24.902,-6.348,0.000
3000.000,-13.672,-30.762,-12.695,6.836,0.000
3004.000,-24.902,-39.551,-2.930,-1.465,0.000
3008.000,-37.598,-48.828,-12.695,-28.809,0.000
3012.000,-42.969,-48.828,-10.254,-33.203,0.000
3015.000,-42.480,-57.617,-5.371,-26.367,0.000
3019.000,-66.406,-63.477,-11.230,-34.668,0.000
3023.000,-72.754,-65.430,-5.859,-35.156,0.000
3027.000,-62.012,-70.801,-2.441,-32.715,0.000
3031.000,-61.523,-69.824,-1.953,-41.504,0.000
3035.000,-74.219,-71.777,1.465,-46.875,0.000
3039.000,-76.172,-74.707,4.883,-38.574,0.000
3043.000,-67.871,-78.125,5.371,-48.828,0.000
3047.000,-72.754,-81.543,0.977,-83.008,0.000
3051.000,-71.777,-85.449,6.348,-82.520,0.000
3055.000,-93.262,-91.309,8.789,-68.359,0.000
3058.000,-100.586,-95.215,7.324,-52.734,0.000
3062.000,-104.004,-98.145,8.789,-49.805,0.000
3066.000,-113.770,-98.633,7.324,-69.824,0.000
3070.000,-110.352,-101.074,12.695,-68.359,0.000
3074.000,-106.934,-104.004,13.672,-48.828,0.000
3078.000,-111.328,-99.609,9.766,-43.945,0.000
3082.000,-117.188,-99.121,12.207,-52.246,0.000
3086.000,-106.934,-92.773,13.672,-53.711,0.000
3090.000,-109.863,-91.309,11.719,-43.457,0.000
3094.000,-110.840,-102.051,9.277,-41.992,0.000
3098.000,-110.840,-104.492,8.789,-58.594,0.000
3101.000,-106.934,-101.074,9.277,-52.734,0.000
3105.000,-92.285,-99.121,7.812,-34.668,0.000
3109.000,-94.727,-103.027,5.371,-45.410,0.000
3113.000,-97.168,-103.516,-0.488,-62.012,0.000
3117.000,-104.980,-97.656,-0.488,-60.059,0.000
3121.000,-111.816,-90.332,-2.930,-40.039,0.000
3125.000,-96.191,-93.750,-2.441,-30.273,0.000
3129.000,-89.844,-98.145,-2.930,-44.922,0.000
3133.000,-84.961,-89.355,-4.395,-53.223,0.000
3137.000,-58.594,-77.148,-2.930,-48.828,0.000
3140.000,-41.504,-80.078,-9.277,-46.387,0.000
3144.000,-47.852,-83.984,-12.207,-49.805,0.000
3148.000,-61.035,-75.195,-10.742,-42.480,0.000
3152.000,-74.219,-72.266,-14.160,-36.621,0.000
3156.000,-84.473,-68.848,-8.301,-25.391,0.000
3160.000,-89.355,-63.477,-5.371,-17.578,0.000
3164.000,-89.844,-66.895,-12.207,-29.785,0.000
3168.000,-83.984,-71.777,-16.602,-30.762,0.000
3172.000,-72.754,-69.336,-17.090,-18.066,0.000
3176.000,-75.195,-62.012,-20.508,-28.320,0.000
3180.000,-87.891,-56.641,-16.602,-30.762,0.000
3183.000,-82.031,-50.781,-17.578,-20.508,0.000
3187.000,-67.383,-46.387,-25.879,-22.949,0.000
3191.000,-64.453,-49.805,-27.344,-29.297,0.000
3195.000,-62.500,-49.316,-25.879,-29.297,0.000
3199.000,-53.223,-44.434,-23.926,-25.879,0.000
3203.000,-39.551,-47.852,-28.809,-30.762,0.000
3207.000,-36.621,-44.434,-26.855,-33.691,0.000
3211.000,-57.617,-42.969,-24.902,-34.668,0.000
3215.000,-62.500,-48.828,-25.879,-31.250,0.000
3219.000,-49.805,-46.387,-29.785,-36.621,0.000
3223.000,-39.551,-44.434,-38.574,-41.992,0.000
3226.000,-31.738,-45.898,-34.668,-31.250,0.000
3230.000,-32.227,-42.969,-31.738,-33.691,0.000
3234.000,-31.738,-42.969,-32.227,-34.668,0.000
3238.000,-31.250,-41.992,-28.320,-27.344,0.000
3242.000,-43.457,-38.086,-24.902,-24.414,0.000
3246.000,-55.664,-33.203,-30.273,-26.855,0.000
3250.000,-61.523,-35.645,-29.297,-31.250,0.000
3254.000,-65.430,-38.574,-29.297,-27.832,0.000
3258.000,-62.012,-37.598,-30.273,-20.508,0.000
3262.000,-51.758,-35.156,-23.438,-22.461,0.000
3265.000,-45.410,-35.156,-22.949,-34.668,0.000
3269.000,-55.664,-31.738,-19.531,-39.551,0.000
3273.000,-55.176,-32.715,-19.043,-30.273,0.000
3277.000,-57.617,-33.691,-19.043,-36.621,0.000
3281.000,-62.988,-28.320,-22.461,-60.059,0.000
3285.000,-64.453,-32.227,-24.414,-57.129,0.000
3289.000,-62.988,-35.156,-20.508,-46.387,0.000
3293.000,-52.734,-29.785,-21.973,-48.340,0.000
3297.000,-52.246,-29.785,-20.508,-45.410,0.000
3301.000,-47.363,-27.832,-24.902,-36.621,0.000
3305.000,-43.945,-22.949,-29.297,-34.180,0.000
3308.000,-39.551,-28.320,-27.832,-39.551,0.000
3312.000,-30.273,-29.297,-27.832,-50.293,0.000
3316.000,-26.367,-27.344,-33.691,-59.570,0.000
3320.000,-22.949,-33.203,-31.250,-53.223,0.000
3324.000,-31.250,-36.621,-30.273,-50.293,0.000
3328.000,-35.156,-27.344,-34.180,-50.293,0.000
3332.000,-39.551,-28.809,-34.668,-55.664,0.000
3336.000,-46.875,-34.180,-34.180,-53.223,0.000
3340.000,-73.730,-25.879,-32.715,-33.691,0.000
3344.000,-82.520,-31.250,-29.785,-27.832,0.000
3348.000,-56.152,-30.273,-21.973,-34.668,0.000
3351.000,-53.223,-22.949,-25.391,-40.527,0.000
3355.000,-48.340,-26.855,-25.879,-36.621,0.000
3359.000,-46.875,-28.320,-20.996,-26.367,0.000
3363.000,-54.688,-23.438,-24.414,-34.180,0.000
3367.000,-58.594,-24.414,-28.320,-46.875,0.000
3371.000,-46.387,-29.785,-25.391,-41.992,0.000
3375.000,-31.250,-27.832,-17.090,-28.809,0.000
3379.000,-34.180,-25.879,-19.043,-29.297,0.000
3383.000,-42.480,-26.367,-25.879,-42.480,0.000
3387.000,-47.363,-30.273,-26.855,-44.434,0.000
3390.000,-45.410,-34.180,-23.438,-29.785,0.000
3394.000,-40.039,-30.762,-20.508,-20.020,0.000
3398.000,-35.156,-30.273,-17.578,-22.949,0.000
3402.000,-18.066,-31.250,-14.648,-21.973,0.000
3406.000,0.488,-27.344,-15.137,-8.301,0.000
3410.000,15.625,-31.250,-20.020,0.000,0.000
3414.000,5.859,-31.738,-23.926,-18.066,0.000
3418.000,-25.391,-27.832,-26.367,-36.133,0.000
3422.000,-36.133,-23.926,-29.297,-18.555,0.000
3426.000,-19.043,-15.625,-27.832,4.395,0.000
3430.000,-21.973,-12.695,-31.250,-9.277,0.000
3433.000,-45.410,-13.184,-37.109,-9.277,0.000
3437.000,-36.133,-7.812,-35.645,5.371,0.000
3441.000,-8.789,1.465,-37.109,0.977,0.000
3445.000,-15.137,3.906,-38.574,-16.113,0.000
3449.000,-6.836,9.277,-41.016,-18.066,0.000
3453.000,5.859,9.766,-41.504,-10.742,0.000
3457.000,-9.766,7.324,-42.480,-9.277,0.000
3461.000,-3.418,10.742,-51.270,-9.277,0.000
3465.000,-1.465,13.672,-51.270,-6.836,0.000
3469.000,-12.695,15.625,-50.293,-0.488,0.000
3473.000,-22.949,18.066,-60.059,-7.324,0.000
3476.000,-15.137,18.066,-63.965,-11.230,0.000
3480.000,13.184,19.531,-62.500,-15.625,0.000
3484.000,28.320,29.785,-62.988,-30.762,0.000
3488.000,35.156,31.738,-62.012,-23.926,0.000
3492.000,19.531,24.414,-57.617,-5.859,0.000
3496.000,3.418,23.438,-59.082,-7.324,0.000
3500.000,-4.883,24.414,-63.965,-20.508,0.000
3504.000,-1.465,26.367,-62.988,-15.137,0.000
3508.000,9.277,21.973,-59.570,-0.977,0.000
3512.000,18.066,20.996,-55.176,-4.883,0.000
3515.000,37.109,28.320,-55.176,-7.324,0.000
3519.000,34.668,24.414,-58.105,-5.859,0.000
3523.000,30.762,24.902,-57.129,0.977,0.000
3527.000,26.367,27.344,-57.617,-6.348,0.000
3531.000,25.879,23.926,-59.570,-19.531,0.000
3535.000,26.367,20.996,-58.594,-15.625,0.000
3539.000,19.531,17.090,-57.617,-0.488,0.000
3543.000,24.414,13.672,-58.594,3.418,0.000
3547.000,20.996,21.484,-58.594,-15.137,0.000
3551.000,16.113,21.484,-56.152,-18.066,0.000
3555.000,21.484,19.043,-56.641,0.488,0.000
3558.000,18.066,25.391,-61.035,7.812,0.000
3562.000,20.508,23.438,-57.129,0.488,0.000
3566.000,3.906,21.973,-50.293,-12.207,0.000
3570.000,-0.977,19.531,-53.223,-13.184,0.000
3574.000,20.996,19.043,-50.781,-7.324,0.000
3578.000,30.273,21.484,-42.969,-12.695,0.000
3582.000,17.578,16.113,-45.410,-20.508,0.000
3586.000,19.531,16.113,-49.805,-3.418,0.000
3590.000,22.461,17.090,-54.199,-1.953,0.000
3594.000,9.277,12.207,-53.711,-23.438,0.000
3598.000,16.113,15.137,-46.387,-12.695,0.000
3601.000,15.625,12.207,-44.922,-2.930,0.000
3605.000,-4.883,4.395,-46.387,-15.137,0.000
3609.000,-14.648,0.977,-48.340,-29.297,0.000
3613.000,-22.461,2.930,-46.875,-31.738,0.000
3617.000,-16.113,5.859,-43.457,-31.738,0.000
3621.000,-3.906,5.371,-45.410,-27.832,0.000
3625.000,-14.648,-1.465,-43.945,-20.508,0.000
3629.000,-39.551,-4.395,-42.969,-38.574,0.000
3633.000,-47.852,-2.441,-40.527,-42.969,0.000
3637.000,-39.062,-4.395,-36.133,-27.344,0.000
3640.000,-31.250,0.488,-37.598,-24.902,0.000
3644.000,-30.273,-2.441,-37.598,-36.621,0.000
3648.000,-32.715,-7.324,-37.109,-40.527,0.000
3652.000,-30.273,-11.719,-35.645,-32.227,0.000
3656.000,-34.668,-16.113,-34.180,-28.320,0.000
3660.000,-29.297,-8.301,-30.273,-25.879,0.000
3664.000,-20.996,-11.230,-35.645,-29.297,0.000
3668.000,-12.695,-13.672,-32.715,-17.090,0.000
3672.000,-17.090,-11.230,-28.809,-14.160,0.000
3676.000,-47.852,-15.137,-28.809,-39.062,0.000
3680.000,-67.871,-17.090,-27.832,-47.363,0.000
3683.000,-46.875,-17.578,-30.762,-36.133,0.000
3687.000,-29.297,-20.508,-28.320,-25.391,0.000
3691.000,-43.945,-12.695,-31.250,-19.531,0.000
3695.000,-28.809,-14.160,-37.598,-20.508,0.000
3699.000,-20.508,-24.414,-37.109,-32.227,0.000
3703.000,-30.273,-24.902,-28.809,-29.297,0.000
3707.000,-11.719,-20.508,-24.414,-14.160,0.000
3711.000,-3.418,-16.602,-27.832,-20.508,0.000
3715.000,-16.602,-17.090,-27.344,-27.832,0.000
3719.000,-5.859,-13.672,-22.949,-16.113,0.000
3722.000,-15.625,-16.113,-24.414,-2.930,0.000
3726.000,-35.156,-22.949,-30.762,-0.977,0.000
3730.000,-19.531,-26.855,-30.762,-6.836,0.000
3734.000,-7.324,-28.320,-23.438,-9.277,0.000
3738.000,-14.648,-25.391,-20.996,1.953,0.000
3742.000,-30.762,-24.414,-27.344,3.418,0.000
3746.000,-26.367,-21.973,-30.273,-11.719,0.000
3750.000,-31.738,-26.367,-29.785,-13.672,0.000
3754.000,-54.688,-28.809,-27.344,-5.859,0.000
3758.000,-45.898,-23.926,-27.344,-2.441,0.000
3762.000,-31.738,-23.926,-25.879,0.977,0.000
3765.000,-23.926,-24.902,-22.949,4.395,0.000
3769.000,-28.809,-22.949,-27.344,6.836,0.000
3773.000,-37.598,-28.809,-34.668,-12.207,0.000
3777.000,-23.438,-29.297,-35.156,-37.598,0.000
3781.000,-21.484,-21.484,-30.273,-34.668,0.000
3785.000,-25.391,-19.043,-35.156,-24.902,0.000
3789.000,-3.906,-14.648,-39.062,-27.832,0.000
3793.000,29.785,-8.301,-36.133,-12.207,0.000
3797.000,17.578,-22.461,-29.297,-7.812,0.000
3801.000,-27.832,-37.109,-28.320,-16.602,0.000
3805.000,-51.270,-39.551,-33.691,-23.926,0.000
3808.000,-61.035,-46.875,-30.762,-41.992,0.000
3812.000,-58.594,-51.758,-25.879,-44.922,0.000
3816.000,-52.246,-52.734,-22.949,-40.039,0.000
3820.000,-62.012,-51.758,-16.602,-37.109,0.000
3824.000,-68.848,-58.594,-8.789,-45.898,0.000
3828.000,-84.961,-69.824,-7.324,-66.406,0.000
3832.000,-105.469,-70.801,-10.742,-56.152,0.000
3836.000,-100.586,-69.336,-4.883,-45.410,0.000
3840.000,-98.633,-75.684,0.977,-45.410,0.000
3844.000,-98.145,-77.148,3.418,-54.688,0.000
3847.000,-99.121,-83.008,3.906,-71.289,0.000
3851.000,-94.238,-83.008,11.230,-71.289,0.000
3855.000,-95.703,-80.078,16.113,-69.824,0.000
3859.000,-100.586,-89.844,10.254,-63.477,0.000
3863.000,-110.352,-94.238,9.766,-68.359,0.000
3867.000,-112.793,-96.191,8.789,-75.195,0.000
3871.000,-100.098,-102.051,9.277,-62.012,0.000
3875.000,-99.121,-106.934,7.812,-61.035,0.000
3879.000,-101.562,-105.469,7.812,-68.359,0.000
3883.000,-95.215,-106.934,7.324,-74.707,0.000
3887.000,-80.078,-105.957,5.859,-64.941,0.000
3890.000,-73.730,-96.191,8.789,-54.688,0.000
3894.000,-100.586,-95.703,7.812,-62.500,0.000
3898.000,-110.840,-99.609,6.836,-61.523,0.000
3902.000,-102.051,-94.727,6.348,-56.152,0.000
3906.000,-106.934,-91.309,4.395,-51.758,0.000
3910.000,-95.703,-90.820,4.395,-43.457,0.000
3914.000,-89.844,-86.426,4.395,-37.598,0.000
3918.000,-89.355,-82.031,5.371,-33.203,0.000
3922.000,-84.961,-77.637,0.488,-32.715,0.000
3926.000,-78.125,-76.660,-1.465,-40.039,0.000
3930.000,-58.105,-77.637,1.953,-37.109,0.000
3933.000,-49.805,-78.125,0.488,-32.715,0.000
3937.000,-50.293,-71.777,-8.789,-34.180,0.000
3941.000,-54.688,-69.824,-11.230,-36.133,0.000
3945.000,-53.223,-73.730,-3.906,-34.668,0.000
3949.000,-48.340,-68.848,-7.812,-40.039,0.000
3953.000,-40.039,-63.965,-14.648,-28.809,0.000
3957.000,-40.039,-65.918,-14.160,-18.555,0.000
3961.000,-53.711,-60.059,-13.672,-17.578,0.000
3965.000,-67.383,-57.617,-10.254,-19.043,0.000
3969.000,-57.617,-53.223,-9.766,-25.879,0.000
3972.000,-46.387,-44.922,-12.695,-21.484,0.000
3976.000,-52.246,-45.898,-13.672,-19.531,0.000
3980.000,-55.176,-43.945,-14.648,-27.344,0.000
3984.000,-51.758,-44.434,-16.113,-33.203,0.000
3988.000,-47.852,-46.875,-13.672,-30.273,0.000
3992.000,-34.180,-46.875,-13.672,-30.762,0.000
3996.000,-31.250,-43.945,-15.137,-30.762,0.000
4000.000,-44.434,-44.922,-17.090,-32.715,0.000
4004.000,-46.875,-43.945,-20.508,-37.598,0.000
4008.000,-42.969,-39.551,-24.414,-29.785,0.000
4012.000,-43.945,-40.039,-24.902,-29.297,0.000
4015.000,-35.645,-35.645,-24.414,-40.039,0.000
4019.000,-26.367,-32.715,-22.461,-29.297,0.000
4023.000,-33.203,-35.645,-18.066,-20.996,0.000
4027.000,-29.785,-33.691,-23.926,-25.391,0.000
4031.000,-34.668,-32.227,-27.832,-27.344,0.000
4035.000,-42.969,-37.598,-21.973,-29.785,0.000
4039.000,-32.227,-38.086,-22.461,-22.461,0.000
4043.000,-35.645,-44.434,-25.879,-20.508,0.000
4047.000,-38.086,-45.898,-24.902,-33.203,0.000
4051.000,-48.340,-46.387,-22.949,-36.621,0.000
4055.000,-54.199,-45.898,-21.484,-23.926,0.000
4058.000,-53.223,-44.434,-24.414,-27.832,0.000
4062.000,-61.523,-44.922,-25.879,-30.762,0.000
4066.000,-59.082,-43.457,-30.273,-22.461,0.000
4070.000,-45.898,-44.434,-31.250,-21.973,0.000
4074.000,-50.293,-39.062,-25.879,-25.879,0.000
4078.000,-37.109,-31.250,-23.926,-33.691,0.000
4082.000,-14.160,-31.738,-22.949,-38.086,0.000
4086.000,-27.344,-30.762,-25.879,-35.645,0.000
4090.000,-37.109,-24.902,-27.344,-30.273,0.000
4094.000,-23.926,-24.414,-25.391,-31.738,0.000
4097.000,-27.344,-31.250,-22.949,-37.109,0.000
4101.000,-31.250,-29.785,-21.973,-31.250,0.000
4105.000,-45.898,-26.855,-26.367,-27.832,0.000
4109.000,-59.570,-29.297,-31.738,-34.180,0.000
4113.000,-47.363,-26.855,-22.949,-36.133,0.000
4117.000,-31.738,-23.438,-18.066,-31.250,0.000
4121.000,-39.062,-24.414,-19.043,-23.438,0.000
4125.000,-61.523,-27.344,-18.066,-20.996,0.000
4129.000,-57.129,-24.414,-21.484,-22.461,0.000
4133.000,-50.781,-20.508,-22.461,-27.344,0.000
4137.000,-43.457,-24.414,-19.531,-29.297,0.000
4140.000,-30.762,-23.438,-20.996,-30.762,0.000
4144.000,-22.949,-26.855,-23.438,-35.156,0.000
4148.000,-28.320,-29.785,-20.508,-33.203,0.000
4152.000,-43.457,-26.367,-20.996,-27.344,0.000
4156.000,-43.945,-27.344,-22.949,-19.043,0.000
4160.000,-41.504,-27.832,-21.484,-28.320,0.000
4164.000,-37.598,-27.832,-20.996,-43.457,0.000
4168.000,-31.250,-28.320,-14.160,-21.484,0.000
4172.000,-34.668,-25.391,-14.160,-12.695,0.000
4176.000,-41.016,-22.949,-18.555,-12.207,0.000
4180.000,-44.434,-23.438,-22.949,-19.531,0.000
4183.000,-38.574,-28.320,-20.996,-28.320,0.000
4187.000,-34.180,-35.645,-16.113,-25.879,0.000
4191.000,-28.320,-30.273,-18.066,-29.785,0.000
4195.000,-29.297,-27.832,-20.020,-32.227,0.000
4199.000,-31.738,-30.762,-19.043,-30.273,0.000
4203.000,-30.273,-28.320,-21.973,-22.461,0.000
4207.000,-35.156,-30.273,-24.414,-18.066,0.000
4211.000,-28.320,-31.738,-21.484,-24.414,0.000
4215.000,-13.184,-29.785,-21.973,-34.180,0.000
4219.000,-14.648,-32.715,-25.879,-33.691,0.000
4222.000,-41.504,-34.668,-27.832,-21.973,0.000
4226.000,-52.246,-34.668,-29.297,-26.855,0.000
4230.000,-37.598,-32.715,-28.320,-39.062,0.000
4234.000,-30.762,-33.203,-27.832,-44.434,0.000
4238.000,-26.855,-36.133,-30.762,-45.898,0.000
4242.000,-26.855,-33.203,-35.156,-35.645,0.000
4246.000,-24.414,-28.320,-34.180,-32.715,0.000
4250.000,-34.180,-25.879,-29.297,-28.809,0.000
4254.000,-37.109,-27.344,-28.320,-13.672,0.000
4258.000,-25.391,-32.715,-30.273,-0.977,0.000
4262.000,-26.367,-28.809,-35.156,-11.230,0.000
4265.000,-29.297,-22.461,-37.109,-32.715,0.000
4269.000,-31.250,-21.484,-40.039,-31.250,0.000
4273.000,-5.859,-15.625,-45.410,-15.137,0.000
4277.000,-17.578,-10.742,-41.992,-2.930,0.000
4281.000,-43.945,-7.812,-36.621,2.441,0.000
4285.000,-42.480,-7.324,-41.016,2.441,0.000
4289.000,-40.527,-4.883,-46.387,7.324,0.000
4293.000,-25.391,1.953,-47.852,2.441,0.000
4297.000,-17.578,5.859,-48.828,-16.113,0.000
4301.000,4.395,12.207,-48.340,-22.461,0.000
4305.000,21.973,17.578,-43.457,-21.484,0.000
4308.000,29.785,20.508,-42.480,-17.578,0.000
4312.000,21.973,18.066,-47.852,-14.648,0.000
4316.000,13.184,13.672,-47.852,-7.812,0.000
4320.000,19.531,20.508,-44.922,0.000,0.000
4324.000,22.949,21.973,-50.781,-2.441,0.000
4328.000,11.230,22.461,-55.176,-4.395,0.000
4332.000,6.348,22.949,-53.711,-2.930,0.000
4336.000,14.160,18.066,-58.105,-1.465,0.000
4340.000,25.879,20.996,-59.082,4.395,0.000
4344.000,18.555,23.926,-54.199,-2.441,0.000
4347.000,-9.766,22.949,-58.105,-4.883,0.000
4351.000,-5.859,23.926,-59.082,5.371,0.000
4355.000,12.207,24.902,-55.176,12.695,0.000
4359.000,24.414,23.438,-54.688,19.531,0.000
4363.000,45.898,27.832,-57.129,19.531,0.000
4367.000,54.199,32.715,-58.594,19.043,0.000
4371.000,20.020,30.273,-53.223,9.277,0.000
4375.000,4.395,28.320,-51.758,0.977,0.000
4379.000,24.414,29.785,-54.688,-3.418,0.000
4383.000,46.387,26.367,-53.223,1.465,0.000
4387.000,55.176,27.344,-60.059,1.465,0.000
4390.000,46.875,33.691,-62.012,0.977,0.000
4394.000,20.508,30.273,-50.293,4.883,0.000
4398.000,2.441,29.785,-46.875,-12.207,0.000
4402.000,13.184,30.273,-46.387,-10.742,0.000
4406.000,12.207,30.273,-45.898,-2.441,0.000
4410.000,14.648,27.344,-44.922,-10.742,0.000
4414.000,16.602,20.020,-48.828,-18.555,0.000
4418.000,9.766,18.555,-50.293,-26.855,0.000
4422.000,-9.277,14.160,-48.828,-27.344,0.000
4426.000,-15.137,10.742,-53.223,-27.344,0.000
4429.000,-20.508,11.230,-55.176,-45.410,0.000
4433.000,-20.020,6.836,-48.340,-36.133,0.000
4437.000,-2.930,12.695,-37.598,-17.578,0.000
4441.000,-13.672,13.672,-38.086,-26.855,0.000
4445.000,-19.043,7.324,-38.574,-24.414,0.000
4449.000,-11.719,9.277,-34.668,-25.879,0.000
4453.000,-12.695,5.371,-32.227,-21.484,0.000
4457.000,-12.695,0.977,-34.668,2.441,0.000
4461.000,-23.926,5.371,-35.156,-10.742,0.000
4465.000,-29.297,8.301,-37.598,-35.645,0.000
4469.000,-15.137,-1.465,-39.062,-38.574,0.000
4472.000,-11.230,-7.324,-31.250,-28.809,0.000
4476.000,-23.926,-8.301,-32.715,-26.367,0.000
4480.000,-29.297,-12.207,-38.574,-47.852,0.000
4484.000,-29.297,-5.859,-33.691,-48.828,0.000
4488.000,-16.602,-7.324,-29.785,-39.062,0.000
4492.000,-20.020,-11.719,-28.809,-44.922,0.000
4496.000,-39.062,-8.301,-31.738,-53.711,0.000
4500.000,-25.391,-2.930,-30.273,-54.688,0.000
4504.000,-16.113,-4.395,-31.738,-52.734,0.000
4508.000,-41.016,-10.742,-36.133,-59.082,0.000
4512.000,-48.340,-14.648,-26.855,-49.316,0.000
4515.000,-43.945,-11.230,-22.949,-36.133,0.000
4519.000,-61.035,-13.184,-26.367,-34.180,0.000
4523.000,-63.965,-23.926,-26.855,-39.551,0.000
4527.000,-52.246,-26.367,-26.367,-43.945,0.000
4531.000,-40.527,-20.020,-21.973,-42.480,0.000
4535.000,-45.410,-20.508,-17.578,-39.551,0.000
4539.000,-51.758,-25.391,-20.996,-24.414,0.000
4543.000,-64.453,-31.250,-22.461,-22.461,0.000
4547.000,-62.988,-30.762,-23.926,-33.691,0.000
4551.000,-36.621,-30.273,-30.762,-25.879,0.000
4554.000,-41.504,-30.762,-30.273,-37.109,0.000
4558.000,-41.992,-27.832,-27.344,-41.504,0.000
4562.000,-38.086,-28.809,-24.414,-24.414,0.000
4566.000,-62.012,-27.344,-20.996,-39.551,0.000
4570.000,-62.012,-26.855,-21.484,-42.480,0.000
4574.000,-42.969,-29.297,-22.949,-26.367,0.000
4578.000,-36.133,-31.738,-23.926,-39.551,0.000
4582.000,-29.785,-31.738,-16.602,-50.781,0.000
4586.000,-27.832,-27.344,-14.160,-52.246,0.000
4590.000,-26.367,-23.438,-15.137,-46.387,0.000
4594.000,-26.855,-25.879,-16.602,-37.598,0.000
4597.000,-53.711,-30.762,-19.043,-32.227,0.000
4601.000,-52.246,-29.785,-20.508,-37.109,0.000
4605.000,-37.598,-32.227,-27.832,-39.551,0.000
4609.000,-36.621,-33.203,-29.785,-34.180,0.000
4613.000,-34.180,-25.391,-23.438,-29.297,0.000
4617.000,-30.762,-24.902,-19.531,-27.832,0.000
4621.000,-37.109,-34.668,-20.020,-21.484,0.000
4625.000,-51.270,-32.227,-18.555,-17.090,0.000
4629.000,-43.457,-20.508,-21.973,-21.484,0.000
4633.000,-43.457,-26.855,-26.855,-20.508,0.000
4637.000,-60.059,-33.203,-19.043,-3.418,0.000
4640.000,-62.012,-32.715,-19.043,13.184,0.000
4644.000,-47.852,-28.320,-25.879,-2.930,0.000
4648.000,-29.785,-24.902,-24.414,-12.695,0.000
4652.000,-36.133,-28.320,-22.949,-11.230,0.000
4656.000,-36.621,-27.344,-20.508,-17.578,0.000
4660.000,-32.715,-28.809,-17.090,-26.855,0.000
4664.000,-41.504,-35.645,-18.555,-33.203,0.000
4668.000,-34.180,-33.691,-23.926,-36.133,0.000
4672.000,-33.203,-28.809,-27.344,-27.344,0.000
4676.000,-36.133,-30.273,-23.438,-13.672,0.000
4679.000,-33.203,-32.715,-23.926,-24.414,0.000
4683.000,-36.621,-28.809,-31.250,-40.527,0.000
4687.000,-26.855,-25.879,-33.203,-32.227,0.000
4691.000,-5.371,-23.438,-31.250,-5.859,0.000
4695.000,-5.371,-24.414,-22.949,-5.859,0.000
4699.000,-24.414,-33.203,-19.043,-27.344,0.000
4703.000,-38.086,-36.133,-24.414,-40.039,0.000
4707.000,-32.227,-41.504,-21.973,-38.574,0.000
4711.000,-20.996,-53.711,-16.602,-37.598,0.000
4715.000,-31.738,-52.734,-13.672,-42.969,0.000
4719.000,-61.035,-55.176,-11.230,-37.109,0.000
4722.000,-103.027,-68.848,-4.883,-28.320,0.000
4726.000,-118.652,-70.801,-2.930,-19.043,0.000
4730.000,-97.656,-73.242,-1.465,-19.531,0.000
4734.000,-96.680,-83.496,-0.977,-46.387,0.000
4738.000,-94.727,-84.473,0.977,-42.480,0.000
4742.000,-92.773,-84.473,2.930,-29.785,0.000
4746.000,-104.980,-87.891,9.766,-50.781,0.000
4750.000,-103.027,-96.191,10.254,-54.688,0.000
4754.000,-97.656,-96.191,6.836,-41.992,0.000
4758.000,-109.375,-97.656,10.254,-45.898,0.000
4762.000,-109.863,-99.609,8.789,-44.922,0.000
4765.000,-91.309,-97.168,9.766,-36.621,0.000
4769.000,-91.309,-98.633,12.207,-34.668,0.000
4773.000,-88.867,-99.121,17.578,-21.973,0.000
4777.000,-84.473,-98.633,17.090,-23.926,0.000
4781.000,-93.262,-99.121,13.184,-43.945,0.000
4785.000,-80.566,-91.309,17.578,-31.738,0.000
4789.000,-72.266,-86.426,16.602,-24.902,0.000
4793.000,-78.125,-88.867,11.719,-33.691,0.000
4797.000,-67.383,-84.961,12.207,-28.809,0.000
4801.000,-61.035,-83.984,9.766,-17.578,0.000
4804.000,-48.828,-86.426,2.441,-16.602,0.000
4808.000,-30.273,-77.637,5.859,-18.555,0.000
4812.000,-17.578,-67.871,4.395,-17.578,0.000
4816.000,-2.441,-67.871,-3.906,-15.137,0.000
4820.000,-43.945,-74.707,-2.930,-7.324,0.000
4824.000,-104.492,-78.613,-4.395,-10.742,0.000
4828.000,-111.328,-75.195,-9.766,-11.230,0.000
4832.000,-98.145,-71.289,-10.742,-13.184,0.000
4836.000,-90.820,-71.777,-9.277,-16.113,0.000
4840.000,-75.684,-70.312,-7.324,-14.160,0.000
4844.000,-71.777,-62.988,-7.812,-20.020,0.000
4847.000,-62.988,-62.012,-9.277,-24.902,0.000
4851.000,-52.246,-56.641,-6.836,-21.484,0.000
4855.000,-69.824,-58.105,-8.789,-19.531,0.000
4859.000,-75.195,-66.406,-11.719,-22.949,0.000
4863.000,-62.988,-58.105,-10.254,-20.020,0.000
4867.000,-60.547,-49.805,-13.672,-23.926,0.000
4871.000,-58.594,-47.363,-14.648,-29.785,0.000
4875.000,-67.383,-53.223,-9.766,-30.273,0.000
4879.000,-75.195,-53.711,-14.160,-33.691,0.000
4883.000,-61.523,-48.340,-15.625,-33.203,0.000
4887.000,-54.688,-48.340,-18.066,-30.273,0.000
4890.000,-46.875,-47.363,-19.043,-14.160,0.000
4894.000,-30.273,-42.969,-13.184,-9.277,0.000
4898.000,-42.969,-50.781,-13.672,-38.086,0.000
4902.000,-45.898,-59.082,-14.648,-55.176,0.000
4906.000,-39.062,-57.617,-13.184,-36.133,0.000
4910.000,-51.270,-59.082,-8.789,-21.484,0.000
4914.000,-81.543,-61.035,-6.348,-28.320,0.000
4918.000,-87.402,-60.547,-5.859,-27.344,0.000
4922.000,-64.453,-54.688,-1.465,-6.348,0.000
4926.000,-52.246,-50.781,-5.859,-11.719,0.000
4929.000,-44.434,-55.176,-12.695,-26.855,0.000
4933.000,-50.293,-53.711,-8.301,-16.113,0.000
4937.000,-61.523,-50.293,-7.324,-9.277,0.000
4941.000,-59.082,-54.688,-12.695,-20.996,0.000
4945.000,-67.383,-50.781,-14.648,-27.832,0.000
4949.000,-69.336,-48.340,-15.137,-23.926,0.000
4953.000,-58.594,-50.293,-15.137,-19.531,0.000
4957.000,-51.270,-50.781,-17.090,-13.184,0.000
4961.000,-46.387,-51.270,-19.043,-13.672,0.000
4965.000,-41.504,-48.340,-17.578,-20.020,0.000
4969.000,-38.086,-52.734,-22.461,-30.273,0.000
4972.000,-32.227,-55.176,-24.414,-39.062,0.000
4976.000,-36.133,-45.410,-22.461,-39.062,0.000
4980.000,-38.086,-38.574,-27.832,-39.551,0.000
4984.000,-36.621,-38.574,-30.762,-37.109,0.000
4988.000,-41.992,-39.551,-30.273,-27.832,0.000
4992.000,-34.668,-38.574,-26.367,-26.855,0.000
4996.000,-23.438,-31.738,-23.926,-36.621,0.000
5000.000,-10.742,-28.809,-23.926,-42.969,0.000
5004.000,-26.855,-35.156,-29.785,-39.551,0.000
5008.000,-49.805,-32.227,-31.250,-33.691,0.000
5012.000,-53.711,-30.273,-26.855,-38.574,0.000
5015.000,-71.777,-35.645,-27.344,-38.574,0.000
5019.000,-69.824,-34.180,-25.879,-31.738,0.000
5023.000,-51.758,-30.762,-24.902,-23.926,0.000
5027.000,-37.598,-27.344,-25.879,-32.715,0.000
5031.000,-42.480,-30.273,-29.297,-41.016,0.000
5035.000,-49.805,-35.156,-25.391,-36.621,0.000
5039.000,-32.227,-35.645,-23.926,-33.203,0.000
5043.000,-24.414,-33.203,-25.879,-29.785,0.000
5047.000,-33.691,-36.133,-24.414,-31.250,0.000
5051.000,-42.969,-37.109,-24.902,-41.992,0.000
5054.000,-48.828,-36.621,-21.973,-35.645,0.000
5058.000,-30.762,-33.691,-18.555,-20.508,0.000
5062.000,-10.742,-29.785,-22.949,-15.137,0.000
5066.000,-32.715,-31.250,-27.832,-24.902,0.000
5070.000,-51.270,-32.715,-31.738,-42.969,0.000
5074.000,-43.457,-31.250,-36.133,-38.574,0.000
5078.000,-28.320,-18.555,-35.645,-23.438,0.000
5082.000,-14.648,-6.348,-33.203,-27.344,0.000
5086.000,-14.160,-1.953,-35.645,-23.438,0.000
5090.000,-9.766,5.371,-41.504,-12.207,0.000
5094.000,2.930,11.719,-46.875,-22.949,0.000
5097.000,3.418,16.602,-52.246,-40.527,0.000
5101.000,-6.836,15.625,-56.152,-42.480,0.000
5105.000,-24.902,11.719,-57.129,-32.227,0.000
5109.000,-35.156,15.137,-57.617,-33.691,0.000
5113.000,-36.621,21.484,-58.594,-43.945,0.000
5117.000,-23.438,27.344,-62.500,-32.715,0.000
5121.000,-2.930,28.320,-60.059,-6.836,0.000
5125.000,-4.883,27.344,-57.617,-6.836,0.000
5129.000,5.371,28.809,-62.500,-18.555,0.000
5133.000,28.809,33.203,-63.477,-15.625,0.000
5137.000,30.273,36.621,-61.035,-8.789,0.000
5140.000,29.297,40.039,-62.500,-18.066,0.000
5144.000,23.926,41.504,-60.547,-22.461,0.000
5148.000,0.488,38.086,-58.105,-16.113,0.000
5152.000,27.344,41.016,-58.594,-13.184,0.000
5156.000,46.387,43.457,-58.105,-10.742,0.000
5160.000,21.973,41.504,-56.152,-11.719,0.000
5164.000,12.207,37.109,-59.570,-16.602,0.000
5168.000,18.555,35.156,-62.500,-24.902,0.000
5172.000,12.695,38.574,-57.129,-18.555,0.000
5176.000,12.207,37.598,-56.152,-13.184,0.000
5179.000,13.184,39.551,-59.082,-13.672,0.000
5183.000,-1.953,40.039,-58.594,-18.066,0.000
5187.000,5.371,32.227,-58.594,-19.531,0.000
5191.000,10.742,32.227,-51.758,-1.953,0.000
5195.000,-8.301,32.227,-45.898,-2.441,0.000
5199.000,-21.484,26.855,-47.852,-19.531,0.000
5203.000,-14.648,26.855,-49.805,-18.066,0.000
5207.000,-3.418,27.344,-47.363,-11.719,0.000
5211.000,9.277,28.809,-47.363,-15.625,0.000
5215.000,2.930,26.367,-49.805,-20.020,0.000
5219.000,-5.859,27.344,-47.363,-19.531,0.000
5222.000,-9.766,25.879,-49.805,-20.508,0.000
5226.000,-32.715,16.113,-52.734,-20.996,0.000
5230.000,-23.926,18.555,-50.781,-22.949,0.000
5234.000,-16.113,11.719,-51.758,-31.250,0.000
5238.000,1.465,10.254,-49.805,-20.020,0.000
5242.000,2.930,18.555,-44.922,-9.766,0.000
5246.000,-17.090,11.719,-45.410,-25.391,0.000
5250.000,-23.438,10.742,-42.480,-25.879,0.000
5254.000,-25.391,9.766,-39.551,-10.742,0.000
5258.000,-10.742,5.371,-46.387,-21.484,0.000
5261.000,-0.488,7.324,-49.805,-40.527,0.000
5265.000,-2.930,8.789,-47.363,-32.715,0.000
5269.000,-5.371,5.371,-47.852,-25.879,0.000
5273.000,-19.043,0.488,-42.480,-23.926,0.000
5277.000,-19.043,0.977,-35.645,-24.414,0.000
5281.000,-22.949,4.395,-36.621,-31.250,0.000
5285.000,-20.020,1.953,-39.551,-24.414,0.000
5289.000,-18.066,-8.789,-39.551,-10.254,0.000
5293.000,-41.504,-5.371,-41.504,-6.836,0.000
5297.000,-40.527,-1.953,-41.992,-14.160,0.000
5301.000,-32.715,-6.348,-43.457,-19.531,0.000
5304.000,-21.973,-6.348,-42.969,-19.531,0.000
5308.000,-2.441,-5.859,-37.598,-17.090,0.000
5312.000,7.324,-5.859,-35.645,-25.391,0.000
5316.000,-10.254,-9.277,-36.133,-35.156,0.000
5320.000,-38.574,-17.578,-35.645,-27.832,0.000
5324.000,-46.387,-19.043,-34.180,-21.973,0.000
5328.000,-54.688,-19.531,-30.762,-25.391,0.000
5332.000,-42.969,-19.043,-26.367,-34.180,0.000
5336.000,-33.691,-17.578,-25.879,-39.062,0.000
5340.000,-45.898,-22.949,-29.297,-45.410,0.000
5344.000,-38.574,-27.832,-30.762,-41.992,0.000
5347.000,-24.902,-20.508,-24.414,-40.527,0.000
5351.000,-22.461,-20.020,-20.996,-36.133,0.000
5355.000,-40.039,-26.855,-22.461,-26.855,0.000
5359.000,-46.875,-23.926,-24.414,-27.832,0.000
5363.000,-44.434,-20.020,-25.391,-36.133,0.000
5367.000,-49.805,-25.879,-28.320,-40.527,0.000
5371.000,-30.273,-24.414,-32.227,-29.785,0.000
5375.000,-20.996,-21.484,-29.297,-28.809,0.000
5379.000,-38.574,-23.438,-29.297,-40.527,0.000
5383.000,-42.480,-24.414,-30.273,-46.875,0.000
5386.000,-35.645,-27.344,-30.762,-40.039,0.000
5390.000,-41.016,-32.715,-30.273,-31.738,0.000
5394.000,-55.664,-30.762,-25.879,-34.180,0.000
5398.000,-45.410,-29.297,-23.926,-40.039,0.000
5402.000,-45.898,-34.180,-23.926,-27.344,0.000
5406.000,-52.246,-34.668,-24.902,-21.484,0.000
5410.000,-50.293,-31.738,-24.414,-36.621,0.000
5414.000,-46.387,-33.691,-25.391,-44.434,0.000
5418.000,-37.109,-39.062,-28.320,-46.875,0.000
5422.000,-23.438,-33.691,-28.320,-39.062,0.000
5426.000,-20.508,-30.762,-26.855,-32.715,0.000
5429.000,-45.410,-24.414,-24.414,-34.668,0.000
5433.000,-41.992,-16.602,-29.297,-36.621,0.000
5437.000,-8.301,-14.160,-34.180,-11.719,0.000
5441.000,4.395,-18.066,-23.438,8.789,0.000
5445.000,-19.531,-29.297,-14.160,-11.719,0.000
5449.000,-63.965,-32.715,-13.672,-24.902,0.000
5453.000,-77.637,-32.715,-13.184,-20.996,0.000
5457.000,-66.406,-42.480,-17.578,-22.949,0.000
5461.000,-65.430,-48.340,-15.625,-22.949,0.000
5465.000,-73.242,-54.199,-10.742,-25.879,0.000
5469.000,-70.801,-62.988,-5.371,-39.062,0.000
5472.000,-74.219,-60.547,1.953,-44.434,0.000
5476.000,-74.707,-64.453,1.465,-38.086,0.000
5480.000,-54.688,-65.430,5.859,-37.598,0.000
5484.000,-58.594,-62.988,6.836,-41.504,0.000
5488.000,-68.359,-69.336,2.930,-36.133,0.000
5492.000,-65.430,-75.195,4.883,-35.645,0.000
5496.000,-73.242,-75.195,5.859,-41.504,0.000
5500.000,-74.707,-80.566,1.953,-46.387,0.000
5504.000,-85.449,-89.355,5.859,-41.504,0.000
5508.000,-93.262,-90.332,14.160,-31.250,0.000
5511.000,-83.496,-95.215,15.137,-38.574,0.000
5515.000,-83.008,-98.633,8.301,-45.898,0.000
5519.000,-80.566,-97.168,10.742,-37.109,0.000
5523.000,-80.078,-95.215,18.066,-23.438,0.000
5527.000,-87.402,-88.867,20.020,-23.438,0.000
5531.000,-87.402,-89.355,20.020,-34.668,0.000
5535.000,-71.289,-91.309,21.973,-31.250,0.000
5539.000,-61.523,-94.238,21.484,-25.391,0.000
5543.000,-83.008,-99.609,16.113,-34.180,0.000
5547.000,-99.609,-97.656,19.043,-36.621,0.000
5551.000,-95.703,-98.145,24.902,-31.250,0.000
5554.000,-93.262,-101.074,16.113,-27.344,0.000
5558.000,-89.355,-99.609,7.324,-33.691,0.000
5562.000,-81.543,-93.750,11.230,-45.410,0.000
5566.000,-77.148,-92.773,8.789,-49.805,0.000
5570.000,-77.637,-93.262,4.395,-41.992,0.000
5574.000,-72.266,-85.938,3.906,-30.762,0.000
5578.000,-57.129,-78.613,0.977,-26.855,0.000
5582.000,-56.152,-75.195,-6.348,-22.461,0.000
5586.000,-49.316,-73.730,-11.230,-15.625,0.000
5590.000,-31.250,-74.219,-11.719,-18.555,0.000
5594.000,-19.043,-65.430,-14.160,-34.180,0.000
5597.000,-34.668,-61.523,-18.555,-36.133,0.000
5601.000,-81.543,-70.312,-17.578,-23.438,0.000
5605.000,-83.984,-68.359,-15.137,-15.625,0.000
5609.000,-44.922,-58.594,-15.625,-10.742,0.000
5613.000,-32.227,-60.059,-15.625,-16.602,0.000
5617.000,-24.414,-57.617,-19.043,-21.484,0.000
5621.000,-37.598,-51.758,-16.602,-12.207,0.000
5625.000,-41.992,-48.828,-11.719,-10.742,0.000
5629.000,-31.738,-54.199,-15.137,-18.555,0.000
5633.000,-53.223,-61.523,-19.043,-20.996,0.000
5636.000,-56.641,-54.199,-18.066,-16.602,0.000
5640.000,-58.105,-48.340,-19.043,-16.113,0.000
5644.000,-69.824,-47.852,-23.926,-23.926,0.000
5648.000,-69.336,-45.410,-24.414,-30.762,0.000
5652.000,-63.965,-45.410,-20.996,-29.297,0.000
5656.000,-42.480,-45.898,-22.949,-21.973,0.000
5660.000,-34.668,-43.945,-22.461,-26.855,0.000
5664.000,-44.434,-40.527,-24.414,-35.156,0.000
5668.000,-32.227,-42.480,-26.855,-34.180,0.000
5672.000,-28.320,-41.504,-21.484,-29.785,0.000
5676.000,-34.668,-38.574,-28.809,-25.879,0.000
5679.000,-43.945,-40.039,-31.250,-31.738,0.000
5683.000,-49.316,-36.621,-27.832,-38.086,0.000
5687.000,-42.480,-35.156,-32.227,-38.086,0.000
5691.000,-40.527,-36.621,-30.273,-35.156,0.000
5695.000,-36.133,-40.039,-30.273,-48.828,0.000
5699.000,-41.504,-39.551,-30.762,-58.105,0.000
5703.000,-55.176,-32.227,-32.227,-53.223,0.000
5707.000,-63.477,-28.809,-31.250,-52.734,0.000
5711.000,-55.664,-35.156,-34.668,-68.848,0.000
5715.000,-38.086,-35.645,-35.156,-70.312,0.000
5719.000,-36.133,-38.086,-36.621,-55.176,0.000
5722.000,-66.895,-39.551,-40.039,-44.434,0.000
5726.000,-70.801,-29.785,-30.762,-39.062,0.000
5730.000,-55.176,-26.855,-26.855,-39.062,0.000
5734.000,-45.410,-34.180,-33.691,-37.109,0.000
5738.000,-45.898,-40.527,-37.598,-28.809,0.000
5742.000,-65.918,-40.039,-37.598,-24.414,0.000
5746.000,-64.453,-34.180,-39.062,-32.715,0.000
5750.000,-55.176,-34.668,-36.621,-42.480,0.000
5754.000,-59.570,-34.180,-29.785,-39.551,0.000
5758.000,-62.500,-32.227,-29.297,-36.621,0.000
5761.000,-60.547,-30.273,-25.879,-37.109,0.000
5765.000,-50.781,-31.738,-18.066,-29.297,0.000
5769.000,-40.527,-31.250,-20.020,-28.809,0.000
5773.000,-44.922,-31.738,-23.438,-33.203,0.000
5777.000,-41.504,-35.645,-22.461,-36.621,0.000
5781.000,-31.250,-33.203,-23.438,-37.598,0.000
5785.000,-30.762,-31.738,-22.461,-37.598,0.000
5789.000,-30.273,-26.367,-22.949,-28.320,0.000
5793.000,-40.039,-23.926,-28.809,-26.367,0.000
5797.000,-45.410,-26.367,-28.320,-31.250,0.000
5801.000,-30.762,-21.973,-24.902,-25.391,0.000
5804.000,-28.809,-19.531,-21.973,-21.973,0.000
5808.000,-43.945,-22.461,-19.043,-18.555,0.000
5812.000,-52.246,-22.949,-21.484,-14.160,0.000
5816.000,-35.645,-18.066,-22.461,-13.672,0.000
5820.000,-20.508,-20.996,-21.484,-23.438,0.000
5824.000,-7.324,-26.855,-19.531,-31.738,0.000
5828.000,-30.273,-27.832,-17.090,-29.297,0.000
5832.000,-72.266,-29.297,-21.484,-27.344,0.000
5836.000,-62.012,-30.273,-24.902,-20.508,0.000
5840.000,-50.293,-32.227,-24.414,-13.184,0.000
5844.000,-47.852,-33.691,-25.879,-25.879,0.000
5847.000,-39.062,-28.320,-25.879,-39.062,0.000
5851.000,-34.668,-23.438,-30.762,-39.551,0.000
5855.000,-27.344,-33.203,-38.574,-34.180,0.000
5859.000,-26.367,-34.180,-36.621,-41.504,0.000
5863.000,-34.668,-27.344,-35.156,-41.016,0.000
5867.000,-35.645,-28.320,-38.574,-31.738,0.000
5871.000,-27.832,-25.391,-36.133,-29.297,0.000
5875.000,-19.043,-23.926,-27.832,-22.461,0.000
5879.000,-16.602,-22.461,-24.902,-22.461,0.000
5883.000,-15.137,-23.438,-30.273,-14.648,0.000
5886.000,-10.742,-20.508,-30.762,0.977,0.000
5890.000,-10.254,-12.207,-27.832,-18.066,0.000
5894.000,-10.742,-9.277,-28.320,-34.668,0.000
5898.000,-17.578,-7.812,-28.809,-18.555,0.000
5902.000,-26.855,-12.207,-30.273,-17.578,0.000
5906.000,-23.438,-5.859,-31.738,-17.578,0.000
5910.000,-3.418,1.465,-29.297,-18.066,0.000
5914.000,-17.090,-2.930,-33.203,-33.203,0.000
5918.000,-39.551,-1.953,-38.086,-36.133,0.000
5922.000,-19.531,9.766,-31.738,-23.438,0.000
5926.000,-7.324,11.230,-34.180,-15.625,0.000
5929.000,-2.441,9.766,-43.457,-23.926,0.000
5933.000,-9.277,14.160,-42.480,-31.250,0.000
5937.000,-10.742,13.184,-42.969,-32.715,0.000
5941.000,-8.301,12.695,-41.016,-12.695,0.000
5945.000,-8.301,20.020,-41.992,1.465,0.000
5949.000,0.977,28.809,-44.434,-4.395,0.000
5953.000,2.441,30.273,-41.992,-4.883,0.000
5957.000,6.348,26.855,-45.898,-1.465,0.000
5961.000,7.324,30.762,-51.758,-1.465,0.000
5965.000,9.766,25.391,-48.340,-0.488,0.000
5968.000,33.203,24.902,-50.781,-2.930,0.000
5972.000,41.992,30.273,-51.758,-3.418,0.000
5976.000,30.762,24.414,-49.805,0.000,0.000
5980.000,22.461,21.973,-58.594,-1.953,0.000
5984.000,26.367,27.832,-56.152,2.441,0.000
5988.000,14.160,28.809,-52.246,4.883,0.000
5992.000,1.953,20.996,-53.223,-0.977,0.000
5996.000,15.625,28.320,-54.688,1.953,0.000
6000.000,29.785,32.715,-62.988,2.441,0.000
6004.000,51.270,33.203,-59.570,-3.418,0.000
6008.000,46.875,34.668,-56.152,-4.395,0.000
6011.000,8.789,27.344,-54.199,-3.906,0.000
6015.000,-2.930,20.508,-51.758,0.977,0.000
6019.000,-16.113,19.531,-54.688,6.836,0.000
6023.000,-14.648,19.043,-51.758,16.602,0.000
6027.000,-15.137,17.090,-58.105,0.000,0.000
6031.000,-0.977,22.461,-56.152,-6.836,0.000
6035.000,18.555,23.926,-42.480,1.465,0.000
6039.000,10.742,17.090,-49.316,-13.184,0.000
6043.000,10.254,17.090,-60.059,-22.461,0.000
6047.000,12.207,15.625,-52.734,-29.297,0.000
6051.000,6.836,11.230,-48.828,-40.527,0.000
6054.000,-5.371,5.859,-50.781,-37.598,0.000
6058.000,2.441,4.883,-53.223,-20.996,0.000
6062.000,8.301,10.254,-46.387,-24.414,0.000
6066.000,0.488,9.766,-46.875,-29.297,0.000
6070.000,-8.301,5.859,-39.551,-24.414,0.000
6074.000,-14.648,4.395,-38.086,-24.902,0.000
6078.000,6.836,1.465,-45.898,-24.414,0.000
6082.000,5.371,0.977,-48.828,-18.555,0.000
6086.000,-14.648,4.883,-37.109,-19.531,0.000
6090.000,-21.484,3.906,-34.668,-19.531,0.000
6093.000,-33.691,2.441,-43.945,-21.973,0.000
6097.000,-22.949,-0.488,-38.086,-19.531,0.000
6101.000,-12.695,0.488,-35.156,-6.348,0.000
6105.000,-19.043,1.953,-41.504,-7.324,0.000
6109.000,-18.555,-0.488,-44.434,-9.766,0.000
6113.000,-5.371,-2.441,-41.504,-8.789,0.000
6117.000,-12.695,-2.930,-42.480,-13.184,0.000
6121.000,-17.090,-2.441,-39.062,-8.789,0.000
6125.000,-22.461,-7.812,-35.645,-15.137,0.000
6129.000,-36.133,-11.719,-41.504,-30.762,0.000
6133.000,-26.855,-6.836,-39.551,-34.668,0.000
6136.000,-10.254,-8.301,-34.668,-24.414,0.000
6140.000,-9.277,-12.695,-36.621,-23.438,0.000
6144.000,-20.508,-12.207,-36.621,-28.320,0.000
6148.000,-20.020,-17.578,-34.668,-13.672,0.000
6152.000,-11.230,-21.484,-33.691,-6.836,0.000
6156.000,-19.043,-21.973,-37.109,-7.324,0.000
6160.000,-21.484,-23.438,-36.133,-20.020,0.000
6164.000,-28.809,-17.578,-32.715,-32.227,0.000
6168.000,-50.781,-19.531,-32.227,-30.273,0.000
6172.000,-52.246,-27.344,-33.691,-32.715,0.000
6176.000,-44.922,-23.438,-31.738,-33.203,0.000
6179.000,-51.758,-20.996,-26.855,-39.551,0.000
6183.000,-40.527,-23.926,-29.785,-40.527,0.000
6187.000,-24.902,-25.391,-37.598,-32.715,0.000
6191.000,-25.391,-20.996,-35.645,-30.762,0.000
6195.000,-36.621,-21.973,-27.344,-28.809,0.000
6199.000,-51.758,-27.344,-31.738,-37.598,0.000
6203.000,-45.410,-28.809,-35.156,-28.809,0.000
6207.000,-30.273,-27.344,-33.691,-16.602,0.000
6211.000,-28.809,-19.531,-28.809,-16.113,0.000
6215.000,-25.879,-20.996,-27.832,-19.531,0.000
6218.000,-21.973,-26.855,-36.133,-32.227,0.000
6222.000,-3.906,-23.438,-38.086,-37.109,0.000
6226.000,4.395,-25.391,-39.551,-28.809,0.000
6230.000,0.488,-28.809,-41.504,-27.344,0.000
6234.000,13.672,-24.902,-40.039,-26.367,0.000
6238.000,-5.859,-21.484,-35.156,-4.395,0.000
6242.000,-43.457,-21.973,-29.785,4.395,0.000
6246.000,-35.156,-25.879,-27.832,-12.207,0.000
6250.000,-35.645,-36.133,-26.367,-23.926,0.000
6254.000,-54.199,-38.086,-25.391,-20.508,0.000
6258.000,-59.570,-31.738,-25.391,-1.953,0.000
6261.000,-61.035,-31.738,-26.855,-3.906,0.000
6265.000,-50.293,-34.180,-27.344,-22.949,0.000
6269.000,-37.598,-37.109,-27.832,-22.461,0.000
6273.000,-28.320,-37.598,-29.785,-20.508,0.000
6277.000,-26.367,-39.062,-29.785,-30.762,0.000
6281.000,-37.598,-37.109,-32.227,-41.992,0.000
6285.000,-42.969,-33.203,-31.250,-41.992,0.000
6289.000,-39.062,-27.832,-31.250,-31.738,0.000
6293.000,-36.133,-26.855,-36.133,-31.738,0.000
6297.000,-22.461,-27.832,-36.133,-36.621,0.000
6301.000,-19.531,-28.809,-33.203,-33.691,0.000
6304.000,-35.156,-28.809,-30.762,-32.715,0.000
6308.000,-30.273,-27.344,-34.668,-39.062,0.000
6312.000,-26.855,-25.879,-33.691,-41.504,0.000
6316.000,-35.645,-25.391,-26.855,-39.062,0.000
6320.000,-19.043,-22.949,-23.926,-34.668,0.000
6324.000,-4.883,-18.555,-23.926,-29.785,0.000
6328.000,-19.043,-21.973,-29.297,-37.598,0.000
6332.000,-25.391,-22.461,-32.227,-45.898,0.000
6336.000,-33.203,-28.809,-27.832,-28.320,0.000
6340.000,-35.156,-32.227,-30.273,-22.461,0.000
6343.000,-29.785,-31.738,-36.621,-33.203,0.000
6347.000,-18.555,-25.879,-34.668,-26.367,0.000
6351.000,2.441,-18.066,-32.227,-20.996,0.000
6355.000,0.000,-20.020,-31.738,-25.879,0.000
6359.000,-22.949,-24.414,-31.250,-18.066,0.000
6363.000,-48.828,-29.785,-30.762,-13.184,0.000
6367.000,-62.012,-32.227,-32.715,-20.020,0.000
6371.000,-60.547,-33.691,-35.156,-20.020,0.000
6375.000,-52.734,-28.809,-37.109,-22.461,0.000
6379.000,-47.363,-27.344,-40.039,-29.297,0.000
6383.000,-32.227,-25.879,-35.645,-18.066,0.000
6386.000,-6.836,-21.973,-26.855,13.672,0.000
6390.000,-18.555,-29.785,-20.996,9.766,0.000
6394.000,-42.969,-34.180,-22.461,-23.438,0.000
6398.000,-43.457,-36.621,-17.578,-30.762,0.000
6402.000,-43.945,-41.504,-13.184,-22.461,0.000
6406.000,-52.734,-46.875,-11.230,-24.902,0.000
6410.000,-53.711,-50.781,-11.719,-37.598,0.000
6414.000,-50.781,-56.152,-8.789,-46.387,0.000
6418.000,-54.199,-64.941,0.000,-50.293,0.000
6422.000,-65.918,-71.289,-1.953,-61.523,0.000
6426.000,-64.941,-70.801,2.441,-54.199,0.000
6429.000,-55.176,-73.730,9.766,-48.828,0.000
6433.000,-71.289,-82.520,7.812,-59.082,0.000
6437.000,-80.078,-88.867,4.395,-57.617,0.000
6441.000,-82.520,-89.355,7.324,-53.711,0.000
6445.000,-103.516,-90.332,18.066,-47.363,0.000
6449.000,-104.492,-92.773,6.348,-45.410,0.000
6453.000,-94.727,-98.145,1.953,-31.738,0.000
6457.000,-123.535,-98.633,9.277,-26.367,0.000
6461.000,-129.883,-92.773,4.883,-44.434,0.000
6465.000,-118.164,-87.891,7.324,-44.922,0.000
6468.000,-120.605,-92.285,13.184,-35.645,0.000
6472.000,-119.141,-99.609,9.766,-33.203,0.000
6476.000,-99.121,-96.191,4.883,-34.180,0.000
6480.000,-89.844,-95.215,4.395,-40.039,0.000
6484.000,-92.773,-93.262,1.953,-33.691,0.000
6488.000,-86.914,-92.285,2.930,-19.531,0.000
6492.000,-75.684,-95.703,0.977,-21.973,0.000
6496.000,-70.312,-90.820,1.465,-28.809,0.000
6500.000,-63.965,-82.520,4.395,-22.461,0.000
6504.000,-58.105,-79.102,6.348,-24.414,0.000
6508.000,-51.270,-76.172,4.395,-24.414,0.000
6511.000,-50.781,-74.219,1.465,-23.926,0.000
6515.000,-65.918,-72.266,-5.859,-33.691,0.000
6519.000,-73.730,-73.730,-11.719,-27.344,0.000
6523.000,-79.590,-77.148,-8.301,-10.742,0.000
6527.000,-79.102,-77.637,-8.301,-18.066,0.000
6531.000,-70.312,-70.312,-13.672,-22.461,0.000
6535.000,-60.547,-64.941,-13.672,-21.484,0.000
6539.000,-55.664,-62.988,-16.602,-33.203,0.000
6543.000,-45.898,-58.105,-16.113,-31.250,0.000
6547.000,-38.574,-56.152,-15.137,-20.996,0.000
6551.000,-38.574,-53.711,-12.695,-23.926,0.000
6554.000,-52.734,-54.688,-7.324,-24.414,0.000
6558.000,-63.965,-53.711,-10.742,-24.902,0.000
6562.000,-66.406,-50.781,-14.648,-28.320,0.000
6566.000,-63.965,-55.176,-17.090,-26.367,0.000
6570.000,-54.688,-53.711,-17.578,-21.484,0.000
6574.000,-47.852,-47.852,-16.113,-25.879,0.000
6578.000,-44.922,-46.875,-15.137,-30.273,0.000
6582.000,-54.199,-44.434,-14.648,-33.691,0.000
6586.000,-55.176,-46.875,-16.602,-29.785,0.000
6590.000,-49.805,-48.828,-17.090,-24.414,0.000
6593.000,-55.176,-45.898,-17.090,-36.621,0.000
6597.000,-57.617,-47.363,-17.090,-41.504,0.000
6601.000,-44.922,-44.922,-16.113,-31.738,0.000
6605.000,-44.922,-39.551,-20.020,-20.996,0.000
6609.000,-50.293,-39.551,-21.484,-25.879,0.000
6613.000,-47.852,-37.598,-20.020,-36.621,0.000
6617.000,-35.156,-27.832,-20.508,-34.668,0.000
6621.000,-27.832,-29.785,-20.508,-25.879,0.000
6625.000,-35.156,-31.250,-19.043,-30.762,0.000
6629.000,-32.715,-29.785,-20.508,-38.086,0.000
6633.000,-20.508,-31.250,-19.531,-29.297,0.000
6636.000,-35.645,-31.738,-17.090,-23.438,0.000
6640.000,-30.762,-29.785,-20.996,-22.461,0.000
6644.000,-13.184,-25.879,-18.066,-10.742,0.000
6648.000,-9.766,-23.926,-17.090,-6.348,0.000
6652.000,-40.039,-32.715,-23.438,-13.184,0.000
6656.000,-47.363,-37.109,-23.438,-9.277,0.000
6660.000,-33.203,-32.227,-20.996,-17.090,0.000
6664.000,-40.039,-27.344,-26.855,-30.273,0.000
6668.000,-33.203,-31.738,-29.785,-25.879,0.000
6672.000,-58.594,-36.133,-27.832,-11.719,0.000
6676.000,-69.824,-30.273,-24.414,1.465,0.000
6679.000,-58.105,-26.855,-20.020,-4.883,0.000
6683.000,-59.570,-24.902,-19.531,-9.277,0.000
6687.000,-55.664,-26.855,-15.137,-2.441,0.000
6691.000,-46.387,-30.762,-16.602,-6.348,0.000
6695.000,-40.039,-33.203,-20.996,-17.578,0.000
6699.000,-47.852,-35.156,-23.926,-25.879,0.000
6703.000,-41.016,-32.715,-29.297,-25.879,0.000
6707.000,-39.062,-31.250,-31.250,-28.809,0.000
6711.000,-48.340,-35.645,-28.320,-31.738,0.000
6715.000,-41.504,-33.691,-30.762,-30.273,0.000
6718.000,-39.551,-30.273,-32.227,-41.016,0.000
6722.000,-26.367,-30.762,-30.762,-37.598,0.000
6726.000,-14.648,-29.785,-25.391,-26.855,0.000
6730.000,-21.973,-31.250,-20.996,-30.273,0.000
6734.000,-49.316,-36.621,-28.809,-46.387,0.000
6738.000,-49.316,-38.574,-27.344,-51.270,0.000
6742.000,-37.109,-40.527,-20.508,-36.133,0.000
6746.000,-49.805,-41.504,-20.996,-44.922,0.000
6750.000,-44.922,-40.039,-14.648,-41.016,0.000
6754.000,-50.781,-43.945,-8.301,-28.320,0.000
6758.000,-56.641,-42.480,-10.742,-35.156,0.000
6761.000,-46.875,-40.039,-9.277,-30.762,0.000
6765.000,-45.410,-41.016,-10.254,-32.715,0.000
6769.000,-20.020,-41.504,-15.625,-28.809,0.000
6773.000,-21.484,-44.922,-17.090,-24.414,0.000
6777.000,-39.062,-46.387,-18.066,-28.809,0.000
6781.000,-45.410,-41.504,-16.113,-14.160,0.000
6785.000,-54.688,-42.969,-17.578,-17.578,0.000
6789.000,-50.781,-44.434,-21.484,-21.484,0.000
6793.000,-41.992,-40.527,-20.508,-11.230,0.000
6797.000,-56.641,-37.598,-25.879,-21.484,0.000
6800.000,-59.082,-40.039,-28.809,-19.531,0.000
6804.000,-44.434,-39.062,-25.879,-12.695,0.000
6808.000,-44.922,-33.691,-25.391,-14.648,0.000
6812.000,-43.457,-41.016,-24.414,-18.555,0.000
6816.000,-38.574,-44.922,-29.297,-25.391,0.000
6820.000,-32.227,-41.504,-30.762,-26.367,0.000
6824.000,-37.109,-36.621,-24.902,-30.273,0.000
6828.000,-38.574,-34.180,-26.367,-36.133,0.000
6832.000,-38.574,-40.527,-29.297,-35.156,0.000
6836.000,-36.621,-38.086,-26.367,-27.344,0.000
6840.000,-41.992,-31.738,-22.949,-31.250,0.000
6843.000,-45.410,-34.180,-19.531,-41.504,0.000
6847.000,-40.039,-35.156,-20.508,-45.898,0.000
6851.000,-26.367,-33.203,-23.926,-43.945,0.000
6855.000,-17.090,-34.668,-21.973,-39.551,0.000
6859.000,-14.160,-36.133,-20.020,-34.668,0.000
6863.000,-20.020,-32.227,-22.461,-35.156,0.000
6867.000,-37.109,-37.109,-20.996,-32.227,0.000
6871.000,-47.852,-32.227,-14.160,-20.996,0.000
6875.000,-33.203,-26.367,-14.648,-17.090,0.000
6879.000,-20.996,-32.227,-24.902,-25.391,0.000
6883.000,-15.625,-37.109,-32.227,-30.273,0.000
6886.000,-7.324,-34.668,-34.180,-20.508,0.000
6890.000,-35.156,-33.203,-32.715,-4.883,0.000
6894.000,-69.824,-37.598,-30.762,-13.672,0.000
6898.000,-53.223,-31.738,-29.297,-25.391,0.000
6902.000,-17.578,-34.180,-25.391,-7.812,0.000
6906.000,-25.879,-35.645,-25.879,1.465,0.000
6910.000,-68.848,-27.344,-32.715,-20.996,0.000
6914.000,-58.594,-20.996,-32.715,-28.809,0.000
6918.000,-41.504,-12.207,-27.832,-16.602,0.000
6922.000,-40.527,-10.742,-26.367,0.000,0.000
6925.000,-20.020,-6.836,-33.203,-4.395,0.000
6929.000,-6.836,0.000,-35.645,-15.137,0.000
6933.000,-0.977,4.883,-41.016,-14.648,0.000
6937.000,7.324,8.301,-46.387,-8.789,0.000
6941.000,15.137,9.766,-46.875,-14.160,0.000
6945.000,11.719,10.254,-49.316,-26.855,0.000
6949.000,9.277,7.812,-49.805,-24.902,0.000
6953.000,26.855,8.301,-54.688,-13.672,0.000
6957.000,15.137,13.672,-56.641,-20.020,0.000
6961.000,12.695,17.578,-55.664,-24.414,0.000
6965.000,19.043,16.602,-57.617,-23.438,0.000
6968.000,11.719,16.113,-58.594,-31.738,0.000
6972.000,6.348,14.648,-60.059,-28.320,0.000
6976.000,1.465,22.949,-57.129,-20.996,0.000
6980.000,11.719,25.879,-56.641,-16.113,0.000
6984.000,15.625,23.438,-57.617,-19.043,0.000
6988.000,-0.977,22.949,-56.641,-19.531,0.000
6992.000,1.953,22.461,-59.082,-12.207,0.000
6996.000,27.344,26.855,-59.570,-22.949,0.000
7000.000,33.691,32.227,-61.523,-37.109,0.000
7004.000,41.504,32.227,-65.918,-27.832,0.000
7008.000,31.250,26.855,-65.918,-16.602,0.000
7011.000,7.812,30.273,-58.105,-15.625,0.000
7015.000,6.836,34.668,-56.641,-21.973,0.000
7019.000,15.625,31.250,-60.059,-17.578,0.000
7023.000,24.414,30.273,-57.617,-2.930,0.000
7027.000,-0.488,27.832,-59.082,-13.672,0.000
7031.000,-2.441,26.367,-64.453,-21.973,0.000
7035.000,18.555,28.809,-66.406,-18.066,0.000
7039.000,12.207,27.344,-61.523,-20.508,0.000
7043.000,13.184,27.832,-61.035,-21.973,0.000
7047.000,20.508,36.133,-58.105,-13.672,0.000
7050.000,22.949,32.227,-56.152,-11.719,0.000
7054.000,18.066,23.926,-62.012,-12.207,0.000
7058.000,3.906,20.508,-61.523,-14.160,0.000
7062.000,-10.742,18.555,-53.711,-20.020,0.000
7066.000,-10.742,16.602,-51.270,-18.066,0.000
7070.000,9.277,19.043,-53.223,-10.742,0.000
7074.000,10.254,20.996,-47.363,-2.930,0.000
7078.000,6.836,17.090,-41.992,-0.488,0.000
7082.000,7.812,13.672,-45.410,-1.953,0.000
7086.000,3.418,13.672,-46.387,-6.836,0.000
7090.000,1.953,13.184,-46.387,-16.113,0.000
7093.000,17.578,10.254,-47.363,-21.484,0.000
7097.000,4.883,6.836,-43.945,-23.926,0.000
7101.000,0.000,3.418,-43.457,-21.484,0.000
7105.000,18.066,2.930,-43.457,-11.230,0.000
7109.000,3.906,2.441,-42.969,-3.906,0.000
7113.000,2.930,3.906,-40.039,-7.812,0.000
7117.000,3.906,-3.906,-36.621,-12.695,0.000
7121.000,1.953,-6.348,-38.574,-6.836,0.000
7125.000,7.812,-0.488,-29.785,-15.137,0.000
7129.000,8.301,-2.441,-29.297,-28.320,0.000
7133.000,-4.395,-10.254,-41.992,-27.832,0.000
7136.000,-22.461,-13.184,-43.457,-23.438,0.000
7140.000,-35.156,-12.695,-36.621,-20.020,0.000
7144.000,-35.156,-11.230,-34.668,-33.203,0.000
7148.000,-27.832,-3.906,-35.156,-47.852,0.000
7152.000,-30.762,-3.906,-34.180,-41.504,0.000
7156.000,-29.297,-7.812,-31.250,-24.414,0.000
7160.000,-34.668,-9.277,-27.832,-15.625,0.000
7164.000,-34.180,-6.836,-34.180,-30.273,0.000
7168.000,-37.109,-10.742,-33.691,-28.809,0.000
7172.000,-51.270,-20.020,-35.645,-19.531,0.000
7175.000,-41.016,-18.066,-41.504,-25.879,0.000
7179.000,-26.367,-9.277,-38.086,-27.832,0.000
7183.000,-17.578,-5.371,-31.738,-20.020,0.000
7187.000,-17.090,-9.277,-25.879,-11.230,0.000
7191.000,-20.020,-15.137,-24.902,-3.906,0.000
7195.000,-20.996,-19.043,-26.855,-3.906,0.000
7199.000,-30.762,-11.719,-27.832,-14.160,0.000
7203.000,-43.457,-11.719,-29.297,-14.160,0.000
7207.000,-41.504,-16.113,-28.809,-2.441,0.000
7211.000,-25.391,-11.230,-28.320,-10.742,0.000
7215.000,-12.207,-9.766,-28.320,-30.273,0.000
7218.000,-13.184,-14.648,-28.320,-35.645,0.000
7222.000,-24.902,-21.484,-33.203,-33.691,0.000
7226.000,-27.832,-19.531,-34.668,-36.133,0.000
7230.000,-20.020,-19.043,-33.691,-42.480,0.000
7234.000,-26.855,-21.973,-31.250,-38.086,0.000
7238.000,-18.555,-16.113,-29.297,-24.414,0.000
7242.000,-24.902,-17.578,-27.832,-24.414,0.000
7246.000,-43.457,-19.043,-27.344,-30.762,0.000
7250.000,-48.828,-21.484,-25.391,-27.344,0.000
7254.000,-61.035,-26.367,-26.855,-19.043,0.000
7258.000,-56.152,-24.902,-29.297,-14.648,0.000
7261.000,-52.246,-25.391,-26.855,-20.508,0.000
7265.000,-50.781,-21.484,-25.391,-17.578,0.000
7269.000,-45.410,-20.020,-28.320,-14.648,0.000
7273.000,-32.227,-16.113,-23.438,-7.324,0.000
7277.000,-19.531,-17.090,-18.066,-3.418,0.000
7281.000,-25.879,-23.926,-21.973,-13.672,0.000
7285.000,-36.621,-22.949,-22.949,-13.184,0.000
7289.000,-36.621,-23.438,-24.414,-6.348,0.000
7293.000,-26.855,-25.391,-27.344,-3.906,0.000
7297.000,-21.484,-22.949,-27.344,-7.812,0.000
7300.000,-15.625,-22.949,-26.855,-7.812,0.000
7304.000,-32.227,-27.344,-27.832,1.465,0.000
7308.000,-43.457,-25.879,-25.391,0.488,0.000
7312.000,-46.387,-23.926,-24.414,-13.184,0.000
7316.000,-35.156,-24.414,-29.297,-18.555,0.000
7320.000,-22.461,-25.391,-30.762,-2.441,0.000
7324.000,-24.414,-21.973,-26.367,0.977,0.000
7328.000,-23.438,-21.973,-22.461,-13.672,0.000
7332.000,-21.973,-25.391,-25.879,-19.531,0.000
7336.000,-18.555,-26.855,-30.762,-15.625,0.000
7340.000,-22.949,-22.949,-33.691,-16.113,0.000
7343.000,-26.855,-18.066,-36.133,-29.297,0.000
7347.000,-23.926,-19.531,-37.598,-40.039,0.000
7351.000,-10.742,-21.484,-35.645,-25.391,0.000
7355.000,9.277,-25.879,-24.902,-16.113,0.000
7359.000,-11.719,-29.785,-20.020,-26.367,0.000
7363.000,-30.273,-29.297,-20.508,-31.738,0.000
7367.000,-42.480,-36.133,-17.578,-33.691,0.000
7371.000,-58.594,-44.922,-17.090,-38.574,0.000
7375.000,-54.688,-46.387,-8.301,-43.457,0.000
7379.000,-51.758,-45.410,-0.977,-52.246,0.000
7383.000,-50.293,-49.316,-3.906,-42.480,0.000
7386.000,-75.195,-64.453,0.000,-39.551,0.000
7390.000,-83.496,-65.430,2.441,-53.711,0.000
7394.000,-73.730,-60.059,7.812,-50.781,0.000
7398.000,-86.426,-67.383,10.254,-48.828,0.000
7402.000,-95.215,-70.801,5.371,-54.199,0.000
