timestamp,TP9,AF7,AF8,TP10,Right AUX
0.000,-49.316,-31.738,-32.715,-27.344,0.000
4.000,-41.016,-31.250,-31.250,-26.855,0.000
8.000,-30.273,-32.227,-30.762,-26.855,0.000
12.000,-26.367,-28.809,-27.832,-20.996,0.000
16.000,-19.043,-29.785,-34.180,-20.508,0.000
20.000,-16.602,-31.738,-31.738,-23.926,0.000
23.000,-22.949,-32.715,-27.832,-19.531,0.000
27.000,-24.414,-38.086,-33.203,-15.625,0.000
31.000,-18.066,-35.156,-35.156,-17.090,0.000
35.000,-11.230,-29.297,-32.227,-19.043,0.000
39.000,-16.602,-23.438,-30.273,-20.996,0.000
43.000,-25.391,-21.484,-28.320,-15.137,0.000
47.000,-37.109,-21.484,-27.832,-18.066,0.000
51.000,-34.668,-25.879,-25.391,-19.531,0.000
55.000,-26.367,-29.297,-27.344,-18.066,0.000
59.000,-18.066,-25.391,-29.785,-28.320,0.000
62.000,-27.344,-25.391,-30.273,-31.738,0.000
66.000,-47.363,-30.273,-33.203,-27.344,0.000
70.000,-45.898,-36.621,-33.203,-29.297,0.000
74.000,-49.805,-35.645,-24.414,-36.133,0.000
78.000,-54.199,-35.156,-22.461,-37.598,0.000
82.000,-38.574,-35.156,-24.414,-32.715,0.000
86.000,-36.621,-33.691,-23.438,-36.133,0.000
90.000,-44.922,-37.109,-28.320,-42.480,0.000
94.000,-36.621,-39.062,-33.203,-43.945,0.000
98.000,-33.691,-34.180,-30.273,-36.133,0.000
102.000,-42.969,-35.645,-28.320,-23.438,0.000
105.000,-48.828,-35.645,-27.344,-19.043,0.000
109.000,-41.992,-34.180,-31.250,-28.320,0.000
113.000,-30.273,-32.715,-30.273,-25.879,0.000
117.000,-32.227,-32.715,-21.973,-15.625,0.000
121.000,-43.945,-38.086,-26.367,-22.949,0.000
125.000,-39.551,-35.156,-29.297,-29.785,0.000
129.000,-19.043,-30.273,-25.879,-31.738,0.000
133.000,-7.812,-30.273,-26.855,-31.738,0.000
137.000,-15.137,-26.855,-28.809,-24.414,0.000
141.000,-34.668,-24.414,-30.273,-26.855,0.000
145.000,-37.109,-21.484,-31.250,-30.762,0.000
148.000,-33.203,-22.461,-32.715,-28.320,0.000
152.000,-31.250,-28.809,-34.668,-32.227,0.000
156.000,-26.367,-30.273,-35.156,-30.762,0.000
160.000,-38.574,-33.691,-33.203,-37.598,0.000
164.000,-52.734,-40.527,-38.086,-50.781,0.000
168.000,-47.363,-38.574,-37.109,-53.711,0.000
172.000,-45.898,-32.227,-31.250,-49.805,0.000
176.000,-51.270,-31.738,-30.762,-43.457,0.000
180.000,-44.922,-34.668,-29.297,-41.504,0.000
184.000,-33.691,-30.762,-27.832,-42.480,0.000
187.000,-32.715,-30.273,-25.391,-36.621,0.000
191.000,-34.668,-37.598,-23.438,-31.738,0.000
195.000,-36.621,-37.109,-24.902,-37.598,0.000
199.000,-42.969,-29.785,-25.391,-36.621,0.000
203.000,-34.180,-27.832,-23.926,-25.391,0.000
207.000,-27.344,-30.273,-25.879,-22.461,0.000
211.000,-20.996,-30.273,-25.879,-20.508,0.000
215.000,-4.883,-26.855,-25.391,-14.648,0.000
219.000,-16.113,-28.320,-28.809,-20.996,0.000
223.000,-24.902,-33.691,-28.809,-16.602,0.000
227.000,-22.949,-39.062,-28.809,-18.555,0.000
230.000,-39.062,-34.180,-36.621,-31.738,0.000
234.000,-45.898,-30.273,-35.156,-25.391,0.000
238.000,-32.227,-29.785,-33.203,-18.555,0.000
242.000,-25.879,-30.273,-38.574,-25.391,0.000
246.000,-23.926,-25.879,-35.156,-30.762,0.000
250.000,-22.949,-26.367,-36.133,-34.668,0.000
254.000,-30.762,-31.250,-42.480,-41.016,0.000
258.000,-44.434,-28.809,-36.133,-44.434,0.000
262.000,-40.039,-35.156,-32.715,-47.852,0.000
266.000,-38.086,-38.574,-39.551,-34.180,0.000
270.000,-52.734,-37.109,-42.480,-28.320,0.000
273.000,-48.340,-35.645,-42.480,-35.645,0.000
277.000,-31.738,-34.180,-41.992,-27.344,0.000
281.000,-23.926,-30.273,-42.480,-14.648,0.000
285.000,-25.879,-27.832,-41.504,-9.766,0.000
289.000,-23.438,-26.855,-39.551,-7.812,0.000
293.000,-12.207,-20.996,-37.598,-14.160,0.000
297.000,-6.836,-21.484,-34.180,-19.531,0.000
301.000,-17.090,-23.926,-29.785,-15.625,0.000
305.000,-21.484,-29.297,-30.273,-18.555,0.000
309.000,-22.461,-30.273,-30.273,-16.602,0.000
312.000,-29.297,-26.367,-31.738,-12.207,0.000
316.000,-33.203,-28.320,-33.691,-16.602,0.000
320.000,-34.668,-25.391,-30.273,-23.438,0.000
324.000,-30.273,-28.809,-36.133,-31.738,0.000
328.000,-23.926,-32.715,-43.457,-27.832,0.000
332.000,-26.855,-32.227,-41.504,-26.367,0.000
336.000,-35.645,-31.250,-38.086,-29.297,0.000
340.000,-33.691,-27.344,-38.086,-31.738,0.000
344.000,-23.926,-29.785,-40.039,-36.133,0.000
348.000,-37.109,-41.992,-38.086,-30.762,0.000
352.000,-50.293,-40.527,-36.621,-28.320,0.000
355.000,-41.016,-33.203,-37.598,-27.832,0.000
359.000,-39.062,-34.180,-37.109,-19.531,0.000
363.000,-41.992,-32.715,-32.715,-21.973,0.000
367.000,-41.504,-33.203,-29.785,-19.531,0.000
371.000,-40.527,-38.574,-32.227,-16.113,0.000
375.000,-26.367,-36.133,-37.109,-22.949,0.000
379.000,-14.160,-31.250,-41.992,-30.273,0.000
383.000,-16.602,-28.320,-33.691,-22.461,0.000
387.000,-21.973,-32.227,-31.738,-8.789,0.000
391.000,-20.996,-32.715,-35.645,-10.742,0.000
395.000,-17.090,-32.227,-30.762,-11.230,0.000
398.000,-35.156,-38.574,-28.809,-8.789,0.000
402.000,-37.598,-37.109,-26.367,-3.906,0.000
406.000,-22.949,-31.250,-27.344,-22.461,0.000
410.000,-27.832,-25.391,-28.320,-32.227,0.000
414.000,-28.809,-30.273,-29.297,-19.531,0.000
418.000,-21.484,-37.109,-29.785,-27.344,0.000
422.000,-20.508,-30.273,-27.832,-39.062,0.000
426.000,-15.137,-25.391,-28.809,-37.109,0.000
430.000,-34.180,-37.598,-32.227,-38.086,0.000
434.000,-45.898,-41.992,-32.715,-37.598,0.000
437.000,-35.645,-35.156,-33.203,-31.738,0.000
441.000,-33.203,-35.156,-32.715,-28.320,0.000
445.000,-20.508,-35.156,-32.715,-32.227,0.000
449.000,-29.297,-33.691,-32.715,-35.645,0.000
453.000,-53.223,-35.156,-31.250,-37.598,0.000
457.000,-58.105,-32.227,-27.832,-30.273,0.000
461.000,-40.039,-24.902,-24.902,-17.090,0.000
465.000,-27.832,-24.902,-27.832,-10.742,0.000
469.000,-29.785,-28.809,-25.879,-11.719,0.000
473.000,-27.344,-28.809,-25.879,-13.672,0.000
477.000,-18.555,-36.133,-31.738,-16.602,0.000
480.000,-11.719,-37.598,-34.668,-20.996,0.000
484.000,-12.207,-30.273,-31.738,-18.555,0.000
488.000,-14.648,-24.414,-25.879,-11.719,0.000
492.000,-19.043,-26.367,-28.320,-18.066,0.000
496.000,-27.344,-30.273,-32.715,-26.367,0.000
500.000,-26.367,-30.762,-38.086,-27.832,0.000
504.000,-26.855,-32.227,-40.527,-26.855,0.000
508.000,-25.879,-29.297,-34.180,-31.250,0.000
512.000,-26.855,-23.926,-30.273,-32.715,0.000
516.000,-25.391,-18.066,-29.297,-27.832,0.000
520.000,-18.066,-19.043,-27.344,-27.344,0.000
523.000,-28.809,-17.578,-26.367,-23.438,0.000
527.000,-25.879,-17.090,-29.297,-24.902,0.000
531.000,-18.066,-22.949,-30.762,-33.203,0.000
535.000,-17.090,-24.414,-27.344,-29.785,0.000
539.000,-26.855,-22.949,-27.344,-29.785,0.000
543.000,-20.020,-20.508,-31.250,-32.227,0.000
547.000,-9.277,-18.555,-27.832,-17.090,0.000
551.000,-28.809,-17.090,-19.043,-7.812,0.000
555.000,-44.434,-18.066,-19.043,-13.184,0.000
559.000,-43.457,-26.367,-27.344,-7.812,0.000
562.000,-34.180,-30.762,-24.414,2.441,0.000
566.000,-29.785,-30.762,-21.484,5.371,0.000
570.000,-31.738,-27.832,-23.926,5.859,0.000
574.000,-27.832,-29.785,-26.855,-4.883,0.000
578.000,-25.879,-29.297,-34.668,-13.672,0.000
582.000,-19.531,-30.273,-36.133,-15.137,0.000
586.000,-20.020,-33.203,-30.273,-10.742,0.000
590.000,-27.344,-29.297,-32.715,-15.137,0.000
594.000,-26.367,-28.809,-39.551,-33.203,0.000
598.000,-26.855,-29.297,-39.062,-31.250,0.000
602.000,-40.039,-30.273,-38.086,-27.344,0.000
605.000,-43.457,-32.227,-36.621,-41.016,0.000
609.000,-41.016,-29.785,-36.133,-43.457,0.000
613.000,-34.180,-31.738,-38.086,-41.992,0.000
617.000,-28.320,-40.527,-42.969,-52.246,0.000
621.000,-39.551,-41.016,-47.363,-56.641,0.000
625.000,-38.086,-30.762,-47.852,-51.758,0.000
629.000,-43.457,-35.156,-42.969,-53.223,0.000
633.000,-64.941,-43.457,-40.527,-47.363,0.000
637.000,-74.707,-46.875,-40.039,-37.598,0.000
641.000,-69.824,-41.992,-33.203,-38.574,0.000
645.000,-65.430,-34.180,-31.738,-40.039,0.000
648.000,-58.105,-32.715,-32.715,-34.668,0.000
652.000,-52.734,-30.762,-31.738,-20.020,0.000
656.000,-51.758,-31.738,-34.180,-22.949,0.000
660.000,-63.477,-33.691,-35.645,-32.715,0.000
664.000,-51.758,-31.250,-33.203,-29.785,0.000
668.000,-37.109,-29.785,-34.180,-24.902,0.000
672.000,-43.945,-31.738,-36.621,-24.902,0.000
676.000,-42.480,-33.203,-33.203,-24.902,0.000
680.000,-40.039,-36.621,-38.574,-27.832,0.000
684.000,-37.598,-36.621,-47.852,-30.273,0.000
687.000,-33.691,-41.504,-46.387,-27.832,0.000
691.000,-27.832,-40.039,-42.969,-28.320,0.000
695.000,-27.344,-29.785,-40.039,-41.504,0.000
699.000,-30.762,-22.949,-40.039,-39.551,0.000
703.000,-37.598,-20.508,-37.109,-24.414,0.000
707.000,-44.434,-25.391,-33.203,-28.320,0.000
711.000,-40.527,-33.691,-33.691,-30.273,0.000
715.000,-35.156,-32.715,-33.691,-22.461,0.000
719.000,-30.762,-27.344,-27.832,-16.602,0.000
723.000,-37.109,-25.879,-26.367,-15.137,0.000
727.000,-32.715,-28.809,-34.180,-20.996,0.000
730.000,-27.832,-27.832,-35.156,-8.301,0.000
734.000,-25.391,-23.438,-32.227,9.277,0.000
738.000,-26.367,-26.855,-28.320,13.672,0.000
742.000,-30.762,-27.832,-25.391,8.789,0.000
746.000,-28.320,-23.926,-26.855,1.953,0.000
750.000,-24.414,-26.367,-33.203,5.371,0.000
754.000,-29.785,-23.926,-31.738,13.672,0.000
758.000,-28.809,-23.926,-24.902,15.625,0.000
762.000,-15.625,-30.762,-27.832,20.996,0.000
766.000,-12.207,-26.367,-32.227,26.367,0.000
770.000,-20.020,-24.902,-35.156,27.344,0.000
773.000,-26.855,-27.344,-35.156,22.949,0.000
777.000,-22.461,-28.320,-32.715,29.297,0.000
781.000,-23.438,-32.227,-30.273,31.250,0.000
785.000,-28.809,-30.762,-29.297,12.207,0.000
789.000,-23.438,-28.320,-30.762,14.160,0.000
793.000,-34.668,-31.738,-28.809,14.648,0.000
797.000,-40.039,-28.809,-27.344,6.348,0.000
801.000,-27.344,-27.344,-27.344,-0.977,0.000
805.000,-25.879,-24.902,-26.367,-13.672,0.000
809.000,-14.160,-23.438,-26.855,-25.391,0.000
812.000,-18.066,-27.344,-27.832,-36.621,0.000
816.000,-28.320,-31.738,-29.785,-38.574,0.000
820.000,-28.320,-33.203,-27.832,-43.457,0.000
824.000,-38.574,-32.227,-28.320,-46.875,0.000
828.000,-34.180,-25.879,-29.297,-40.527,0.000
832.000,-11.719,-22.949,-29.785,-32.715,0.000
836.000,-15.625,-28.320,-34.180,-27.344,0.000
840.000,-28.809,-27.344,-40.039,-29.785,0.000
844.000,-28.320,-32.227,-38.574,-39.062,0.000
848.000,-38.574,-32.715,-32.715,-39.551,0.000
852.000,-27.344,-25.391,-29.297,-32.715,0.000
855.000,-19.043,-24.414,-32.715,-28.320,0.000
859.000,-25.879,-28.809,-37.109,-36.621,0.000
863.000,-30.762,-33.203,-37.598,-45.410,0.000
867.000,-32.715,-33.203,-34.180,-33.203,0.000
871.000,-26.367,-37.109,-31.738,-32.227,0.000
875.000,-26.367,-41.992,-30.762,-37.598,0.000
879.000,-30.273,-34.180,-28.320,-31.250,0.000
883.000,-33.203,-25.391,-27.344,-28.809,0.000
887.000,-39.551,-21.973,-26.367,-43.945,0.000
891.000,-44.434,-20.020,-22.461,-53.223,0.000
895.000,-37.598,-19.531,-19.043,-39.062,0.000
898.000,-31.250,-23.438,-20.020,-31.738,0.000
902.000,-34.668,-34.180,-22.949,-41.992,0.000
906.000,-32.227,-33.203,-28.320,-43.945,0.000
910.000,-24.414,-26.855,-32.227,-41.016,0.000
914.000,-23.438,-26.367,-32.715,-40.527,0.000
918.000,-28.320,-26.367,-31.738,-36.133,0.000
922.000,-25.391,-26.855,-33.691,-36.133,0.000
926.000,-14.160,-27.832,-34.668,-32.227,0.000
930.000,-18.555,-29.785,-30.762,-24.414,0.000
934.000,-27.344,-29.785,-34.180,-30.273,0.000
937.000,-20.508,-26.855,-32.715,-29.297,0.000
941.000,-22.949,-28.320,-30.762,-24.902,0.000
945.000,-22.949,-26.367,-34.668,-30.273,0.000
949.000,-25.391,-25.391,-32.715,-33.203,0.000
953.000,-30.273,-27.832,-30.762,-31.250,0.000
957.000,-29.785,-27.832,-33.203,-34.668,0.000
961.000,-41.016,-27.344,-34.668,-39.551,0.000
965.000,-47.363,-26.855,-34.668,-36.621,0.000
969.000,-50.781,-33.203,-36.621,-41.016,0.000
973.000,-51.270,-37.109,-36.133,-46.875,0.000
977.000,-46.387,-30.762,-33.691,-49.316,0.000
980.000,-40.527,-28.320,-28.809,-47.852,0.000
984.000,-37.109,-24.902,-34.180,-46.387,0.000
988.000,-39.062,-22.949,-32.227,-45.410,0.000
992.000,-38.086,-23.438,-26.855,-31.738,0.000
996.000,-35.645,-20.020,-30.762,-25.879,0.000
1000.000,-36.621,-23.438,-28.809,-32.715,0.000
1004.000,-34.180,-22.949,-25.879,-21.973,0.000
1008.000,-38.086,-24.414,-28.809,-10.254,0.000
1012.000,-34.180,-32.227,-29.785,-24.902,0.000
1016.000,-37.109,-27.832,-28.809,-26.855,0.000
1020.000,-53.223,-28.320,-34.180,-20.996,0.000
1023.000,-45.410,-31.250,-38.574,-27.344,0.000
1027.000,-37.109,-27.344,-39.551,-31.250,0.000
1031.000,-23.438,-23.926,-36.133,-25.879,0.000
1035.000,-9.766,-24.902,-37.598,-19.531,0.000
1039.000,-19.043,-26.855,-39.551,-31.738,0.000
1043.000,-29.785,-27.832,-29.785,-28.809,0.000
1047.000,-29.297,-20.996,-27.344,-21.973,0.000
1051.000,-30.273,-23.438,-29.785,-21.973,0.000
1055.000,-33.691,-24.414,-33.203,-22.949,0.000
1059.000,-24.902,-21.484,-33.203,-30.762,0.000
1062.000,-13.184,-22.461,-32.715,-27.344,0.000
1066.000,-25.879,-23.438,-34.668,-31.738,0.000
1070.000,-37.598,-28.320,-33.203,-39.551,0.000
1074.000,-43.457,-29.297,-28.320,-29.785,0.000
1078.000,-54.199,-31.738,-32.227,-27.344,0.000
1082.000,-41.016,-32.715,-35.645,-31.738,0.000
1086.000,-33.691,-29.785,-27.832,-32.715,0.000
1090.000,-36.621,-26.855,-28.320,-30.762,0.000
1094.000,-42.969,-32.227,-29.297,-27.832,0.000
1098.000,-40.039,-34.668,-28.320,-24.414,0.000
1102.000,-38.086,-31.250,-30.273,-22.949,0.000
1105.000,-37.109,-30.273,-33.203,-26.367,0.000
1109.000,-22.949,-24.414,-34.668,-19.531,0.000
1113.000,-29.785,-26.855,-34.668,-24.902,0.000
1117.000,-40.039,-34.180,-35.156,-40.039,0.000
1121.000,-26.855,-38.086,-41.992,-43.945,0.000
1125.000,-24.414,-41.992,-44.922,-38.086,0.000
1129.000,-34.668,-38.574,-40.039,-34.180,0.000
1133.000,-35.645,-33.203,-35.645,-32.227,0.000
1137.000,-34.668,-32.227,-36.133,-26.367,0.000
1141.000,-41.016,-33.203,-37.598,-37.598,0.000
1145.000,-33.203,-34.668,-37.598,-41.992,0.000
1148.000,-24.902,-36.621,-32.715,-33.203,0.000
1152.000,-35.156,-33.691,-30.762,-21.484,0.000
1156.000,-40.039,-37.109,-33.691,-25.879,0.000
1160.000,-40.527,-37.598,-31.738,-27.832,0.000
1164.000,-44.922,-36.133,-36.133,-16.602,0.000
1168.000,-35.156,-36.133,-32.227,-19.043,0.000
1172.000,-29.785,-34.180,-26.855,-20.020,0.000
1176.000,-28.320,-29.785,-29.785,-21.484,0.000
1180.000,-24.414,-22.461,-34.180,-15.625,0.000
1184.000,-22.949,-25.391,-33.691,-7.812,0.000
1187.000,-20.508,-33.691,-36.621,-13.672,0.000
1191.000,-20.020,-32.715,-41.992,-21.484,0.000
1195.000,-8.789,-29.785,-32.227,-18.555,0.000
1199.000,-8.789,-26.855,-28.809,-8.789,0.000
1203.000,-21.484,-23.438,-30.762,-11.719,0.000
1207.000,-21.973,-26.855,-29.297,-11.719,0.000
1211.000,-11.230,-25.879,-30.762,-15.625,0.000
1215.000,-17.090,-23.438,-28.320,-25.391,0.000
1219.000,-26.855,-23.438,-24.414,-26.367,0.000
1223.000,-32.227,-20.996,-28.320,-29.297,0.000
1227.000,-44.434,-21.973,-38.086,-33.203,0.000
1230.000,-48.340,-20.996,-39.551,-32.715,0.000
1234.000,-42.480,-23.926,-34.668,-37.109,0.000
1238.000,-40.039,-31.250,-31.738,-37.598,0.000
1242.000,-41.992,-27.344,-29.297,-34.180,0.000
1246.000,-37.109,-26.855,-28.320,-40.527,0.000
1250.000,-43.945,-35.645,-30.273,-48.340,0.000
1254.000,-48.340,-35.645,-25.879,-40.039,0.000
1258.000,-42.969,-33.203,-21.973,-24.902,0.000
1262.000,-29.297,-28.320,-18.555,-26.367,0.000
1266.000,-20.508,-29.785,-22.949,-26.855,0.000
1270.000,-22.461,-30.273,-26.855,-18.555,0.000
1273.000,-23.926,-23.926,-22.461,-13.672,0.000
1277.000,-31.250,-26.367,-28.809,-11.719,0.000
1281.000,-26.855,-29.297,-33.203,-11.719,0.000
1285.000,-18.555,-29.785,-25.391,-8.789,0.000
1289.000,-14.648,-26.367,-24.902,-3.906,0.000
1293.000,-16.113,-27.832,-28.320,-1.465,0.000
1297.000,-30.762,-31.738,-24.414,-4.883,0.000
1301.000,-33.203,-27.344,-19.043,-2.441,0.000
1305.000,-30.273,-25.391,-20.996,-10.254,0.000
1309.000,-36.621,-27.832,-26.855,-28.320,0.000
1312.000,-39.551,-31.250,-32.227,-31.738,0.000
1316.000,-35.156,-31.738,-34.668,-32.715,0.000
1320.000,-40.039,-30.762,-34.668,-33.203,0.000
1324.000,-47.363,-31.738,-33.203,-39.551,0.000
1328.000,-47.363,-34.668,-28.809,-46.875,0.000
1332.000,-52.734,-34.668,-30.762,-48.828,0.000
1336.000,-52.246,-31.250,-32.227,-50.781,0.000
1340.000,-48.828,-32.227,-30.273,-47.363,0.000
1344.000,-45.898,-32.715,-31.738,-41.016,0.000
1348.000,-33.203,-26.855,-30.762,-24.902,0.000
1352.000,-24.902,-22.461,-30.273,-28.809,0.000
1355.000,-17.578,-21.484,-32.715,-26.367,0.000
1359.000,-12.207,-31.250,-30.273,-12.207,0.000
1363.000,-16.602,-31.250,-30.762,-7.324,0.000
1367.000,-18.066,-21.484,-33.691,-1.953,0.000
1371.000,-4.395,-20.508,-30.762,-11.230,0.000
1375.000,-5.859,-23.438,-31.738,-9.277,0.000
1379.000,-15.137,-26.367,-32.715,-0.488,0.000
1383.000,-18.555,-33.203,-33.203,-1.953,0.000
1387.000,-18.066,-27.832,-29.297,-3.906,0.000
1391.000,-22.461,-24.902,-24.902,-13.672,0.000
1395.000,-23.926,-23.438,-27.344,-14.160,0.000
1398.000,-18.066,-20.996,-28.320,-13.184,0.000
1402.000,-29.297,-31.250,-31.250,-14.648,0.000
1406.000,-38.574,-32.227,-31.250,-19.043,0.000
1410.000,-35.645,-27.344,-31.738,-28.320,0.000
1414.000,-33.203,-20.996,-30.762,-31.738,0.000
1418.000,-46.875,-24.902,-32.227,-37.109,0.000
1422.000,-66.406,-34.668,-37.598,-32.715,0.000
1426.000,-65.918,-31.738,-37.598,-28.320,0.000
1430.000,-62.012,-30.273,-38.086,-41.016,0.000
1434.000,-63.477,-31.738,-39.062,-49.316,0.000
1437.000,-68.359,-36.621,-39.551,-40.527,0.000
1441.000,-64.453,-37.598,-39.062,-39.062,0.000
1445.000,-57.129,-31.250,-34.668,-38.086,0.000
1449.000,-42.480,-29.297,-30.273,-35.645,0.000
1453.000,-39.062,-32.715,-29.785,-30.273,0.000
1457.000,-54.199,-26.855,-30.762,-21.484,0.000
1461.000,-54.199,-23.438,-29.297,-18.066,0.000
1465.000,-44.434,-29.785,-28.809,-14.648,0.000
1469.000,-32.227,-31.250,-34.180,-12.695,0.000
1473.000,-32.227,-20.996,-35.645,-21.973,0.000
1477.000,-27.832,-22.461,-30.762,-29.297,0.000
1480.000,-15.137,-27.832,-29.297,-23.926,0.000
1484.000,-10.742,-25.391,-28.809,-16.602,0.000
1488.000,-26.367,-24.902,-28.320,-15.625,0.000
1492.000,-17.090,-24.902,-26.367,-20.996,0.000
1496.000,-11.230,-24.902,-25.879,-26.367,0.000
1500.000,-27.832,-24.902,-29.785,-26.367,0.000
1504.000,-28.320,-25.879,-28.809,-30.762,0.000
1508.000,-27.832,-22.461,-24.902,-27.832,0.000
1512.000,-22.461,-20.508,-27.344,-26.367,0.000
1516.000,-21.484,-24.414,-33.691,-34.668,0.000
1520.000,-26.855,-23.438,-40.039,-38.086,0.000
1523.000,-22.949,-15.625,-36.621,-43.945,0.000
1527.000,-29.785,-18.555,-34.668,-33.691,0.000
1531.000,-32.227,-24.414,-37.109,-25.391,0.000
1535.000,-50.293,-23.438,-34.180,-20.996,0.000
1539.000,-61.523,-20.020,-32.227,-15.137,0.000
1543.000,-40.527,-18.555,-30.762,-14.160,0.000
1547.000,-25.879,-16.602,-29.785,-4.395,0.000
1551.000,-28.809,-16.602,-31.250,-2.930,0.000
1555.000,-27.832,-18.555,-35.156,-9.277,0.000
1559.000,-27.832,-20.020,-36.621,-2.441,0.000
1562.000,-38.574,-17.578,-38.086,2.930,0.000
1566.000,-36.621,-22.949,-44.434,-3.906,0.000
1570.000,-29.785,-29.297,-46.875,-4.883,0.000
1574.000,-24.902,-27.344,-44.434,-8.301,0.000
1578.000,-25.391,-30.273,-42.969,-22.949,0.000
1582.000,-25.391,-27.344,-41.016,-30.762,0.000
1586.000,-20.508,-23.926,-38.574,-27.832,0.000
1590.000,-17.090,-25.391,-39.062,-29.297,0.000
1594.000,-14.160,-26.367,-40.039,-36.621,0.000
1598.000,-14.160,-26.855,-39.062,-30.762,0.000
1602.000,-12.695,-28.320,-40.527,-31.738,0.000
1605.000,-26.855,-25.391,-39.062,-35.156,0.000
1609.000,-43.945,-22.461,-37.598,-27.344,0.000
1613.000,-35.645,-26.855,-39.062,-31.250,0.000
1617.000,-34.668,-31.738,-36.133,-28.809,0.000
1621.000,-41.016,-35.645,-37.598,-31.250,0.000
1625.000,-31.250,-29.785,-39.551,-47.363,0.000
1629.000,-31.738,-29.297,-33.203,-35.645,0.000
1633.000,-40.527,-39.551,-26.855,-25.879,0.000
1637.000,-49.316,-27.832,-24.902,-27.344,0.000
1641.000,-54.688,-20.020,-25.391,-25.391,0.000
1645.000,-46.875,-20.996,-28.320,-26.367,0.000
1648.000,-36.133,-20.996,-24.902,-16.113,0.000
1652.000,-37.598,-23.438,-20.996,-13.184,0.000
1656.000,-41.016,-23.438,-27.344,-19.043,0.000
1660.000,-35.645,-23.926,-29.785,-20.508,0.000
1664.000,-44.434,-23.438,-29.785,-27.344,0.000
1668.000,-48.828,-21.973,-31.738,-30.273,0.000
1672.000,-30.273,-22.949,-32.227,-27.832,0.000
1676.000,-24.902,-20.508,-26.855,-7.324,0.000
1680.000,-23.926,-17.578,-24.414,-1.953,0.000
1684.000,-27.832,-21.484,-26.367,-16.113,0.000
1687.000,-31.250,-23.438,-28.809,-9.766,0.000
1691.000,-18.555,-20.020,-31.250,-3.418,0.000
1695.000,-19.531,-21.484,-34.180,-14.160,0.000
1699.000,-28.809,-26.855,-37.109,-20.508,0.000
1703.000,-17.578,-26.855,-32.227,-13.672,0.000
1707.000,-22.461,-33.203,-30.273,-7.812,0.000
1711.000,-26.855,-38.574,-32.227,-7.324,0.000
1715.000,-8.301,-32.227,-31.738,-2.930,0.000
1719.000,-13.184,-29.785,-31.738,6.836,0.000
1723.000,-29.297,-33.203,-29.785,2.441,0.000
1727.000,-31.738,-34.668,-31.250,-3.906,0.000
1730.000,-32.227,-36.133,-32.227,-1.465,0.000
1734.000,-27.832,-35.156,-27.832,-1.953,0.000
1738.000,-31.738,-35.156,-29.785,-13.184,0.000
1742.000,-37.109,-33.203,-33.691,-20.996,0.000
1746.000,-25.879,-26.367,-36.133,-20.020,0.000
1750.000,-23.926,-24.414,-36.133,-7.812,0.000
1754.000,-45.410,-24.414,-35.645,0.977,0.000
1758.000,-67.871,-29.297,-34.668,-10.742,0.000
1762.000,-61.035,-34.180,-30.762,-25.391,0.000
1766.000,-43.457,-33.691,-26.367,-20.508,0.000
1770.000,-41.992,-31.738,-28.320,-21.973,0.000
1773.000,-47.852,-30.762,-33.203,-32.227,0.000
1777.000,-43.457,-32.715,-33.691,-32.227,0.000
1781.000,-32.715,-28.809,-31.738,-32.227,0.000
1785.000,-25.391,-23.438,-31.250,-24.902,0.000
1789.000,-34.180,-26.855,-34.180,-21.973,0.000
1793.000,-54.688,-30.762,-33.203,-18.066,0.000
1797.000,-49.805,-28.809,-34.180,-6.348,0.000
1801.000,-34.668,-27.832,-40.527,-13.672,0.000
1805.000,-42.969,-30.273,-40.039,-14.160,0.000
1809.000,-38.574,-26.367,-40.527,-6.836,0.000
1812.000,-22.461,-24.902,-42.480,-1.953,0.000
1816.000,-26.855,-30.762,-40.527,-6.348,0.000
1820.000,-37.109,-28.809,-33.691,-13.672,0.000
1824.000,-33.691,-30.762,-30.762,-21.484,0.000
1828.000,-18.555,-29.297,-31.738,-14.648,0.000
1832.000,-8.301,-22.949,-29.297,-11.230,0.000
1836.000,-10.254,-27.344,-30.273,-13.184,0.000
1840.000,-9.766,-26.855,-28.320,-4.883,0.000
1844.000,-15.137,-26.855,-28.809,-12.207,0.000
1848.000,-9.766,-32.227,-34.668,-26.855,0.000
1852.000,-3.418,-29.785,-33.203,-34.180,0.000
1855.000,-8.789,-29.297,-29.785,-36.133,0.000
1859.000,-13.672,-29.785,-32.715,-27.832,0.000
1863.000,-22.461,-21.973,-33.691,-26.367,0.000
1867.000,-30.762,-21.484,-31.250,-20.020,0.000
1871.000,-37.109,-25.879,-31.738,-21.484,0.000
1875.000,-45.898,-31.250,-43.945,-36.133,0.000
1879.000,-41.992,-41.992,-48.340,-45.410,0.000
1883.000,-29.297,-35.156,-41.504,-43.457,0.000
1887.000,-41.504,-24.902,-38.086,-41.016,0.000
1891.000,-61.523,-29.297,-39.062,-37.109,0.000
1895.000,-59.082,-27.344,-33.203,-30.762,0.000
1898.000,-45.898,-26.367,-30.273,-36.621,0.000
1902.000,-44.922,-31.738,-34.180,-39.062,0.000
1906.000,-60.059,-31.738,-37.109,-34.180,0.000
1910.000,-63.965,-26.367,-36.621,-25.391,0.000
1914.000,-49.805,-31.250,-31.250,-22.461,0.000
1918.000,-43.945,-35.156,-30.762,-26.367,0.000
1922.000,-42.480,-30.273,-33.203,-22.461,0.000
1926.000,-36.621,-29.297,-36.621,-23.926,0.000
1930.000,-34.180,-28.320,-40.039,-32.715,0.000
1934.000,-22.461,-21.484,-33.691,-41.504,0.000
1937.000,-23.438,-25.879,-32.227,-37.598,0.000
1941.000,-27.832,-28.809,-40.527,-28.809,0.000
1945.000,-22.949,-26.367,-39.551,-24.414,0.000
1949.000,-36.621,-26.855,-36.621,-19.531,0.000
1953.000,-40.039,-22.949,-36.133,-25.391,0.000
1957.000,-26.367,-21.973,-34.668,-27.832,0.000
1961.000,-16.113,-21.973,-36.621,-23.926,0.000
1965.000,-8.301,-23.438,-37.109,-34.668,0.000
1969.000,-18.066,-26.367,-35.645,-38.574,0.000
1973.000,-44.922,-29.297,-32.715,-27.344,0.000
1977.000,-42.480,-34.180,-31.738,-22.949,0.000
1980.000,-41.016,-32.715,-30.273,-24.414,0.000
1984.000,-36.133,-26.367,-29.785,-16.113,0.000
1988.000,-29.297,-28.320,-24.414,-8.789,0.000
1992.000,-29.785,-32.227,-18.555,0.977,0.000
1996.000,-26.367,-30.273,-20.508,0.488,0.000
2000.000,-35.645,-28.809,-21.973,-16.602,0.000
2004.000,-33.691,-28.809,-21.973,-28.809,0.000
2008.000,-22.949,-26.855,-24.902,-32.227,0.000
2012.000,-26.367,-26.855,-29.297,-35.156,0.000
2016.000,-31.250,-31.738,-25.391,-26.855,0.000
2020.000,-39.551,-34.668,-19.531,-16.602,0.000
2023.000,-45.410,-36.133,-25.879,-18.555,0.000
2027.000,-37.109,-41.504,-28.809,-15.625,0.000
2031.000,-32.227,-42.480,-26.855,-12.207,0.000
2035.000,-37.598,-39.062,-26.855,-12.207,0.000
2039.000,-35.645,-36.621,-22.949,-11.230,0.000
2043.000,-29.785,-32.227,-24.414,-21.973,0.000
2047.000,-22.461,-25.879,-22.461,-29.785,0.000
2051.000,-21.484,-22.461,-19.531,-17.578,0.000
2055.000,-39.551,-25.879,-23.926,-15.137,0.000
2059.000,-48.340,-27.344,-23.438,-17.578,0.000
2062.000,-35.645,-29.785,-25.391,-24.902,0.000
2066.000,-21.973,-29.785,-30.273,-28.809,0.000
2070.000,-23.926,-30.762,-30.762,-28.320,0.000
2074.000,-29.785,-34.180,-34.180,-33.691,0.000
2078.000,-23.438,-28.809,-36.621,-35.156,0.000
2082.000,-29.297,-26.855,-35.156,-38.086,0.000
2086.000,-21.973,-22.949,-32.227,-33.203,0.000
2090.000,-17.090,-20.508,-32.227,-30.762,0.000
2094.000,-38.574,-29.297,-34.668,-31.738,0.000
2098.000,-39.551,-27.832,-34.668,-26.855,0.000
2102.000,-23.926,-21.973,-35.156,-28.320,0.000
2105.000,-15.625,-26.367,-37.109,-22.949,0.000
2109.000,-16.113,-25.391,-37.109,-20.508,0.000
2113.000,-18.066,-20.020,-34.180,-17.578,0.000
2117.000,-22.461,-24.414,-34.668,-15.625,0.000
2121.000,-24.414,-25.391,-34.668,-16.602,0.000
2125.000,-19.043,-24.902,-30.273,-11.230,0.000
2129.000,-19.043,-27.832,-32.227,-13.672,0.000
2133.000,-21.484,-25.879,-33.691,-15.625,0.000
2137.000,-28.809,-24.902,-30.273,-19.043,0.000
2141.000,-29.785,-26.855,-29.785,-31.250,0.000
2145.000,-22.949,-22.949,-33.203,-30.762,0.000
2148.000,-39.551,-26.855,-35.645,-30.762,0.000
2152.000,-65.430,-32.227,-33.691,-24.902,0.000
2156.000,-62.500,-27.344,-30.762,-20.996,0.000
2160.000,-46.387,-28.809,-30.273,-29.785,0.000
2164.000,-35.645,-26.367,-31.738,-23.926,0.000
2168.000,-28.320,-28.320,-32.715,-25.879,0.000
2172.000,-33.691,-31.738,-31.250,-28.809,0.000
2176.000,-31.738,-26.367,-28.809,-18.555,0.000
2180.000,-20.508,-24.414,-27.832,-16.602,0.000
2184.000,-22.461,-21.973,-28.809,-21.484,0.000
2187.000,-22.949,-19.043,-31.738,-7.812,0.000
2191.000,-13.672,-14.160,-26.367,-8.789,0.000
2195.000,-15.137,-18.066,-28.809,-23.438,0.000
2199.000,-17.578,-26.855,-33.691,-18.066,0.000
2203.000,-9.277,-24.902,-27.344,-13.672,0.000
2207.000,-14.160,-20.508,-24.414,-9.277,0.000
2211.000,-15.625,-18.066,-23.438,-10.742,0.000
2215.000,-0.488,-18.555,-20.020,-11.230,0.000
2219.000,-7.324,-22.949,-21.484,-8.789,0.000
2223.000,-25.391,-22.949,-26.855,-4.883,0.000
2227.000,-24.414,-29.297,-28.809,-10.254,0.000
2230.000,-24.902,-29.297,-29.297,-9.766,0.000
2234.000,-38.574,-24.414,-32.227,0.000,0.000
2238.000,-54.199,-27.832,-34.180,-7.324,0.000
2242.000,-47.363,-33.691,-33.203,-16.113,0.000
2246.000,-36.621,-31.738,-33.691,-22.949,0.000
2250.000,-46.875,-29.785,-31.250,-35.645,0.000
2254.000,-53.223,-30.273,-29.785,-27.832,0.000
2258.000,-56.641,-29.297,-28.320,-18.555,0.000
2262.000,-60.547,-32.227,-28.809,-31.250,0.000
2266.000,-55.664,-33.203,-31.738,-25.391,0.000
2270.000,-45.410,-28.320,-28.809,-14.160,0.000
2273.000,-38.086,-28.809,-29.785,-21.484,0.000
2277.000,-33.203,-28.809,-27.832,-17.578,0.000
2281.000,-26.367,-26.367,-28.809,-8.301,0.000
2285.000,-37.109,-28.809,-35.156,-7.324,0.000
2289.000,-40.527,-29.297,-34.180,-14.648,0.000
2293.000,-39.062,-30.762,-32.715,-18.555,0.000
2297.000,-49.316,-32.715,-34.668,-8.789,0.000
2301.000,-41.016,-32.227,-35.156,-9.277,0.000
2305.000,-26.855,-27.832,-34.180,-11.230,0.000
2309.000,-11.719,-23.438,-28.809,-7.812,0.000
2312.000,5.371,-20.996,-30.273,-13.672,0.000
2316.000,8.789,-19.531,-32.227,-13.184,0.000
2320.000,-4.883,-24.414,-30.273,-8.789,0.000
2324.000,-21.484,-27.344,-28.809,-7.812,0.000
2328.000,-23.438,-26.367,-24.902,-6.348,0.000
2332.000,-16.113,-26.367,-26.367,-17.090,0.000
2336.000,-16.113,-23.438,-28.809,-12.695,0.000
2340.000,-28.809,-22.949,-30.273,-4.395,0.000
2344.000,-37.598,-23.926,-29.297,-15.137,0.000
2348.000,-34.668,-23.926,-24.414,-21.973,0.000
2352.000,-31.738,-25.879,-27.832,-31.250,0.000
2355.000,-34.668,-23.438,-29.785,-22.949,0.000
2359.000,-27.832,-20.996,-28.320,-16.113,0.000
2363.000,-25.879,-28.320,-30.273,-32.715,0.000
2367.000,-40.527,-29.785,-31.250,-29.785,0.000
2371.000,-49.805,-21.973,-30.762,-15.625,0.000
2375.000,-54.688,-27.344,-29.297,-15.625,0.000
2379.000,-46.387,-32.715,-25.391,-16.602,0.000
2383.000,-33.691,-33.203,-25.879,-10.742,0.000
2387.000,-42.480,-33.691,-28.809,-14.648,0.000
2391.000,-44.434,-28.809,-30.762,-26.855,0.000
2395.000,-30.762,-28.320,-35.156,-27.344,0.000
2398.000,-24.902,-33.691,-37.598,-18.555,0.000
2402.000,-38.574,-39.062,-39.551,-8.789,0.000
2406.000,-48.828,-37.109,-37.109,-11.719,0.000
2410.000,-43.457,-33.203,-36.621,-23.438,0.000
2414.000,-37.109,-35.156,-34.180,-18.555,0.000
2418.000,-40.527,-42.969,-34.668,-14.648,0.000
2422.000,-41.992,-42.480,-35.156,-23.926,0.000
2426.000,-30.762,-35.645,-33.691,-20.508,0.000
2430.000,-25.391,-37.598,-39.062,-24.414,0.000
2434.000,-22.949,-37.109,-38.574,-29.785,0.000
2437.000,-31.738,-35.156,-31.738,-20.508,0.000
2441.000,-49.316,-37.109,-38.574,-20.996,0.000
2445.000,-39.062,-31.738,-41.016,-30.762,0.000
2449.000,-27.832,-28.320,-35.645,-29.297,0.000
2453.000,-19.043,-27.344,-39.551,-28.320,0.000
2457.000,-18.066,-19.043,-38.086,-27.344,0.000
2461.000,-24.414,-20.020,-35.156,-22.949,0.000
2465.000,-21.484,-25.391,-36.621,-25.879,0.000
2469.000,-32.715,-25.879,-34.668,-20.020,0.000
2473.000,-39.551,-27.832,-34.180,-19.043,0.000
2477.000,-30.762,-31.250,-35.156,-20.508,0.000
2480.000,-20.996,-31.250,-36.133,-15.625,0.000
2484.000,-15.625,-34.180,-31.738,-14.648,0.000
2488.000,-6.836,-32.227,-29.297,-20.996,0.000
2492.000,-27.344,-29.297,-35.156,-21.484,0.000
2496.000,-41.992,-27.832,-33.203,-22.949,0.000
2500.000,-20.996,-29.297,-32.227,-11.230,0.000
2504.000,-23.438,-30.273,-32.715,-1.953,0.000
2508.000,-29.785,-23.926,-30.273,-10.254,0.000
2512.000,-34.668,-28.809,-34.668,-16.602,0.000
2516.000,-36.133,-35.645,-31.738,-14.160,0.000
2520.000,-33.691,-33.203,-24.414,-10.254,0.000
2523.000,-41.016,-30.273,-23.926,-8.789,0.000
2527.000,-29.297,-27.344,-23.926,-6.348,0.000
2531.000,-13.672,-23.438,-22.461,-16.113,0.000
2535.000,-21.973,-20.996,-20.508,-15.137,0.000
2539.000,-41.016,-22.949,-24.414,-13.184,0.000
2543.000,-37.598,-24.902,-28.809,-21.484,0.000
2547.000,-24.414,-27.832,-27.832,-17.578,0.000
2551.000,-20.508,-34.668,-25.391,-20.996,0.000
2555.000,-32.715,-31.738,-29.785,-20.996,0.000
2559.000,-39.062,-27.832,-32.227,-16.602,0.000
2562.000,-29.785,-27.832,-28.809,-16.113,0.000
2566.000,-25.879,-30.762,-30.762,-23.438,0.000
2570.000,-28.809,-32.227,-30.762,-27.344,0.000
2574.000,-27.344,-31.250,-30.762,-34.668,0.000
2578.000,-32.227,-34.668,-32.715,-41.992,0.000
2582.000,-47.852,-33.203,-35.645,-35.645,0.000
2586.000,-56.641,-31.738,-33.203,-28.809,0.000
2590.000,-49.805,-28.809,-28.809,-20.508,0.000
2594.000,-38.086,-28.320,-30.273,-23.438,0.000
2598.000,-28.320,-32.227,-35.156,-28.320,0.000
2602.000,-24.414,-34.180,-32.227,-25.879,0.000
2605.000,-36.133,-37.109,-32.715,-24.414,0.000
2609.000,-42.480,-37.109,-34.668,-20.996,0.000
2613.000,-34.180,-33.691,-33.691,-21.973,0.000
2617.000,-30.273,-30.273,-33.691,-20.508,0.000
2621.000,-30.762,-26.367,-36.133,-21.484,0.000
2625.000,-41.992,-28.320,-38.086,-30.273,0.000
2629.000,-47.852,-36.133,-33.691,-31.250,0.000
2633.000,-37.109,-33.203,-35.645,-28.809,0.000
2637.000,-33.203,-32.227,-39.062,-35.156,0.000
2641.000,-32.227,-35.156,-40.039,-42.969,0.000
2645.000,-24.414,-29.785,-38.574,-46.875,0.000
2648.000,-19.531,-25.879,-40.527,-44.922,0.000
2652.000,-24.414,-25.391,-41.016,-32.227,0.000
2656.000,-32.227,-20.996,-35.645,-30.273,0.000
2660.000,-29.297,-14.648,-32.715,-24.414,0.000
2664.000,-13.672,-20.508,-34.180,-22.949,0.000
2668.000,-10.254,-21.973,-37.109,-23.438,0.000
2672.000,-20.508,-20.508,-38.574,-20.020,0.000
2676.000,-25.391,-29.297,-35.645,-19.043,0.000
2680.000,-21.973,-24.414,-28.809,-5.371,0.000
2684.000,-15.137,-18.066,-32.227,-5.371,0.000
2687.000,-12.695,-14.160,-30.762,-0.977,0.000
2691.000,-17.090,-11.230,-24.902,-1.465,0.000
2695.000,-22.949,-20.996,-32.227,-16.602,0.000
2699.000,-33.203,-28.320,-37.109,-22.949,0.000
2703.000,-52.246,-26.367,-33.203,-16.113,0.000
2707.000,-52.246,-21.484,-31.250,3.418,0.000
2711.000,-44.922,-20.020,-35.156,1.465,0.000
2715.000,-35.156,-25.879,-37.109,-6.836,0.000
2719.000,-30.762,-28.320,-36.133,-4.883,0.000
2723.000,-31.250,-27.344,-33.691,-8.301,0.000
2727.000,-22.949,-27.344,-35.645,-16.113,0.000
2730.000,-17.090,-25.879,-37.109,-22.461,0.000
2734.000,-22.461,-20.996,-34.180,-19.043,0.000
2738.000,-29.297,-22.461,-40.527,-20.020,0.000
2742.000,-32.227,-25.879,-39.062,-17.578,0.000
2746.000,-19.531,-27.344,-34.180,-19.043,0.000
2750.000,-14.648,-30.762,-38.574,-23.926,0.000
2754.000,-19.531,-23.926,-37.109,-27.344,0.000
2758.000,-21.484,-20.996,-30.273,-25.879,0.000
2762.000,-25.391,-25.391,-31.250,-18.066,0.000
2766.000,-20.020,-23.926,-33.203,-15.137,0.000
2770.000,-28.809,-24.902,-30.273,-12.695,0.000
2773.000,-38.574,-22.461,-24.902,-8.301,0.000
2777.000,-33.203,-22.461,-27.344,-21.484,0.000
2781.000,-26.367,-29.297,-26.855,-35.156,0.000
2785.000,-32.227,-26.367,-27.832,-31.738,0.000
2789.000,-48.828,-20.508,-31.250,-31.738,0.000
2793.000,-53.223,-25.391,-27.344,-32.227,0.000
2797.000,-42.480,-27.344,-24.902,-29.785,0.000
2801.000,-41.504,-23.438,-20.996,-21.973,0.000
2805.000,-53.223,-23.438,-22.461,-17.090,0.000
2809.000,-52.734,-22.461,-21.973,-19.531,0.000
2812.000,-35.645,-28.809,-16.602,-29.785,0.000
2816.000,-21.973,-30.762,-15.137,-25.879,0.000
2820.000,-23.926,-29.297,-19.043,-16.602,0.000
2824.000,-41.504,-32.227,-23.926,-18.555,0.000
2828.000,-46.387,-25.879,-18.555,-14.160,0.000
2832.000,-32.227,-24.414,-14.648,-11.719,0.000
2836.000,-34.668,-28.809,-17.090,-16.113,0.000
2840.000,-30.762,-23.438,-24.414,-19.043,0.000
2844.000,-14.160,-17.090,-22.949,-19.531,0.000
2848.000,0.977,-16.602,-19.531,-8.789,0.000
2852.000,-11.719,-19.043,-25.879,-11.230,0.000
2855.000,-32.715,-23.926,-24.414,-19.531,0.000
2859.000,-29.297,-27.344,-23.438,-18.066,0.000
2863.000,-26.367,-31.738,-28.809,-17.090,0.000
2867.000,-30.762,-30.762,-31.250,-21.484,0.000
2871.000,-33.691,-28.320,-33.691,-20.996,0.000
2875.000,-32.227,-29.785,-36.621,-26.367,0.000
2879.000,-32.227,-29.297,-41.504,-35.645,0.000
2883.000,-32.227,-31.250,-47.852,-41.016,0.000
2887.000,-41.504,-36.133,-45.898,-50.293,0.000
2891.000,-53.223,-32.715,-43.945,-50.781,0.000
2895.000,-48.340,-29.785,-47.852,-47.852,0.000
2898.000,-53.223,-37.109,-46.875,-45.410,0.000
2902.000,-62.012,-34.180,-45.410,-41.504,0.000
2906.000,-56.152,-26.367,-43.945,-41.992,0.000
2910.000,-49.805,-24.414,-43.457,-45.898,0.000
2914.000,-39.551,-26.855,-48.340,-49.805,0.000
2918.000,-47.363,-30.273,-48.340,-32.715,0.000
2922.000,-51.270,-28.809,-45.410,-23.438,0.000
2926.000,-48.828,-26.367,-44.434,-28.320,0.000
2930.000,-51.758,-31.250,-40.039,-24.414,0.000
2934.000,-44.434,-38.574,-38.574,-22.461,0.000
2937.000,-44.922,-39.551,-38.574,-13.672,0.000
2941.000,-49.805,-38.086,-36.621,-18.555,0.000
2945.000,-33.691,-38.086,-37.598,-32.227,0.000
2949.000,-27.344,-35.645,-41.016,-25.391,0.000
2953.000,-45.898,-34.180,-40.039,-23.926,0.000
2957.000,-51.270,-34.668,-37.109,-25.391,0.000
2961.000,-37.598,-35.156,-36.621,-15.137,0.000
2965.000,-26.367,-38.574,-41.016,-13.672,0.000
2969.000,-26.367,-38.574,-42.969,-18.555,0.000
2973.000,-38.086,-35.156,-36.133,-17.090,0.000
2977.000,-43.945,-32.227,-31.250,-22.949,0.000
2980.000,-37.109,-31.738,-33.691,-27.832,0.000
2984.000,-26.367,-32.227,-32.715,-21.973,0.000
2988.000,-37.598,-34.180,-35.156,-29.785,0.000
2992.000,-41.504,-38.574,-35.645,-29.785,0.000
2996.000,-25.391,-40.039,-33.203,-19.043,0.000
3000.000,-26.855,-33.691,-30.762,-33.691,0.000
3004.000,-29.785,-28.809,-26.855,-42.480,0.000
3008.000,-34.668,-27.832,-27.344,-30.273,0.000
3012.000,-36.621,-25.879,-27.832,-20.996,0.000
3016.000,-23.438,-22.949,-30.273,-15.625,0.000
3020.000,-26.855,-25.879,-30.762,-11.719,0.000
3023.000,-25.391,-22.949,-29.297,-11.230,0.000
3027.000,-5.371,-15.625,-30.273,-1.953,0.000
3031.000,6.348,-20.996,-35.156,4.395,0.000
3035.000,-11.719,-30.273,-36.133,-0.488,0.000
3039.000,-35.156,-31.250,-33.203,-5.859,0.000
3043.000,-28.320,-25.879,-33.691,-7.812,0.000
3047.000,-18.555,-26.855,-31.738,-9.766,0.000
3051.000,-18.555,-31.738,-33.691,-23.926,0.000
3055.000,-22.461,-31.250,-34.668,-25.879,0.000
3059.000,-27.344,-29.297,-35.156,-29.785,0.000
3062.000,-28.320,-28.320,-37.598,-41.992,0.000
3066.000,-21.973,-27.832,-34.180,-42.969,0.000
3070.000,-23.438,-26.855,-26.367,-30.273,0.000
3074.000,-33.691,-33.203,-29.297,-22.949,0.000
3078.000,-45.410,-38.086,-32.715,-19.531,0.000
3082.000,-51.758,-34.180,-22.461,-10.742,0.000
3086.000,-47.363,-31.738,-19.043,-21.973,0.000
3090.000,-38.086,-29.297,-23.438,-29.785,0.000
3094.000,-24.902,-31.250,-22.461,-22.949,0.000
3098.000,-20.996,-27.832,-23.438,-20.996,0.000
3102.000,-34.668,-27.832,-25.879,-13.184,0.000
3105.000,-45.898,-37.109,-23.926,-15.137,0.000
3109.000,-38.086,-32.227,-25.879,-22.949,0.000
3113.000,-27.344,-24.414,-21.973,-14.648,0.000
3117.000,-20.996,-29.785,-15.137,-7.324,0.000
3121.000,-15.625,-28.320,-19.043,-14.648,0.000
3125.000,-34.180,-27.832,-22.461,-24.902,0.000
3129.000,-31.250,-35.645,-22.949,-22.461,0.000
3133.000,-15.625,-34.668,-27.344,-37.598,0.000
3137.000,-31.738,-35.645,-30.762,-43.945,0.000
3141.000,-38.574,-39.551,-29.785,-37.598,0.000
3145.000,-27.344,-35.645,-34.180,-29.297,0.000
3148.000,-29.297,-31.738,-33.691,-23.926,0.000
3152.000,-37.109,-28.320,-29.785,-26.367,0.000
3156.000,-35.156,-23.926,-29.297,-24.902,0.000
3160.000,-33.203,-32.715,-29.785,-38.086,0.000
3164.000,-37.109,-38.574,-32.227,-55.176,0.000
3168.000,-43.457,-40.527,-31.250,-55.176,0.000
3172.000,-57.617,-41.992,-31.250,-44.434,0.000
3176.000,-57.129,-39.062,-29.785,-49.805,0.000
3180.000,-51.270,-36.621,-30.762,-51.758,0.000
3184.000,-48.828,-37.109,-38.086,-45.898,0.000
3187.000,-46.387,-40.039,-35.156,-47.363,0.000
3191.000,-56.641,-38.574,-37.109,-51.758,0.000
3195.000,-54.688,-36.133,-41.016,-53.223,0.000
3199.000,-37.109,-34.180,-36.133,-44.434,0.000
3203.000,-31.250,-33.203,-39.551,-43.945,0.000
3207.000,-36.133,-34.180,-43.457,-51.270,0.000
3211.000,-37.109,-32.227,-41.992,-48.340,0.000
3215.000,-41.504,-32.227,-40.039,-35.645,0.000
3219.000,-43.457,-29.785,-40.039,-33.203,0.000
3223.000,-30.762,-28.320,-36.621,-28.809,0.000
3227.000,-26.855,-28.809,-33.203,-15.625,0.000
3230.000,-32.715,-30.762,-35.156,-10.742,0.000
3234.000,-30.762,-35.156,-30.762,-5.371,0.000
3238.000,-31.738,-35.645,-29.297,-15.625,0.000
3242.000,-38.574,-36.621,-34.668,-24.902,0.000
3246.000,-36.621,-36.621,-30.762,-30.273,0.000
3250.000,-31.738,-24.902,-28.809,-29.785,0.000
3254.000,-30.762,-17.578,-29.785,-28.809,0.000
3258.000,-26.855,-20.020,-25.879,-30.273,0.000
3262.000,-19.043,-19.531,-28.320,-27.344,0.000
3266.000,-12.695,-19.531,-29.297,-19.531,0.000
3270.000,-38.086,-22.461,-24.414,-20.020,0.000
3273.000,-52.734,-20.508,-21.484,-28.320,0.000
3277.000,-38.086,-13.672,-21.973,-19.043,0.000
3281.000,-28.809,-18.555,-23.438,-14.160,0.000
3285.000,-29.297,-21.973,-20.996,-9.766,0.000
3289.000,-39.062,-23.926,-21.973,-21.484,0.000
3293.000,-48.828,-28.809,-21.973,-33.203,0.000
3297.000,-35.156,-28.809,-19.043,-29.297,0.000
3301.000,-26.367,-22.949,-17.578,-29.297,0.000
3305.000,-47.363,-24.902,-20.508,-26.855,0.000
3309.000,-56.152,-29.297,-29.297,-25.879,0.000
3312.000,-44.922,-30.273,-28.809,-27.832,0.000
3316.000,-30.273,-35.645,-26.367,-33.691,0.000
3320.000,-26.855,-33.691,-26.367,-27.832,0.000
3324.000,-24.902,-32.227,-26.367,-21.973,0.000
3328.000,-39.062,-34.180,-29.785,-13.672,0.000
3332.000,-43.457,-27.344,-28.809,-7.324,0.000
3336.000,-23.926,-23.926,-22.949,-12.695,0.000
3340.000,-35.156,-28.320,-23.926,-18.555,0.000
3344.000,-45.410,-27.344,-27.832,-18.066,0.000
3348.000,-27.344,-30.273,-26.855,-10.742,0.000
3352.000,-29.785,-28.320,-28.320,-5.371,0.000
3355.000,-33.691,-20.996,-29.785,-9.766,0.000
3359.000,-34.180,-24.902,-29.297,-9.766,0.000
3363.000,-33.203,-27.344,-29.785,-14.648,0.000
3367.000,-24.414,-29.785,-32.227,-24.414,0.000
3371.000,-29.785,-40.527,-41.504,-26.367,0.000
