timestamp,TP9,AF7,AF8,TP10,Right AUX
0.000,-42.969,-26.367,-34.668,-26.855,0.000
4.000,-37.109,-24.414,-35.645,-24.414,0.000
8.000,-26.367,-21.484,-32.715,-20.508,0.000
12.000,-25.879,-20.508,-33.691,-25.391,0.000
16.000,-26.855,-26.367,-39.551,-27.832,0.000
20.000,-25.391,-25.879,-36.133,-22.949,0.000
23.000,-26.855,-26.367,-36.621,-23.438,0.000
27.000,-34.180,-31.250,-44.922,-23.926,0.000
31.000,-26.855,-29.785,-35.645,-24.902,0.000
35.000,-25.879,-29.785,-28.809,-15.137,0.000
39.000,-39.551,-33.203,-27.832,-3.418,0.000
43.000,-40.039,-28.809,-24.414,-7.324,0.000
47.000,-40.039,-22.949,-27.344,-15.625,0.000
51.000,-34.180,-25.879,-29.297,-6.348,0.000
55.000,-28.320,-28.809,-21.973,-12.207,0.000
59.000,-35.156,-36.133,-21.973,-26.367,0.000
62.000,-50.781,-36.621,-29.785,-26.367,0.000
66.000,-67.871,-29.297,-34.668,-27.832,0.000
70.000,-62.500,-30.273,-37.598,-34.180,0.000
74.000,-54.199,-34.180,-34.180,-32.227,0.000
78.000,-68.848,-36.621,-37.598,-43.457,0.000
82.000,-65.918,-34.668,-37.598,-54.199,0.000
86.000,-60.059,-33.691,-32.227,-32.715,0.000
90.000,-70.312,-34.668,-34.180,-30.273,0.000
94.000,-67.871,-34.180,-37.598,-45.898,0.000
98.000,-60.547,-28.809,-35.156,-52.246,0.000
102.000,-62.500,-25.879,-34.668,-64.453,0.000
105.000,-69.336,-25.879,-35.156,-62.500,0.000
109.000,-54.199,-22.461,-36.133,-51.758,0.000
113.000,-41.504,-30.762,-38.574,-40.527,0.000
117.000,-55.176,-33.203,-40.527,-29.297,0.000
121.000,-52.246,-25.879,-45.898,-32.227,0.000
125.000,-41.504,-25.391,-46.875,-28.809,0.000
129.000,-45.410,-27.832,-45.898,-29.785,0.000
133.000,-38.574,-30.762,-44.434,-41.016,0.000
137.000,-32.227,-32.227,-42.969,-42.480,0.000
141.000,-39.551,-31.250,-41.992,-40.039,0.000
145.000,-51.270,-34.180,-43.945,-41.016,0.000
148.000,-52.734,-29.297,-47.363,-48.340,0.000
152.000,-44.922,-24.414,-41.504,-49.316,0.000
156.000,-38.574,-25.879,-38.086,-43.945,0.000
160.000,-38.574,-28.320,-38.086,-35.156,0.000
164.000,-39.551,-22.949,-39.062,-31.738,0.000
168.000,-34.668,-22.949,-37.109,-35.645,0.000
172.000,-40.527,-25.879,-36.133,-27.344,0.000
176.000,-42.480,-28.809,-38.086,-27.344,0.000
180.000,-41.992,-30.273,-35.156,-35.645,0.000
184.000,-36.621,-24.902,-34.180,-26.855,0.000
187.000,-33.203,-24.414,-33.203,-19.043,0.000
191.000,-40.527,-25.879,-29.297,-18.555,0.000
195.000,-34.668,-27.344,-29.297,-22.461,0.000
199.000,-31.738,-30.273,-29.785,-26.855,0.000
203.000,-35.156,-27.832,-29.297,-13.672,0.000
207.000,-24.902,-24.902,-29.785,-7.812,0.000
211.000,-23.438,-24.414,-26.855,-10.254,0.000
215.000,-31.250,-26.855,-21.973,-6.348,0.000
219.000,-26.855,-26.855,-20.020,-7.324,0.000
223.000,-34.180,-21.973,-21.973,-5.859,0.000
227.000,-41.992,-26.855,-24.414,-12.695,0.000
230.000,-30.273,-29.785,-23.926,-17.090,0.000
234.000,-32.227,-25.879,-19.531,-16.602,0.000
238.000,-33.203,-26.367,-26.367,-12.207,0.000
242.000,-20.996,-23.926,-33.691,-19.531,0.000
246.000,-33.691,-24.902,-31.250,-38.086,0.000
250.000,-50.293,-28.320,-30.762,-27.344,0.000
254.000,-44.922,-29.785,-32.715,-15.625,0.000
258.000,-28.809,-27.344,-32.715,-31.250,0.000
262.000,-31.250,-26.367,-30.762,-41.992,0.000
266.000,-51.758,-26.367,-29.297,-30.273,0.000
270.000,-56.641,-23.926,-29.297,-17.578,0.000
273.000,-51.270,-29.785,-28.809,-23.926,0.000
277.000,-37.598,-30.273,-26.367,-31.250,0.000
281.000,-36.621,-25.391,-21.973,-24.902,0.000
285.000,-39.551,-28.320,-29.785,-15.625,0.000
289.000,-26.855,-26.367,-33.691,-16.113,0.000
293.000,-27.344,-22.461,-28.809,-24.902,0.000
297.000,-32.715,-21.973,-28.809,-18.066,0.000
301.000,-33.203,-20.508,-25.879,-6.836,0.000
305.000,-35.645,-18.066,-26.855,-15.625,0.000
309.000,-33.203,-22.949,-32.227,-18.066,0.000
312.000,-32.227,-24.902,-28.320,-12.207,0.000
316.000,-37.109,-25.879,-30.273,-15.625,0.000
320.000,-44.922,-29.785,-34.180,-34.668,0.000
324.000,-41.504,-30.273,-35.156,-50.781,0.000
328.000,-37.598,-27.832,-34.668,-45.410,0.000
332.000,-34.180,-26.367,-33.203,-48.340,0.000
336.000,-49.805,-30.762,-33.691,-50.293,0.000
340.000,-52.734,-29.785,-29.297,-46.875,0.000
344.000,-40.527,-26.367,-24.414,-53.223,0.000
348.000,-56.152,-30.273,-26.855,-69.336,0.000
352.000,-56.641,-37.598,-32.227,-73.242,0.000
355.000,-55.176,-38.086,-27.832,-51.758,0.000
359.000,-59.082,-36.133,-26.367,-46.875,0.000
363.000,-51.758,-34.668,-30.273,-49.805,0.000
367.000,-52.734,-33.203,-29.785,-37.598,0.000
371.000,-61.523,-31.738,-28.809,-14.648,0.000
375.000,-47.852,-37.598,-30.762,-19.531,0.000
379.000,-45.410,-42.969,-26.367,-26.367,0.000
383.000,-55.664,-38.574,-23.926,-16.602,0.000
387.000,-41.992,-36.133,-25.391,-12.695,0.000
391.000,-31.738,-36.621,-28.320,-13.672,0.000
395.000,-41.016,-31.250,-33.691,-15.625,0.000
398.000,-46.875,-23.438,-29.785,-20.508,0.000
402.000,-39.551,-28.809,-30.273,-23.926,0.000
406.000,-32.227,-32.227,-33.203,-29.297,0.000
410.000,-29.297,-24.414,-28.809,-29.297,0.000
414.000,-26.855,-21.484,-33.203,-18.066,0.000
418.000,-27.832,-21.484,-32.227,-12.207,0.000
422.000,-39.062,-22.461,-33.203,-16.602,0.000
426.000,-44.434,-32.715,-35.645,-26.367,0.000
430.000,-40.039,-34.668,-31.250,-32.227,0.000
434.000,-39.551,-28.809,-28.809,-31.250,0.000
437.000,-38.574,-29.297,-29.785,-28.320,0.000
441.000,-35.156,-27.344,-29.785,-30.273,0.000
445.000,-35.156,-24.902,-30.273,-36.133,0.000
449.000,-40.039,-28.320,-35.645,-35.645,0.000
453.000,-32.227,-25.879,-38.086,-30.273,0.000
457.000,-20.996,-26.367,-38.574,-22.949,0.000
461.000,-23.926,-30.762,-40.039,-22.461,0.000
465.000,-37.109,-29.297,-45.898,-27.832,0.000
469.000,-39.062,-30.762,-44.922,-25.879,0.000
473.000,-35.645,-32.227,-41.992,-20.996,0.000
477.000,-45.410,-32.715,-37.109,-18.555,0.000
480.000,-41.016,-35.156,-30.762,-27.344,0.000
484.000,-35.156,-34.668,-27.344,-32.715,0.000
488.000,-31.738,-30.762,-33.203,-30.762,0.000
492.000,-22.461,-26.855,-35.645,-23.438,0.000
496.000,-24.902,-29.785,-33.691,-24.902,0.000
500.000,-34.180,-32.227,-32.227,-29.785,0.000
504.000,-36.133,-28.809,-30.273,-31.738,0.000
508.000,-46.875,-38.086,-35.645,-41.016,0.000
512.000,-57.617,-35.156,-33.691,-40.527,0.000
516.000,-50.781,-29.297,-27.344,-36.133,0.000
520.000,-44.434,-33.691,-32.715,-42.480,0.000
523.000,-41.504,-28.809,-33.203,-29.785,0.000
527.000,-49.316,-28.320,-25.879,-22.461,0.000
531.000,-60.059,-34.668,-24.902,-27.832,0.000
535.000,-55.664,-39.551,-28.320,-23.438,0.000
539.000,-52.734,-42.480,-32.227,-19.043,0.000
543.000,-43.457,-37.598,-34.668,-12.695,0.000
547.000,-30.273,-29.785,-34.180,-21.484,0.000
551.000,-27.832,-25.879,-33.203,-20.020,0.000
555.000,-25.879,-22.461,-36.133,-22.949,0.000
559.000,-33.691,-22.461,-33.691,-21.973,0.000
562.000,-36.133,-21.973,-33.203,-13.184,0.000
566.000,-28.809,-23.926,-35.645,-22.461,0.000
570.000,-32.227,-29.785,-40.527,-29.297,0.000
574.000,-27.832,-25.879,-43.457,-27.344,0.000
578.000,-26.855,-22.461,-42.969,-34.668,0.000
582.000,-21.973,-23.438,-36.133,-36.133,0.000
586.000,-16.602,-19.043,-35.645,-35.645,0.000
590.000,-18.555,-16.113,-39.062,-33.691,0.000
594.000,-18.555,-18.066,-39.062,-24.414,0.000
598.000,-13.184,-20.996,-40.527,-35.156,0.000
602.000,-14.648,-26.367,-40.527,-44.922,0.000
605.000,-56.152,-35.156,-41.992,-36.621,0.000
609.000,-74.219,-34.180,-41.504,-29.785,0.000
613.000,-64.453,-35.645,-40.527,-24.414,0.000
617.000,-51.758,-34.180,-37.598,-28.320,0.000
621.000,-43.945,-30.762,-33.203,-29.297,0.000
625.000,-40.039,-35.645,-34.180,-23.926,0.000
629.000,-26.367,-34.180,-38.086,-13.672,0.000
633.000,-20.508,-27.832,-37.109,-13.672,0.000
637.000,-21.973,-24.902,-33.691,-8.789,0.000
641.000,-22.949,-26.855,-35.156,0.977,0.000
645.000,-23.438,-33.203,-38.574,-6.348,0.000
648.000,-17.090,-32.227,-36.621,-13.184,0.000
652.000,-22.949,-31.250,-37.109,-26.367,0.000
656.000,-27.832,-29.785,-37.109,-24.414,0.000
660.000,-21.484,-30.273,-33.691,-18.555,0.000
664.000,-29.785,-35.645,-34.180,-28.320,0.000
668.000,-32.715,-33.203,-38.086,-38.574,0.000
672.000,-40.527,-27.832,-38.574,-41.016,0.000
676.000,-42.969,-26.367,-34.180,-43.945,0.000
680.000,-37.598,-23.926,-33.203,-46.875,0.000
684.000,-38.086,-24.902,-33.691,-45.410,0.000
687.000,-46.875,-28.320,-35.156,-41.504,0.000
691.000,-49.805,-26.367,-35.645,-33.203,0.000
695.000,-42.480,-23.438,-33.203,-32.715,0.000
699.000,-57.617,-29.785,-36.133,-34.180,0.000
703.000,-64.941,-36.133,-38.574,-25.391,0.000
707.000,-62.012,-34.668,-38.574,-20.508,0.000
711.000,-44.922,-34.668,-39.551,-20.508,0.000
715.000,-36.621,-32.715,-36.133,-24.414,0.000
719.000,-40.527,-21.484,-29.297,-15.137,0.000
723.000,-25.391,-15.625,-27.344,-5.371,0.000
727.000,-14.648,-16.602,-28.809,-4.395,0.000
730.000,-23.926,-16.602,-30.273,-11.230,0.000
734.000,-37.598,-28.320,-30.762,-21.484,0.000
738.000,-48.340,-30.273,-31.250,-28.320,0.000
742.000,-37.598,-15.625,-30.762,-17.090,0.000
746.000,-40.527,-21.484,-29.785,-19.531,0.000
750.000,-52.246,-25.879,-32.227,-42.480,0.000
754.000,-46.387,-24.414,-32.715,-46.875,0.000
758.000,-44.922,-24.902,-35.156,-41.992,0.000
762.000,-50.781,-24.414,-40.527,-43.457,0.000
766.000,-51.270,-24.902,-42.969,-42.969,0.000
770.000,-57.129,-29.297,-44.434,-38.086,0.000
773.000,-61.523,-31.250,-41.992,-32.227,0.000
777.000,-60.547,-33.691,-39.062,-30.273,0.000
781.000,-60.059,-38.574,-40.039,-46.387,0.000
785.000,-57.129,-33.203,-42.480,-47.852,0.000
789.000,-48.828,-34.180,-40.039,-29.785,0.000
793.000,-43.457,-36.621,-32.715,-23.926,0.000
797.000,-41.016,-31.738,-29.785,-26.855,0.000
801.000,-41.504,-27.344,-26.367,-20.020,0.000
805.000,-41.016,-25.879,-22.461,-23.438,0.000
809.000,-31.738,-31.738,-31.250,-33.691,0.000
812.000,-53.223,-34.180,-36.621,-24.414,0.000
816.000,-68.848,-29.785,-28.320,-17.578,0.000
820.000,-62.988,-27.832,-26.855,-17.090,0.000
824.000,-44.922,-26.855,-32.715,-24.414,0.000
828.000,-38.574,-22.461,-34.180,-26.855,0.000
832.000,-41.016,-16.602,-28.320,-26.367,0.000
836.000,-49.316,-25.391,-31.250,-29.785,0.000
840.000,-57.129,-30.273,-36.621,-33.691,0.000
844.000,-43.945,-27.344,-30.762,-33.203,0.000
848.000,-62.500,-28.809,-32.227,-45.410,0.000
852.000,-70.801,-26.855,-37.598,-42.480,0.000
855.000,-54.688,-27.832,-38.574,-40.039,0.000
859.000,-52.734,-32.715,-33.203,-51.270,0.000
863.000,-47.852,-26.855,-34.180,-46.387,0.000
867.000,-51.270,-24.414,-39.551,-35.645,0.000
871.000,-55.176,-28.320,-40.039,-34.668,0.000
875.000,-61.523,-28.809,-38.574,-44.922,0.000
879.000,-67.871,-25.879,-37.109,-36.621,0.000
883.000,-57.129,-23.926,-37.109,-24.902,0.000
887.000,-50.781,-25.391,-36.621,-21.484,0.000
891.000,-49.316,-27.832,-37.598,-26.855,0.000
895.000,-41.504,-30.273,-36.133,-32.227,0.000
898.000,-28.320,-29.785,-38.086,-31.250,0.000
902.000,-36.133,-26.367,-36.133,-27.344,0.000
906.000,-50.293,-28.320,-30.273,-27.832,0.000
910.000,-49.316,-32.227,-33.691,-35.156,0.000
914.000,-33.691,-27.344,-35.156,-26.855,0.000
918.000,-18.555,-23.438,-33.691,-18.555,0.000
922.000,-14.160,-20.996,-32.227,-20.020,0.000
926.000,-29.785,-20.020,-26.855,-20.020,0.000
930.000,-47.852,-24.414,-27.832,-23.926,0.000
934.000,-44.922,-25.879,-30.762,-43.457,0.000
937.000,-42.969,-21.973,-30.273,-55.664,0.000
941.000,-38.086,-21.484,-28.320,-62.988,0.000
945.000,-41.992,-30.273,-29.785,-56.641,0.000
949.000,-54.688,-33.203,-27.344,-55.664,0.000
953.000,-59.570,-30.273,-21.973,-54.688,0.000
957.000,-69.336,-29.785,-25.879,-41.016,0.000
961.000,-66.406,-30.762,-25.879,-37.109,0.000
965.000,-62.500,-32.715,-23.926,-27.344,0.000
969.000,-53.711,-28.320,-23.926,-11.230,0.000
973.000,-42.480,-27.344,-27.832,-17.090,0.000
977.000,-37.109,-31.250,-31.250,-32.227,0.000
980.000,-45.410,-29.297,-32.227,-30.762,0.000
984.000,-53.711,-27.344,-32.227,-26.855,0.000
988.000,-30.762,-31.738,-33.203,-28.320,0.000
992.000,-26.367,-29.785,-30.273,-28.809,0.000
996.000,-29.297,-24.902,-29.297,-21.484,0.000
1000.000,-29.785,-28.320,-34.668,-29.785,0.000
1004.000,-31.738,-26.855,-30.762,-36.133,0.000
1008.000,-33.691,-22.461,-28.809,-30.762,0.000
1012.000,-41.016,-23.926,-31.738,-38.574,0.000
1016.000,-45.898,-20.020,-30.273,-39.062,0.000
1020.000,-41.016,-18.066,-31.738,-32.227,0.000
1023.000,-28.320,-22.949,-34.180,-43.457,0.000
1027.000,-18.066,-20.508,-35.156,-54.199,0.000
1031.000,-30.273,-19.531,-41.504,-55.664,0.000
1035.000,-53.223,-29.297,-35.645,-47.852,0.000
1039.000,-52.246,-28.809,-30.273,-39.062,0.000
1043.000,-28.320,-20.020,-36.133,-48.340,0.000
1047.000,-23.438,-19.043,-36.133,-47.363,0.000
1051.000,-28.809,-22.461,-27.832,-27.344,0.000
1055.000,-38.574,-24.414,-29.785,-30.273,0.000
1059.000,-42.480,-27.344,-30.762,-25.391,0.000
1062.000,-34.668,-26.855,-27.344,-18.066,0.000
1066.000,-22.949,-20.996,-32.227,-33.203,0.000
1070.000,-20.996,-22.949,-29.785,-41.016,0.000
1074.000,-45.410,-27.832,-28.320,-28.320,0.000
1078.000,-38.086,-27.832,-30.762,-14.160,0.000
1082.000,-26.367,-28.809,-29.785,-16.602,0.000
1086.000,-33.691,-23.926,-28.320,-6.836,0.000
1090.000,-27.344,-23.438,-30.762,-6.836,0.000
1094.000,-25.879,-29.297,-31.738,-16.602,0.000
1098.000,-34.668,-31.738,-32.227,-17.090,0.000
1102.000,-38.574,-29.297,-36.133,-28.320,0.000
1105.000,-36.621,-29.297,-37.109,-26.367,0.000
1109.000,-32.715,-31.250,-37.598,-15.137,0.000
1113.000,-36.133,-28.809,-36.133,-25.391,0.000
1117.000,-31.250,-25.879,-32.715,-39.062,0.000
1121.000,-28.809,-24.414,-35.156,-50.293,0.000
1125.000,-35.645,-20.996,-38.574,-47.363,0.000
1129.000,-33.203,-16.602,-34.180,-42.480,0.000
1133.000,-46.387,-19.531,-33.203,-59.082,0.000
1137.000,-58.594,-18.066,-36.621,-50.293,0.000
1141.000,-66.406,-15.625,-31.738,-34.180,0.000
1145.000,-72.754,-24.414,-30.273,-39.551,0.000
1148.000,-62.500,-29.297,-33.203,-33.691,0.000
1152.000,-55.176,-22.461,-33.691,-17.578,0.000
1156.000,-53.711,-23.438,-33.203,-19.043,0.000
1160.000,-49.805,-29.785,-33.203,-26.855,0.000
1164.000,-54.199,-32.715,-36.133,-19.531,0.000
1168.000,-44.434,-32.715,-33.203,-18.555,0.000
1172.000,-30.762,-40.527,-31.250,-20.020,0.000
1176.000,-34.180,-42.969,-33.691,-19.043,0.000
1180.000,-36.133,-36.133,-33.691,-14.160,0.000
1184.000,-36.133,-28.809,-32.715,-15.625,0.000
1187.000,-33.691,-24.414,-30.273,-31.250,0.000
1191.000,-35.156,-25.879,-32.715,-30.762,0.000
1195.000,-33.203,-25.879,-38.574,-31.738,0.000
1199.000,-27.344,-22.949,-41.504,-31.250,0.000
1203.000,-35.645,-25.879,-38.086,-29.297,0.000
1207.000,-36.621,-32.227,-39.062,-35.156,0.000
1211.000,-38.574,-29.785,-42.969,-36.133,0.000
1215.000,-34.180,-28.320,-45.410,-37.598,0.000
1219.000,-25.391,-29.297,-42.969,-37.109,0.000
1223.000,-27.832,-27.344,-39.062,-37.598,0.000
1227.000,-19.531,-31.738,-36.133,-22.461,0.000
1230.000,-16.113,-28.320,-32.715,-16.602,0.000
1234.000,-23.438,-27.344,-31.738,-35.645,0.000
1238.000,-32.715,-30.762,-37.109,-34.668,0.000
1242.000,-37.598,-33.203,-41.504,-30.762,0.000
1246.000,-22.461,-32.715,-38.574,-28.320,0.000
1250.000,-29.297,-31.738,-35.156,-28.809,0.000
1254.000,-54.199,-34.180,-37.109,-39.062,0.000
1258.000,-50.293,-35.156,-33.691,-42.969,0.000
1262.000,-57.617,-33.203,-29.785,-37.598,0.000
1266.000,-60.547,-27.344,-28.809,-27.832,0.000
1270.000,-54.688,-25.391,-27.344,-37.598,0.000
1273.000,-46.387,-31.738,-29.785,-40.527,0.000
1277.000,-43.945,-40.039,-31.250,-41.504,0.000
1281.000,-46.387,-34.668,-27.832,-35.645,0.000
1285.000,-44.922,-26.855,-28.809,-26.855,0.000
1289.000,-39.551,-30.273,-31.738,-38.086,0.000
1293.000,-37.109,-32.715,-30.762,-41.504,0.000
1297.000,-29.785,-26.367,-31.738,-31.738,0.000
1301.000,-32.227,-28.320,-36.133,-20.996,0.000
1305.000,-31.250,-30.273,-38.574,-24.414,0.000
1309.000,-23.926,-27.344,-38.574,-24.902,0.000
1312.000,-33.203,-29.785,-37.109,-11.719,0.000
1316.000,-36.133,-29.785,-33.203,-10.254,0.000
1320.000,-20.020,-27.344,-31.250,-12.695,0.000
1324.000,-5.859,-22.461,-34.180,-12.207,0.000
1328.000,-6.348,-19.043,-33.203,-5.859,0.000
1332.000,-11.719,-19.043,-27.832,-16.602,0.000
1336.000,-5.371,-17.578,-29.297,-26.855,0.000
1340.000,-3.906,-17.578,-34.180,-18.066,0.000
1344.000,-4.395,-19.043,-35.645,-7.324,0.000
1348.000,-19.531,-20.996,-32.715,-5.371,0.000
1352.000,-38.574,-20.020,-28.320,-7.324,0.000
1355.000,-30.273,-25.391,-29.297,-20.508,0.000
1359.000,-33.203,-31.738,-30.273,-29.297,0.000
1363.000,-48.340,-29.297,-32.227,-29.297,0.000
1367.000,-47.852,-28.809,-32.227,-28.809,0.000
1371.000,-42.969,-29.785,-31.250,-37.598,0.000
1375.000,-47.852,-33.203,-32.227,-32.227,0.000
1379.000,-46.875,-31.738,-31.738,-23.438,0.000
1383.000,-26.855,-27.832,-33.203,-24.414,0.000
1387.000,-26.855,-29.785,-39.551,-29.785,0.000
1391.000,-36.133,-26.367,-41.016,-26.855,0.000
1395.000,-48.340,-28.320,-36.621,-6.348,0.000
1398.000,-45.410,-31.250,-40.039,-15.137,0.000
1402.000,-41.992,-34.668,-41.016,-34.668,0.000
1406.000,-47.363,-34.668,-35.156,-26.367,0.000
1410.000,-39.551,-33.691,-33.203,-20.020,0.000
1414.000,-35.156,-35.156,-32.227,-32.227,0.000
1418.000,-35.156,-28.809,-32.715,-28.809,0.000
1422.000,-37.109,-24.902,-34.180,-18.555,0.000
1426.000,-31.738,-26.367,-29.785,-18.066,0.000
1430.000,-36.133,-22.949,-31.250,-20.996,0.000
1434.000,-35.645,-19.531,-30.273,-23.438,0.000
1437.000,-33.691,-21.973,-30.273,-19.531,0.000
1441.000,-37.598,-25.879,-31.250,-33.691,0.000
1445.000,-38.574,-26.367,-35.645,-44.922,0.000
1449.000,-37.598,-20.996,-38.086,-50.781,0.000
1453.000,-30.762,-18.555,-33.203,-53.223,0.000
1457.000,-45.898,-24.902,-31.738,-47.852,0.000
1461.000,-69.336,-31.250,-34.668,-39.551,0.000
1465.000,-66.406,-29.297,-36.621,-24.902,0.000
1469.000,-54.688,-24.414,-32.715,-19.043,0.000
1473.000,-54.199,-25.879,-31.738,-21.484,0.000
1477.000,-46.875,-29.297,-36.621,-20.508,0.000
1480.000,-32.715,-36.621,-38.086,-20.996,0.000
1484.000,-41.504,-37.109,-40.039,-21.973,0.000
1488.000,-54.199,-30.762,-41.016,-24.414,0.000
1492.000,-38.086,-24.902,-34.668,-15.625,0.000
1496.000,-30.273,-30.762,-29.785,-9.277,0.000
1500.000,-41.016,-38.086,-33.691,-10.742,0.000
1504.000,-41.016,-37.598,-31.738,-22.461,0.000
1508.000,-35.645,-31.738,-27.344,-23.438,0.000
1512.000,-29.297,-27.832,-28.809,-14.648,0.000
1516.000,-40.039,-24.414,-30.273,-18.066,0.000
1519.000,-58.105,-25.879,-31.250,-27.344,0.000
1523.000,-60.547,-32.227,-33.203,-36.133,0.000
1527.000,-45.898,-34.180,-31.738,-38.086,0.000
1531.000,-47.363,-33.691,-31.738,-46.875,0.000
1535.000,-55.664,-33.203,-33.203,-56.641,0.000
1539.000,-47.852,-33.203,-28.320,-51.758,0.000
1543.000,-44.434,-27.832,-25.391,-42.969,0.000
1547.000,-54.199,-29.785,-29.785,-43.457,0.000
1551.000,-43.945,-33.203,-28.320,-41.992,0.000
1555.000,-32.227,-33.203,-24.902,-34.180,0.000
1559.000,-41.016,-35.156,-31.250,-29.297,0.000
1562.000,-35.645,-31.250,-31.738,-23.926,0.000
1566.000,-28.809,-24.414,-26.367,-24.414,0.000
1570.000,-25.879,-21.973,-28.809,-28.809,0.000
1574.000,-25.879,-28.320,-36.133,-26.367,0.000
1578.000,-24.902,-34.180,-34.180,-28.320,0.000
1582.000,-7.812,-26.855,-33.203,-20.996,0.000
1586.000,-9.766,-15.625,-32.715,-18.066,0.000
1590.000,-9.277,-19.531,-30.273,-14.648,0.000
1594.000,-14.160,-29.785,-30.762,-16.602,0.000
1598.000,-27.832,-26.367,-27.832,-19.043,0.000
1602.000,-20.508,-25.391,-23.926,-20.508,0.000
1605.000,-15.137,-25.879,-26.855,-12.207,0.000
1609.000,-28.809,-22.461,-30.762,-18.066,0.000
1613.000,-27.832,-22.461,-33.203,-20.996,0.000
1617.000,-17.578,-28.320,-33.203,-21.973,0.000
1621.000,-20.996,-26.367,-34.180,-26.367,0.000
1625.000,-26.855,-27.832,-35.156,-30.273,0.000
1629.000,-24.902,-27.344,-30.762,-31.250,0.000
1633.000,-37.598,-23.926,-28.809,-29.785,0.000
1637.000,-55.664,-30.273,-33.203,-35.156,0.000
1641.000,-52.734,-28.809,-30.273,-21.484,0.000
1644.000,-53.223,-26.367,-34.668,-19.043,0.000
1648.000,-50.781,-22.461,-41.504,-22.949,0.000
1652.000,-50.781,-20.996,-32.715,-13.184,0.000
1656.000,-44.922,-24.414,-32.715,-23.926,0.000
1660.000,-32.715,-20.996,-41.992,-26.855,0.000
1664.000,-33.203,-21.973,-42.480,-18.555,0.000
1668.000,-27.832,-28.320,-43.945,-32.227,0.000
1672.000,-25.879,-28.320,-42.480,-27.832,0.000
1676.000,-26.855,-23.926,-41.016,-27.832,0.000
1680.000,-21.484,-20.020,-41.992,-36.133,0.000
1684.000,-28.320,-20.020,-43.457,-29.297,0.000
1687.000,-21.973,-21.484,-41.016,-20.996,0.000
1691.000,-14.160,-17.578,-37.109,-9.277,0.000
1695.000,-33.203,-16.602,-36.621,-6.836,0.000
1699.000,-30.273,-20.996,-37.598,-13.672,0.000
1703.000,-16.602,-15.625,-34.180,-17.578,0.000
1707.000,-31.250,-14.160,-34.668,-20.996,0.000
1711.000,-39.551,-19.043,-36.133,-18.555,0.000
1715.000,-30.273,-25.391,-34.668,-15.625,0.000
1719.000,-31.250,-30.273,-35.156,-20.996,0.000
1723.000,-27.344,-25.391,-33.691,-27.344,0.000
1727.000,-14.160,-25.391,-35.645,-26.855,0.000
1730.000,-18.066,-30.273,-34.668,-28.809,0.000
1734.000,-25.391,-29.297,-29.785,-35.645,0.000
1738.000,-20.508,-29.297,-32.227,-41.016,0.000
1742.000,-20.020,-30.762,-31.738,-44.922,0.000
1746.000,-42.969,-29.785,-25.391,-37.109,0.000
1750.000,-64.453,-25.391,-23.926,-24.414,0.000
1754.000,-54.688,-27.832,-26.367,-20.020,0.000
1758.000,-47.363,-31.250,-31.250,-13.184,0.000
1762.000,-41.992,-26.855,-31.738,-19.043,0.000
1766.000,-32.715,-28.320,-33.203,-33.691,0.000
1769.000,-42.480,-36.621,-30.762,-22.461,0.000
1773.000,-52.246,-37.109,-30.762,-18.066,0.000
1777.000,-50.781,-33.691,-36.133,-23.926,0.000
1781.000,-51.758,-29.297,-38.086,-31.250,0.000
1785.000,-49.316,-26.367,-38.574,-31.250,0.000
1789.000,-45.898,-30.273,-37.598,-36.133,0.000
1793.000,-46.875,-29.297,-35.156,-51.758,0.000
1797.000,-49.316,-31.250,-34.668,-51.758,0.000
1801.000,-43.945,-28.809,-34.180,-33.203,0.000
1805.000,-39.062,-23.438,-35.645,-26.367,0.000
1809.000,-29.785,-25.391,-38.086,-29.785,0.000
1812.000,-30.762,-23.438,-41.016,-26.367,0.000
1816.000,-41.016,-25.391,-43.945,-31.738,0.000
1820.000,-30.762,-21.484,-39.551,-29.785,0.000
1824.000,-16.113,-17.090,-38.574,-24.414,0.000
1828.000,-15.137,-27.344,-41.016,-32.227,0.000
1832.000,-32.227,-32.227,-41.992,-34.180,0.000
1836.000,-43.457,-27.832,-38.574,-37.109,0.000
1840.000,-42.480,-30.273,-38.086,-43.945,0.000
1844.000,-35.156,-26.855,-40.527,-41.992,0.000
1848.000,-38.574,-22.461,-41.504,-34.668,0.000
1852.000,-48.828,-17.090,-37.598,-34.668,0.000
1855.000,-42.969,-20.996,-34.668,-36.621,0.000
1859.000,-48.340,-32.715,-38.574,-30.762,0.000
1863.000,-53.711,-28.320,-39.551,-27.344,0.000
1867.000,-46.875,-24.414,-34.180,-20.508,0.000
1871.000,-48.340,-27.344,-34.668,-18.066,0.000
1875.000,-36.133,-22.949,-31.250,-11.719,0.000
1879.000,-38.086,-19.531,-22.949,-12.695,0.000
1883.000,-50.781,-26.855,-21.484,-22.949,0.000
1887.000,-37.598,-30.762,-27.344,-12.695,0.000
1891.000,-30.273,-30.762,-27.344,-11.719,0.000
1894.000,-39.551,-31.738,-27.832,-15.625,0.000
1898.000,-48.340,-29.297,-33.203,-15.625,0.000
1902.000,-42.480,-29.297,-35.645,-22.949,0.000
1906.000,-37.109,-27.832,-36.621,-16.602,0.000
1910.000,-29.785,-25.391,-33.691,-15.625,0.000
1914.000,-20.508,-28.320,-27.344,-17.578,0.000
1918.000,-20.996,-30.273,-29.785,-21.973,0.000
1922.000,-18.555,-26.855,-34.668,-18.066,0.000
1926.000,-12.695,-22.461,-32.715,-8.301,0.000
1930.000,-20.996,-23.438,-33.203,-11.719,0.000
1934.000,-41.504,-25.879,-35.645,-23.926,0.000
1937.000,-41.504,-26.367,-35.156,-24.902,0.000
1941.000,-43.945,-28.320,-32.227,-13.672,0.000
1945.000,-51.270,-31.250,-35.156,-23.438,0.000
1949.000,-53.711,-29.785,-41.504,-44.434,0.000
1953.000,-50.293,-28.809,-44.434,-42.969,0.000
1957.000,-45.898,-28.809,-40.039,-37.598,0.000
1961.000,-43.457,-27.832,-38.086,-36.133,0.000
1965.000,-45.410,-26.367,-38.086,-38.574,0.000
1969.000,-39.551,-25.391,-34.180,-40.039,0.000
1973.000,-23.926,-26.855,-37.109,-31.738,0.000
1977.000,-19.043,-26.855,-40.039,-36.621,0.000
1980.000,-35.645,-25.391,-39.551,-44.434,0.000
1984.000,-45.410,-22.461,-36.621,-36.621,0.000
1988.000,-33.203,-19.531,-33.691,-24.902,0.000
1992.000,-28.320,-21.973,-34.180,-16.113,0.000
1996.000,-40.039,-22.461,-32.715,-16.113,0.000
2000.000,-41.992,-20.996,-34.180,-12.207,0.000
2004.000,-26.367,-21.484,-30.273,-1.465,0.000
2008.000,-11.719,-26.855,-25.879,-6.836,0.000
2012.000,-9.277,-31.738,-28.809,-19.043,0.000
2016.000,-16.602,-20.996,-28.320,-27.832,0.000
2019.000,-18.066,-19.043,-28.809,-30.273,0.000
2023.000,-19.043,-25.879,-31.738,-24.902,0.000
2027.000,-21.973,-25.391,-33.203,-28.809,0.000
2031.000,-19.043,-26.367,-25.391,-23.926,0.000
2035.000,-27.832,-27.344,-24.902,-22.461,0.000
2039.000,-41.016,-27.832,-29.297,-40.527,0.000
2043.000,-40.527,-24.902,-24.902,-42.480,0.000
2047.000,-34.180,-18.066,-25.879,-37.598,0.000
2051.000,-24.902,-15.625,-26.367,-41.992,0.000
2055.000,-20.508,-18.066,-27.344,-43.945,0.000
2059.000,-17.578,-16.113,-26.855,-36.133,0.000
2062.000,-24.902,-16.602,-24.902,-23.926,0.000
2066.000,-34.180,-15.137,-22.461,-17.578,0.000
2070.000,-36.133,-23.926,-20.996,-19.531,0.000
2074.000,-33.203,-36.133,-25.879,-27.344,0.000
2078.000,-32.227,-27.344,-28.320,-23.438,0.000
2082.000,-28.809,-20.996,-28.320,-17.578,0.000
2086.000,-32.715,-25.879,-30.762,-10.742,0.000
2090.000,-42.480,-23.926,-33.203,-8.301,0.000
2094.000,-41.504,-22.949,-33.691,-21.973,0.000
2098.000,-34.180,-27.344,-37.598,-14.160,0.000
2102.000,-44.922,-30.273,-41.992,-11.230,0.000
2105.000,-49.316,-28.320,-38.574,-17.090,0.000
2109.000,-37.598,-31.250,-38.574,-7.812,0.000
2113.000,-28.809,-32.227,-39.551,-7.812,0.000
2117.000,-30.762,-24.414,-36.621,-20.508,0.000
2121.000,-37.109,-21.973,-25.879,-14.160,0.000
2125.000,-38.574,-26.367,-30.762,-15.625,0.000
2129.000,-44.434,-27.344,-40.527,-40.039,0.000
2133.000,-43.457,-21.484,-39.062,-44.434,0.000
2137.000,-41.016,-26.367,-36.133,-36.133,0.000
2141.000,-37.109,-29.297,-32.715,-43.945,0.000
2144.000,-48.828,-29.785,-35.645,-45.410,0.000
2148.000,-64.941,-31.250,-33.691,-42.969,0.000
2152.000,-60.547,-27.344,-30.273,-42.969,0.000
2156.000,-59.082,-28.320,-37.109,-41.504,0.000
2160.000,-58.594,-25.391,-41.504,-31.738,0.000
2164.000,-50.781,-26.855,-39.551,-31.250,0.000
2168.000,-43.457,-31.738,-38.574,-29.785,0.000
2172.000,-30.273,-27.344,-41.016,-25.391,0.000
2176.000,-25.879,-25.391,-41.992,-34.668,0.000
2180.000,-22.949,-24.902,-41.992,-36.133,0.000
2184.000,-22.461,-25.879,-41.504,-27.344,0.000
2187.000,-48.340,-30.273,-37.109,-14.648,0.000
2191.000,-60.547,-29.785,-37.109,-24.902,0.000
2195.000,-50.781,-29.785,-40.527,-33.691,0.000
2199.000,-51.270,-30.273,-39.551,-33.203,0.000
2203.000,-39.551,-28.809,-40.039,-29.297,0.000
2207.000,-29.297,-28.320,-42.480,-20.996,0.000
2211.000,-33.691,-28.320,-40.527,-28.320,0.000
2215.000,-40.039,-25.391,-38.086,-29.297,0.000
2219.000,-48.828,-18.555,-40.527,-26.855,0.000
2223.000,-50.293,-22.461,-40.039,-42.480,0.000
2227.000,-43.457,-26.367,-36.621,-45.898,0.000
2230.000,-39.551,-23.926,-30.762,-30.273,0.000
2234.000,-46.875,-27.344,-36.621,-35.156,0.000
2238.000,-38.086,-31.250,-42.480,-44.922,0.000
2242.000,-23.438,-24.902,-34.668,-29.297,0.000
2246.000,-31.250,-23.926,-34.180,-20.508,0.000
2250.000,-40.039,-30.762,-35.645,-24.902,0.000
2254.000,-34.180,-28.320,-28.320,-20.508,0.000
2258.000,-23.438,-23.438,-25.879,-16.602,0.000
2262.000,-32.227,-23.438,-30.762,-31.250,0.000
2266.000,-37.598,-26.855,-31.738,-34.668,0.000
2269.000,-40.039,-30.273,-29.785,-31.738,0.000
2273.000,-44.434,-27.344,-27.344,-30.273,0.000
2277.000,-41.992,-29.297,-27.344,-18.555,0.000
2281.000,-41.016,-31.738,-30.273,-12.207,0.000
2285.000,-34.668,-27.344,-31.250,-17.090,0.000
2289.000,-19.531,-23.926,-27.832,-18.555,0.000
2293.000,-30.273,-26.367,-31.250,-18.555,0.000
2297.000,-49.805,-26.855,-29.297,-16.113,0.000
2301.000,-43.457,-25.879,-24.902,-2.441,0.000
2305.000,-43.945,-30.273,-27.832,-15.137,0.000
2309.000,-41.016,-32.227,-28.809,-31.250,0.000
2312.000,-35.156,-26.855,-27.344,-30.273,0.000
2316.000,-49.316,-25.879,-28.320,-36.621,0.000
2320.000,-63.477,-35.645,-27.832,-41.504,0.000
2324.000,-57.129,-37.598,-26.855,-40.527,0.000
2328.000,-49.805,-34.180,-33.691,-50.293,0.000
2332.000,-54.688,-33.691,-33.203,-55.664,0.000
2336.000,-62.012,-34.180,-33.691,-57.129,0.000
2340.000,-57.617,-31.738,-39.551,-56.641,0.000
2344.000,-49.805,-28.809,-35.645,-51.758,0.000
2348.000,-41.016,-29.297,-33.203,-54.688,0.000
2352.000,-32.715,-26.367,-39.551,-48.340,0.000
2355.000,-30.273,-26.367,-42.969,-41.504,0.000
2359.000,-36.621,-23.438,-41.992,-41.016,0.000
2363.000,-35.156,-21.973,-44.434,-42.969,0.000
2367.000,-38.086,-24.414,-46.387,-27.344,0.000
2371.000,-36.621,-19.531,-41.016,-20.996,0.000
2375.000,-25.879,-15.137,-34.180,-26.367,0.000
2379.000,-31.738,-25.391,-33.691,-28.809,0.000
2383.000,-33.691,-34.668,-34.668,-32.227,0.000
2387.000,-22.461,-23.438,-33.691,-32.227,0.000
2391.000,-24.902,-16.113,-30.762,-26.367,0.000
2394.000,-35.645,-24.414,-32.715,-17.578,0.000
2398.000,-35.156,-24.902,-31.250,-23.438,0.000
2402.000,-28.320,-20.996,-27.344,-26.367,0.000
2406.000,-31.250,-25.391,-32.715,-34.180,0.000
2410.000,-32.227,-20.020,-29.785,-30.762,0.000
2414.000,-34.180,-18.066,-24.414,-32.715,0.000
2418.000,-53.711,-21.484,-30.762,-40.039,0.000
2422.000,-56.641,-20.508,-33.691,-35.645,0.000
2426.000,-48.340,-23.926,-33.203,-40.039,0.000
2430.000,-45.410,-27.832,-34.180,-41.504,0.000
2434.000,-41.992,-27.344,-32.227,-38.574,0.000
2437.000,-40.039,-27.832,-28.320,-27.832,0.000
2441.000,-48.340,-30.762,-26.855,-19.043,0.000
2445.000,-50.781,-30.273,-28.809,-24.902,0.000
2449.000,-33.203,-26.367,-30.273,-33.203,0.000
2453.000,-30.273,-23.438,-27.832,-22.461,0.000
2457.000,-44.922,-29.297,-30.273,-15.625,0.000
2461.000,-41.016,-31.250,-35.156,-41.504,0.000
2465.000,-36.133,-27.832,-38.574,-38.574,0.000
2469.000,-28.320,-26.855,-41.992,-19.531,0.000
2473.000,-20.508,-23.926,-38.086,-20.508,0.000
2477.000,-30.762,-26.367,-36.621,-26.367,0.000
2480.000,-35.645,-23.926,-33.691,-25.879,0.000
2484.000,-26.367,-21.484,-33.203,-26.367,0.000
2488.000,-19.043,-23.438,-37.598,-36.133,0.000
2492.000,-29.785,-25.879,-40.039,-44.434,0.000
2496.000,-37.109,-27.832,-38.086,-47.852,0.000
2500.000,-32.715,-27.832,-36.621,-43.457,0.000
2504.000,-33.691,-30.762,-41.992,-37.598,0.000
2508.000,-39.062,-34.180,-45.898,-32.715,0.000
2512.000,-33.691,-32.227,-44.922,-36.133,0.000
2516.000,-32.715,-25.391,-37.598,-39.062,0.000
2519.000,-42.480,-25.879,-33.691,-47.852,0.000
2523.000,-37.109,-31.250,-40.527,-59.570,0.000
2527.000,-41.016,-35.645,-39.551,-55.176,0.000
2531.000,-65.430,-35.156,-37.598,-52.734,0.000
2535.000,-68.359,-36.621,-43.457,-57.129,0.000
2539.000,-44.434,-35.645,-42.480,-56.641,0.000
2543.000,-34.180,-29.785,-36.621,-49.316,0.000
2547.000,-48.340,-29.785,-33.203,-47.852,0.000
2551.000,-41.016,-27.344,-36.621,-47.852,0.000
2555.000,-37.109,-24.902,-38.574,-53.223,0.000
2559.000,-39.062,-25.391,-33.691,-53.223,0.000
2562.000,-25.879,-15.137,-31.250,-48.340,0.000
2566.000,-34.668,-16.602,-33.203,-57.129,0.000
2570.000,-33.203,-17.578,-32.227,-49.805,0.000
2574.000,-35.645,-20.020,-29.297,-33.203,0.000
2578.000,-39.551,-26.367,-30.762,-40.527,0.000
2582.000,-27.832,-26.367,-31.738,-45.410,0.000
2586.000,-22.461,-28.320,-31.250,-34.668,0.000
2590.000,-32.715,-26.367,-32.227,-38.574,0.000
2594.000,-30.762,-25.879,-29.785,-41.016,0.000
2598.000,-20.996,-31.738,-32.227,-38.086,0.000
2602.000,-24.902,-33.203,-34.668,-46.387,0.000
2605.000,-29.785,-27.832,-31.250,-41.504,0.000
2609.000,-40.527,-28.809,-29.785,-40.527,0.000
2613.000,-42.480,-23.438,-27.832,-37.598,0.000
2617.000,-37.109,-23.438,-30.762,-42.969,0.000
2621.000,-37.598,-26.855,-33.203,-50.293,0.000
2625.000,-44.922,-24.414,-31.250,-37.109,0.000
2629.000,-35.645,-25.391,-30.273,-25.391,0.000
2633.000,-30.273,-26.367,-35.645,-32.715,0.000
2637.000,-34.668,-26.855,-37.109,-41.992,0.000
2641.000,-36.621,-22.461,-33.691,-27.832,0.000
2644.000,-41.504,-22.461,-32.227,-18.066,0.000
2648.000,-37.109,-27.344,-31.738,-25.391,0.000
2652.000,-23.926,-24.414,-32.227,-20.996,0.000
2656.000,-28.809,-26.855,-34.180,-23.926,0.000
2660.000,-35.156,-30.762,-36.133,-33.203,0.000
2664.000,-33.691,-26.855,-34.668,-23.926,0.000
2668.000,-42.969,-24.414,-33.203,-21.484,0.000
2672.000,-39.062,-20.020,-34.180,-23.926,0.000
2676.000,-39.062,-18.066,-35.156,-29.785,0.000
2680.000,-43.945,-18.555,-34.180,-34.668,0.000
2684.000,-37.598,-20.996,-33.691,-26.367,0.000
2687.000,-26.367,-27.344,-33.203,-32.227,0.000
2691.000,-22.949,-27.344,-33.691,-44.922,0.000
2695.000,-46.387,-25.391,-34.668,-27.832,0.000
2699.000,-61.035,-26.367,-29.297,-15.625,0.000
2703.000,-63.477,-23.438,-33.691,-23.926,0.000
2707.000,-59.570,-21.973,-35.645,-21.973,0.000
2711.000,-47.363,-22.949,-31.738,-10.742,0.000
2715.000,-38.086,-20.020,-29.785,-7.324,0.000
2719.000,-32.227,-20.508,-30.762,-18.066,0.000
2723.000,-29.785,-20.508,-28.320,-20.020,0.000
2727.000,-24.414,-20.020,-25.391,-12.207,0.000
2730.000,-25.391,-22.461,-29.785,-17.090,0.000
2734.000,-37.109,-24.414,-36.621,-27.344,0.000
2738.000,-36.621,-21.973,-37.109,-21.973,0.000
2742.000,-26.855,-20.020,-35.156,-11.719,0.000
2746.000,-35.156,-22.461,-38.574,-10.254,0.000
2750.000,-35.645,-24.902,-38.574,-25.391,0.000
2754.000,-40.039,-21.973,-32.227,-26.855,0.000
2758.000,-61.523,-29.297,-37.598,-29.297,0.000
2762.000,-57.129,-37.109,-39.551,-32.227,0.000
2766.000,-63.965,-32.227,-32.715,-22.949,0.000
2769.000,-69.824,-28.320,-31.738,-25.879,0.000
2773.000,-53.223,-30.273,-35.156,-28.809,0.000
2777.000,-42.480,-35.156,-37.109,-24.414,0.000
2781.000,-52.734,-34.180,-39.551,-27.344,0.000
2785.000,-62.012,-35.156,-39.551,-31.250,0.000
2789.000,-56.152,-36.133,-36.621,-26.855,0.000
2793.000,-43.457,-28.320,-39.062,-22.949,0.000
2797.000,-37.598,-24.414,-40.039,-23.438,0.000
2801.000,-36.621,-24.902,-37.109,-19.043,0.000
2805.000,-27.344,-23.926,-35.156,-18.555,0.000
2809.000,-31.738,-24.902,-33.203,-21.484,0.000
2812.000,-41.992,-25.879,-32.227,-21.484,0.000
2816.000,-42.480,-27.344,-30.273,-17.090,0.000
2820.000,-31.250,-26.855,-27.344,-12.695,0.000
2824.000,-23.926,-20.020,-27.344,-15.137,0.000
2828.000,-23.926,-22.461,-30.273,-27.344,0.000
2832.000,-35.156,-27.832,-28.809,-36.133,0.000
2836.000,-52.734,-25.391,-30.762,-33.203,0.000
2840.000,-33.691,-20.508,-38.574,-44.922,0.000
2844.000,-21.484,-20.996,-36.133,-45.410,0.000
2848.000,-40.527,-22.949,-34.180,-34.180,0.000
2852.000,-50.293,-22.461,-32.715,-39.551,0.000
2855.000,-41.504,-18.066,-25.391,-41.504,0.000
2859.000,-30.273,-17.578,-24.414,-43.457,0.000
2863.000,-30.762,-17.090,-33.691,-43.457,0.000
2867.000,-31.738,-17.090,-39.062,-43.945,0.000
2871.000,-33.203,-25.879,-37.109,-38.574,0.000
2875.000,-25.879,-28.809,-39.062,-31.250,0.000
2879.000,-28.320,-23.438,-39.062,-29.297,0.000
2883.000,-44.922,-26.367,-41.016,-20.508,0.000
2887.000,-44.922,-26.367,-42.480,-22.949,0.000
2891.000,-40.527,-16.602,-41.016,-23.438,0.000
2894.000,-32.715,-13.672,-41.992,-20.020,0.000
2898.000,-36.621,-18.066,-38.086,-26.367,0.000
2902.000,-50.781,-24.902,-35.645,-23.926,0.000
2906.000,-37.598,-22.461,-33.203,-25.879,0.000
2910.000,-20.020,-17.578,-33.691,-31.250,0.000
2914.000,-15.137,-17.578,-34.180,-35.156,0.000
2918.000,-25.879,-18.066,-33.203,-36.133,0.000
2922.000,-30.273,-23.438,-33.203,-36.621,0.000
2926.000,-25.391,-25.879,-32.715,-30.762,0.000
2930.000,-42.969,-28.809,-33.691,-31.738,0.000
2934.000,-49.805,-33.691,-32.715,-41.992,0.000
2937.000,-41.992,-32.715,-30.762,-30.273,0.000
2941.000,-46.387,-29.297,-31.250,-32.715,0.000
2945.000,-40.039,-31.250,-35.645,-44.922,0.000
2949.000,-33.691,-33.203,-32.715,-38.574,0.000
2953.000,-46.387,-25.391,-26.855,-25.391,0.000
2957.000,-51.270,-30.762,-29.785,-17.578,0.000
2961.000,-47.852,-35.156,-33.203,-19.531,0.000
2965.000,-52.246,-30.762,-28.809,-22.461,0.000
2969.000,-46.875,-32.715,-25.879,-25.879,0.000
2973.000,-34.668,-31.738,-27.344,-27.344,0.000
2977.000,-29.297,-29.785,-30.273,-31.250,0.000
2980.000,-20.020,-28.809,-31.250,-19.531,0.000
2984.000,-35.156,-32.715,-30.762,-6.836,0.000
2988.000,-37.109,-43.945,-24.414,-6.836,0.000
2992.000,-26.367,-40.527,-23.438,-13.672,0.000
2996.000,-33.691,-33.691,-30.273,-22.949,0.000
3000.000,-36.133,-35.156,-31.738,-35.645,0.000
3004.000,-35.156,-35.156,-29.297,-37.598,0.000
3008.000,-29.297,-33.203,-31.250,-21.484,0.000
3012.000,-18.555,-30.273,-37.109,-17.090,0.000
3016.000,-23.438,-25.879,-36.133,-24.902,0.000
3019.000,-48.340,-24.414,-32.715,-40.039,0.000
3023.000,-54.688,-24.902,-35.156,-46.875,0.000
3027.000,-43.457,-27.832,-29.785,-41.992,0.000
3031.000,-52.246,-31.738,-29.297,-46.387,0.000
3035.000,-58.105,-26.855,-33.203,-53.223,0.000
3039.000,-54.688,-21.973,-28.320,-56.641,0.000
3043.000,-49.316,-23.438,-28.320,-54.688,0.000
3047.000,-45.410,-20.508,-33.691,-45.898,0.000
3051.000,-55.176,-20.508,-38.086,-47.363,0.000
3055.000,-40.039,-20.996,-30.762,-31.738,0.000
3059.000,-29.297,-16.602,-29.785,-23.438,0.000
3062.000,-49.805,-13.184,-35.156,-25.879,0.000
3066.000,-46.387,-18.066,-31.738,-13.184,0.000
3070.000,-34.180,-24.414,-32.715,-10.254,0.000
3074.000,-28.809,-28.809,-36.621,-20.020,0.000
3078.000,-25.391,-17.578,-34.180,-20.020,0.000
3082.000,-24.902,-10.742,-31.250,-15.625,0.000
3086.000,-21.484,-18.555,-33.203,-25.879,0.000
3090.000,-13.672,-26.367,-34.180,-18.555,0.000
3094.000,-18.555,-20.508,-35.156,-9.277,0.000
3098.000,-21.484,-10.742,-31.250,-5.371,0.000
3101.000,-18.066,-17.578,-29.785,-6.348,0.000
3105.000,-23.926,-25.391,-35.645,-23.926,0.000
3109.000,-13.184,-20.996,-36.133,-26.367,0.000
3113.000,-20.996,-20.996,-32.227,-10.254,0.000
3117.000,-35.645,-21.484,-28.320,-7.324,0.000
3121.000,-24.902,-18.066,-28.320,-18.066,0.000
3125.000,-15.625,-23.926,-27.344,-28.809,0.000
3129.000,-19.043,-28.320,-27.832,-34.668,0.000
3133.000,-31.738,-27.344,-31.738,-23.926,0.000
3137.000,-27.832,-25.391,-29.297,-21.973,0.000
3141.000,-19.531,-23.438,-27.344,-25.391,0.000
3144.000,-29.297,-25.391,-31.738,-24.414,0.000
3148.000,-38.574,-25.391,-35.645,-32.715,0.000
3152.000,-43.945,-28.809,-37.598,-33.203,0.000
3156.000,-43.457,-25.879,-38.574,-31.250,0.000
3160.000,-23.438,-17.090,-37.109,-25.391,0.000
3164.000,-31.250,-19.043,-41.504,-20.020,0.000
3168.000,-42.480,-26.367,-40.039,-23.438,0.000
3172.000,-33.691,-24.902,-38.574,-29.297,0.000
3176.000,-27.344,-18.066,-40.527,-22.949,0.000
3180.000,-33.691,-20.508,-40.527,-27.344,0.000
3184.000,-44.922,-32.715,-38.086,-29.297,0.000
3187.000,-40.527,-31.250,-33.203,-23.438,0.000
3191.000,-41.992,-20.508,-31.738,-30.762,0.000
3195.000,-46.875,-22.949,-31.738,-25.391,0.000
3199.000,-44.434,-27.344,-35.156,-25.391,0.000
3203.000,-47.363,-23.438,-37.598,-27.344,0.000
3207.000,-40.527,-24.414,-33.203,-23.926,0.000
3211.000,-39.551,-29.785,-29.297,-38.574,0.000
3215.000,-49.805,-26.855,-25.879,-51.270,0.000
3219.000,-50.781,-21.973,-29.297,-49.316,0.000
3223.000,-49.805,-24.902,-42.480,-46.387,0.000
3226.000,-48.828,-28.320,-40.039,-50.293,0.000
3230.000,-38.086,-25.879,-34.180,-46.387,0.000
3234.000,-21.973,-28.320,-32.715,-42.480,0.000
3238.000,-39.551,-27.832,-30.273,-38.574,0.000
3242.000,-62.012,-25.391,-32.227,-33.203,0.000
3246.000,-54.199,-28.809,-32.715,-33.691,0.000
3250.000,-55.176,-27.832,-30.273,-32.715,0.000
3254.000,-46.387,-25.391,-27.344,-25.879,0.000
3258.000,-41.016,-24.414,-30.762,-27.832,0.000
3262.000,-49.316,-31.250,-36.133,-30.762,0.000
3266.000,-48.828,-32.227,-32.715,-33.203,0.000
3269.000,-51.270,-27.344,-31.738,-35.645,0.000
3273.000,-54.199,-22.461,-33.203,-27.832,0.000
3277.000,-52.734,-16.602,-27.832,-23.438,0.000
3281.000,-52.246,-18.066,-26.367,-26.367,0.000
3285.000,-48.828,-21.973,-31.250,-25.879,0.000
3289.000,-35.645,-25.391,-37.598,-25.879,0.000
3293.000,-28.320,-21.973,-36.621,-22.461,0.000
3297.000,-34.180,-16.602,-34.180,-25.391,0.000
3301.000,-43.457,-17.578,-35.645,-41.504,0.000
3305.000,-33.691,-22.461,-36.133,-47.363,0.000
3309.000,-27.344,-27.832,-37.109,-47.363,0.000
3312.000,-23.438,-32.227,-34.668,-50.781,0.000
3316.000,-23.926,-26.367,-33.203,-50.781,0.000
3320.000,-31.738,-28.809,-36.621,-45.898,0.000
3324.000,-32.715,-32.715,-40.039,-42.480,0.000
3328.000,-36.133,-32.227,-40.527,-36.621,0.000
3332.000,-35.156,-26.367,-37.109,-30.762,0.000
3336.000,-29.785,-25.391,-31.738,-27.832,0.000
3340.000,-31.738,-28.320,-32.715,-23.438,0.000
3344.000,-42.969,-26.855,-40.039,-25.879,0.000
3348.000,-55.176,-29.785,-38.086,-31.250,0.000
3351.000,-52.246,-29.785,-31.250,-24.414,0.000
3355.000,-36.621,-24.902,-32.227,-4.395,0.000
3359.000,-31.738,-23.926,-36.133,-0.977,0.000
3363.000,-29.297,-20.996,-36.133,-20.508,0.000
3367.000,-19.531,-17.090,-32.715,-25.391,0.000
3371.000,-27.344,-22.949,-37.598,-27.344,0.000
3375.000,-31.738,-26.855,-37.109,-25.879,0.000
3379.000,-26.367,-27.344,-32.715,-29.297,0.000
3383.000,-41.992,-28.809,-35.156,-47.852,0.000
3387.000,-53.711,-28.320,-35.645,-49.805,0.000
3391.000,-45.410,-26.367,-35.156,-35.645,0.000
3394.000,-31.250,-23.926,-32.715,-37.109,0.000
3398.000,-27.344,-20.020,-31.738,-33.691,0.000
3402.000,-31.738,-19.043,-37.598,-24.414,0.000
3406.000,-31.738,-19.043,-40.527,-33.203,0.000
3410.000,-25.879,-20.020,-41.016,-26.855,0.000
3414.000,-24.414,-18.555,-39.062,-16.113,0.000
3418.000,-32.715,-17.578,-37.109,-20.508,0.000
