timestamp,TP9,AF7,AF8,TP10,Right AUX
0.000,-10.742,-35.156,-28.320,-3.906,0.000
4.000,-6.836,-26.855,-26.855,10.742,0.000
8.000,-3.906,-22.949,-21.484,13.184,0.000
12.000,-23.438,-25.391,-22.949,-6.836,0.000
16.000,-22.461,-21.973,-24.414,-8.789,0.000
20.000,-12.695,-19.531,-23.438,-4.395,0.000
23.000,-18.066,-20.996,-26.367,-18.066,0.000
27.000,-22.949,-21.484,-26.855,-20.996,0.000
31.000,-26.855,-29.785,-24.414,-9.277,0.000
35.000,-28.320,-32.227,-22.461,-9.766,0.000
39.000,-31.738,-24.902,-20.996,-17.578,0.000
43.000,-39.062,-28.320,-10.742,-23.438,0.000
47.000,-36.133,-28.809,-8.789,-25.391,0.000
51.000,-31.738,-19.531,-23.438,-41.992,0.000
55.000,-40.039,-24.414,-20.020,-50.293,0.000
59.000,-40.039,-41.992,-8.301,-49.805,0.000
62.000,-42.480,-41.992,-18.066,-60.547,0.000
66.000,-62.012,-20.996,-27.344,-63.477,0.000
70.000,-71.289,-20.996,-24.414,-51.758,0.000
74.000,-77.637,-40.527,-26.367,-55.176,0.000
78.000,-70.801,-41.504,-35.645,-62.012,0.000
82.000,-72.266,-44.434,-36.133,-71.777,0.000
86.000,-78.125,-39.551,-32.227,-74.707,0.000
90.000,-67.871,-32.715,-34.180,-69.336,0.000
94.000,-57.129,-32.715,-35.645,-66.895,0.000
98.000,-55.176,-35.645,-30.762,-64.453,0.000
102.000,-62.988,-36.133,-30.762,-56.641,0.000
105.000,-63.477,-34.180,-24.902,-44.922,0.000
109.000,-62.012,-34.180,-19.043,-39.551,0.000
113.000,-57.617,-31.738,-20.508,-29.297,0.000
117.000,-41.016,-28.320,-21.484,-27.344,0.000
121.000,-30.762,-27.344,-18.066,-28.320,0.000
125.000,-28.320,-22.949,-17.090,-27.344,0.000
129.000,-21.484,-18.555,-17.090,-33.691,0.000
133.000,-9.277,-13.672,-15.137,-21.973,0.000
137.000,3.418,-8.301,-12.695,-2.441,0.000
141.000,-4.395,-8.789,-14.160,-11.230,0.000
145.000,-11.719,-10.254,-19.043,-17.090,0.000
148.000,-3.906,-11.230,-21.973,-19.531,0.000
152.000,9.277,-7.324,-22.461,-20.020,0.000
156.000,4.883,-9.277,-27.832,-31.250,0.000
160.000,-4.395,-13.184,-29.297,-42.969,0.000
164.000,0.488,-9.766,-26.855,-37.109,0.000
168.000,1.953,-10.254,-24.902,-32.715,0.000
172.000,-17.578,-16.602,-26.855,-30.273,0.000
176.000,-23.438,-15.625,-28.320,-22.949,0.000
180.000,-14.648,-13.672,-26.367,-21.973,0.000
184.000,-15.625,-21.484,-25.879,-25.879,0.000
187.000,-20.508,-21.484,-27.344,-26.367,0.000
191.000,-28.809,-20.996,-25.879,-28.320,0.000
195.000,-41.016,-26.367,-16.602,-25.879,0.000
199.000,-46.875,-26.855,-14.160,-17.578,0.000
203.000,-47.852,-27.832,-16.602,-14.648,0.000
207.000,-41.016,-26.855,-17.090,-11.230,0.000
211.000,-30.762,-20.020,-20.508,-19.043,0.000
215.000,-25.879,-24.902,-20.508,-15.137,0.000
219.000,-18.066,-32.227,-14.648,-1.465,0.000
223.000,-12.695,-26.855,-12.207,3.906,0.000
227.000,-11.719,-26.855,-14.160,3.906,0.000
230.000,-8.789,-30.273,-13.672,0.000,0.000
234.000,-10.742,-23.438,-18.066,-4.883,0.000
238.000,-8.301,-21.973,-21.973,-15.625,0.000
242.000,-14.648,-28.809,-20.020,-31.250,0.000
246.000,-19.531,-28.320,-20.020,-30.762,0.000
250.000,-26.855,-23.926,-18.066,-25.391,0.000
254.000,-37.598,-25.879,-16.602,-24.902,0.000
258.000,-30.762,-26.855,-17.090,-21.484,0.000
262.000,-2.930,-21.484,-19.531,-13.672,0.000
266.000,22.949,-15.137,-22.461,0.977,0.000
270.000,-1.953,-13.672,-22.461,-2.441,0.000
273.000,-41.504,-22.461,-17.578,-22.461,0.000
277.000,-43.945,-24.902,-18.066,-26.367,0.000
281.000,-36.621,-19.043,-23.926,-23.438,0.000
285.000,-33.203,-20.996,-26.367,-28.809,0.000
289.000,-29.785,-22.949,-28.320,-29.785,0.000
293.000,-30.273,-22.461,-27.832,-24.902,0.000
297.000,-33.203,-23.926,-22.949,-22.949,0.000
301.000,-36.133,-22.461,-24.414,-22.949,0.000
305.000,-38.086,-25.391,-32.227,-28.320,0.000
309.000,-34.668,-19.531,-32.227,-33.203,0.000
312.000,-29.297,-17.090,-24.902,-38.574,0.000
316.000,-27.344,-23.926,-23.438,-33.203,0.000
320.000,-34.180,-26.367,-28.809,-38.086,0.000
324.000,-38.574,-22.461,-35.645,-52.734,0.000
328.000,-29.785,-23.926,-29.297,-46.875,0.000
332.000,-29.297,-29.785,-25.391,-36.133,0.000
336.000,-29.785,-30.762,-33.203,-42.480,0.000
340.000,-30.273,-26.855,-30.273,-43.457,0.000
344.000,-32.227,-22.461,-23.926,-40.039,0.000
348.000,-28.320,-22.949,-25.391,-36.621,0.000
352.000,-33.203,-24.414,-25.391,-26.367,0.000
355.000,-35.645,-25.391,-27.344,-25.391,0.000
359.000,-25.391,-27.832,-29.297,-39.551,0.000
363.000,-33.203,-37.109,-31.250,-47.363,0.000
367.000,-54.199,-38.086,-32.715,-40.039,0.000
371.000,-66.895,-30.273,-31.738,-39.062,0.000
375.000,-69.336,-27.832,-30.762,-44.434,0.000
379.000,-59.082,-22.949,-21.973,-39.551,0.000
383.000,-45.410,-21.484,-21.484,-28.809,0.000
387.000,-32.227,-22.949,-20.996,-16.113,0.000
391.000,-31.738,-19.531,-13.184,-10.742,0.000
395.000,-32.715,-22.949,-13.184,-14.648,0.000
398.000,-31.250,-33.203,-20.020,-24.414,0.000
402.000,-25.391,-30.762,-19.531,-23.438,0.000
406.000,-21.484,-24.414,-20.020,-16.113,0.000
410.000,-20.508,-23.926,-27.344,-34.180,0.000
414.000,-21.484,-24.414,-30.762,-43.457,0.000
418.000,-12.207,-23.926,-29.297,-34.180,0.000
422.000,-7.812,-20.508,-30.273,-33.203,0.000
426.000,-22.949,-19.531,-34.180,-38.086,0.000
430.000,-20.508,-17.578,-30.762,-37.598,0.000
434.000,-6.348,-16.602,-25.879,-23.926,0.000
437.000,-9.277,-23.438,-30.273,-15.625,0.000
441.000,-23.926,-29.785,-32.715,-24.902,0.000
445.000,-30.762,-32.227,-35.645,-36.133,0.000
449.000,-26.367,-28.320,-31.250,-27.832,0.000
453.000,-27.344,-29.785,-23.438,-23.438,0.000
457.000,-28.320,-28.809,-27.832,-32.715,0.000
461.000,-23.926,-27.832,-30.273,-34.668,0.000
465.000,-20.996,-31.250,-24.902,-25.879,0.000
469.000,-21.973,-29.297,-25.879,-25.391,0.000
473.000,-29.297,-29.785,-27.832,-21.484,0.000
477.000,-42.969,-34.180,-24.902,-12.695,0.000
480.000,-36.621,-39.062,-24.902,-15.137,0.000
484.000,-19.043,-38.574,-24.414,-16.602,0.000
488.000,-15.625,-32.227,-20.020,-12.695,0.000
492.000,-25.879,-31.250,-14.648,-16.602,0.000
496.000,-31.250,-34.668,-18.555,-23.438,0.000
500.000,-28.320,-37.598,-19.531,-19.531,0.000
504.000,-22.461,-38.574,-16.602,-18.555,0.000
508.000,-29.785,-32.227,-15.137,-21.973,0.000
512.000,-40.039,-30.762,-16.113,-33.691,0.000
516.000,-27.832,-31.738,-15.137,-32.715,0.000
520.000,-19.043,-32.227,-14.648,-16.602,0.000
523.000,-22.461,-41.992,-18.555,-21.973,0.000
527.000,-18.555,-42.969,-20.020,-33.203,0.000
531.000,-19.531,-37.598,-20.020,-32.227,0.000
535.000,-27.832,-36.133,-22.949,-30.273,0.000
539.000,-29.297,-30.762,-19.531,-31.738,0.000
543.000,-46.875,-36.133,-21.973,-39.551,0.000
547.000,-44.922,-41.016,-24.902,-44.922,0.000
551.000,-19.531,-36.621,-21.484,-32.715,0.000
555.000,-25.879,-36.621,-18.555,-37.598,0.000
559.000,-30.273,-33.691,-17.578,-62.988,0.000
562.000,-35.156,-35.645,-20.508,-76.660,0.000
566.000,-41.504,-38.574,-18.066,-71.777,0.000
570.000,-47.363,-30.762,-18.555,-73.242,0.000
574.000,-57.617,-28.320,-19.531,-70.801,0.000
578.000,-57.617,-30.273,-19.531,-78.613,0.000
582.000,-52.734,-30.762,-24.902,-83.008,0.000
586.000,-58.105,-36.621,-25.879,-72.754,0.000
590.000,-60.059,-41.992,-22.949,-79.102,0.000
594.000,-70.312,-40.039,-24.902,-91.309,0.000
598.000,-83.496,-44.434,-28.809,-86.914,0.000
602.000,-72.266,-44.434,-27.832,-71.777,0.000
605.000,-50.293,-41.504,-31.738,-69.336,0.000
609.000,-46.387,-44.434,-37.598,-77.637,0.000
613.000,-42.480,-42.480,-32.227,-75.684,0.000
617.000,-41.016,-33.691,-27.344,-65.430,0.000
621.000,-49.316,-27.832,-26.367,-54.688,0.000
625.000,-50.293,-28.320,-27.344,-51.758,0.000
629.000,-46.875,-28.809,-27.832,-51.270,0.000
633.000,-35.156,-26.855,-32.715,-51.758,0.000
637.000,-35.645,-29.785,-36.133,-53.711,0.000
641.000,-43.457,-30.273,-28.320,-47.363,0.000
644.000,-41.016,-26.855,-20.508,-40.039,0.000
648.000,-40.527,-30.273,-24.414,-41.992,0.000
652.000,-40.527,-31.738,-29.297,-37.598,0.000
656.000,-39.551,-32.227,-28.320,-39.551,0.000
660.000,-27.832,-35.156,-35.156,-33.691,0.000
664.000,-21.973,-38.574,-39.551,-32.227,0.000
668.000,-18.555,-38.086,-37.109,-24.902,0.000
672.000,-8.301,-31.250,-41.504,-6.348,0.000
676.000,-0.488,-30.273,-46.875,-9.766,0.000
680.000,12.695,-34.668,-44.434,-15.137,0.000
684.000,24.902,-27.832,-39.062,-6.348,0.000
687.000,11.719,-23.926,-30.273,3.418,0.000
691.000,-5.859,-28.320,-32.227,11.230,0.000
695.000,-6.348,-28.809,-35.645,2.930,0.000
699.000,1.465,-26.855,-30.762,-5.371,0.000
703.000,13.672,-31.250,-32.227,6.836,0.000
707.000,17.090,-30.273,-33.691,9.766,0.000
711.000,-0.488,-30.273,-31.250,6.836,0.000
715.000,5.371,-29.785,-26.855,25.879,0.000
719.000,6.348,-31.250,-27.832,16.113,0.000
723.000,-25.391,-40.527,-34.668,-7.812,0.000
727.000,-20.996,-55.664,-38.086,-6.836,0.000
730.000,-22.949,-61.523,-45.410,-14.160,0.000
734.000,-22.949,-42.969,-42.480,-19.531,0.000
738.000,-12.695,-26.367,-32.715,-22.949,0.000
742.000,-23.438,-32.227,-17.578,-34.668,0.000
746.000,-33.691,-32.227,-15.137,-38.574,0.000
750.000,-46.875,-24.902,-38.574,-33.203,0.000
754.000,-53.223,-37.109,-45.898,-42.480,0.000
758.000,-53.711,-47.363,-34.180,-51.270,0.000
762.000,-56.152,-34.180,-27.832,-46.875,0.000
766.000,-45.410,-36.621,-26.367,-41.016,0.000
769.000,-46.387,-42.480,-24.414,-41.016,0.000
773.000,-51.758,-41.992,-18.066,-57.129,0.000
777.000,-41.992,-44.922,-20.508,-64.941,0.000
781.000,-39.062,-49.316,-23.926,-44.922,0.000
785.000,-48.340,-44.922,-21.484,-38.574,0.000
789.000,-51.270,-42.480,-20.996,-52.734,0.000
793.000,-51.758,-49.316,-20.508,-48.340,0.000
797.000,-48.340,-56.152,-22.461,-36.621,0.000
801.000,-30.273,-45.410,-18.066,-27.832,0.000
805.000,-29.297,-23.438,-13.672,-19.531,0.000
809.000,-36.621,-32.227,-24.414,-39.062,0.000
812.000,-22.949,-36.621,-29.297,-43.457,0.000
816.000,-19.531,-33.691,-24.902,-32.227,0.000
820.000,-30.762,-38.086,-26.855,-34.180,0.000
824.000,-25.391,-37.109,-28.809,-41.016,0.000
828.000,-20.020,-34.668,-29.297,-41.992,0.000
832.000,-24.414,-32.715,-29.785,-34.180,0.000
836.000,-38.086,-41.016,-26.367,-23.926,0.000
840.000,-36.133,-44.434,-24.902,-21.973,0.000
844.000,-23.926,-34.668,-25.391,-23.438,0.000
848.000,-16.602,-30.762,-24.414,-32.715,0.000
852.000,-21.484,-32.227,-16.602,-23.438,0.000
855.000,-32.715,-34.180,-14.648,-6.836,0.000
859.000,-26.367,-35.156,-18.066,-8.301,0.000
863.000,-21.484,-32.227,-16.602,-12.695,0.000
867.000,-7.812,-26.855,-16.113,-14.648,0.000
871.000,7.812,-24.902,-10.742,-3.906,0.000
875.000,-9.277,-27.832,-13.672,-18.066,0.000
879.000,-17.090,-30.273,-16.602,-25.391,0.000
883.000,-12.207,-31.738,-14.160,-20.020,0.000
887.000,-7.812,-28.320,-18.555,-16.113,0.000
891.000,-18.555,-27.832,-19.531,-15.625,0.000
894.000,-17.090,-23.926,-20.020,-20.020,0.000
898.000,3.418,-13.184,-18.066,-20.508,0.000
902.000,10.254,-15.137,-17.578,-19.043,0.000
906.000,8.789,-20.020,-22.949,-15.625,0.000
910.000,5.859,-20.996,-17.578,-20.508,0.000
914.000,-5.371,-27.832,-12.695,-23.926,0.000
918.000,-19.043,-31.250,-14.648,-12.207,0.000
922.000,-29.297,-31.250,-15.625,-15.137,0.000
926.000,-33.691,-35.645,-23.438,-21.973,0.000
930.000,-29.785,-35.156,-28.809,-28.809,0.000
934.000,-28.809,-29.785,-26.855,-33.203,0.000
937.000,-22.461,-30.273,-26.367,-34.668,0.000
941.000,-17.578,-30.762,-26.367,-32.715,0.000
945.000,-14.160,-25.391,-24.414,-33.691,0.000
949.000,-24.902,-33.203,-27.832,-38.086,0.000
953.000,-45.898,-39.062,-32.227,-36.133,0.000
957.000,-52.246,-36.621,-34.668,-37.109,0.000
961.000,-49.316,-37.109,-34.180,-35.645,0.000
965.000,-38.574,-32.715,-32.715,-37.109,0.000
969.000,-28.320,-28.809,-28.320,-31.738,0.000
973.000,-25.879,-29.297,-26.855,-31.250,0.000
977.000,-24.902,-29.785,-27.832,-28.809,0.000
980.000,-15.625,-32.227,-25.879,-15.625,0.000
984.000,-12.207,-31.738,-21.973,-12.207,0.000
988.000,-33.203,-35.645,-24.902,-27.832,0.000
992.000,-41.504,-34.668,-30.273,-41.992,0.000
996.000,-30.273,-25.879,-27.832,-41.992,0.000
1000.000,-11.719,-21.484,-23.438,-21.973,0.000
1004.000,-7.812,-18.555,-24.414,-8.789,0.000
1008.000,-17.090,-20.508,-24.902,-24.414,0.000
1012.000,0.977,-18.066,-23.438,-29.785,0.000
1016.000,8.301,-15.137,-26.855,-20.508,0.000
1019.000,-7.812,-18.555,-25.879,-22.461,0.000
1023.000,-15.137,-21.973,-22.949,-25.391,0.000
1027.000,-11.230,-23.926,-30.762,-40.039,0.000
1031.000,-1.465,-23.438,-27.344,-33.691,0.000
1035.000,4.395,-21.484,-20.020,-14.648,0.000
1039.000,-11.719,-25.391,-19.043,-21.484,0.000
1043.000,-29.785,-30.273,-18.555,-24.414,0.000
1047.000,-25.879,-24.414,-17.090,-25.391,0.000
1051.000,-20.020,-21.484,-12.207,-20.508,0.000
1055.000,-22.461,-22.949,-14.648,-15.137,0.000
1059.000,-17.090,-17.578,-9.277,-12.207,0.000
1062.000,-20.020,-18.555,-4.395,-17.578,0.000
1066.000,-28.320,-25.391,-10.742,-22.461,0.000
1070.000,-35.645,-33.203,-15.137,-20.508,0.000
1074.000,-36.133,-38.574,-27.832,-34.668,0.000
1078.000,-33.691,-39.062,-36.621,-45.898,0.000
1082.000,-25.391,-37.598,-31.250,-40.039,0.000
1086.000,-20.996,-39.062,-26.855,-36.621,0.000
1090.000,-33.203,-35.645,-31.250,-47.363,0.000
1094.000,-39.062,-34.668,-35.645,-51.758,0.000
1098.000,-34.180,-39.551,-33.691,-43.457,0.000
1102.000,-37.598,-44.922,-34.180,-44.434,0.000
1105.000,-36.133,-45.898,-31.738,-43.945,0.000
1109.000,-36.133,-45.410,-28.809,-39.062,0.000
1113.000,-37.109,-40.039,-33.691,-38.574,0.000
1117.000,-30.273,-35.645,-33.203,-37.598,0.000
1121.000,-27.344,-39.062,-31.250,-37.598,0.000
1125.000,-29.785,-36.621,-31.738,-40.527,0.000
1129.000,-25.879,-29.297,-31.738,-48.340,0.000
1133.000,-12.207,-26.855,-32.227,-41.016,0.000
1137.000,-11.230,-29.785,-29.297,-25.391,0.000
1141.000,-26.855,-35.156,-27.832,-28.809,0.000
1144.000,-36.621,-33.691,-31.250,-39.062,0.000
1148.000,-38.574,-37.109,-35.645,-39.551,0.000
1152.000,-45.898,-43.945,-35.156,-32.227,0.000
1156.000,-39.062,-41.016,-35.156,-31.250,0.000
1160.000,-34.668,-41.992,-35.156,-34.180,0.000
1164.000,-36.621,-42.480,-30.762,-35.156,0.000
1168.000,-41.504,-46.875,-32.227,-25.391,0.000
1172.000,-40.039,-52.734,-34.180,-27.344,0.000
1176.000,-28.809,-51.758,-30.762,-44.434,0.000
1180.000,-32.715,-46.875,-27.344,-44.922,0.000
1184.000,-48.340,-45.410,-31.738,-33.203,0.000
1187.000,-63.477,-46.875,-34.180,-26.855,0.000
1191.000,-57.617,-48.828,-30.273,-34.668,0.000
1195.000,-44.922,-44.922,-28.809,-36.621,0.000
1199.000,-32.227,-39.062,-28.809,-22.949,0.000
1203.000,-27.832,-39.551,-27.344,-20.508,0.000
1207.000,-26.367,-30.273,-17.578,-19.043,0.000
1211.000,-13.184,-16.602,-12.207,-11.230,0.000
1215.000,-18.066,-21.484,-20.508,-13.672,0.000
1219.000,-30.273,-25.391,-25.879,-17.578,0.000
1223.000,-30.762,-24.414,-22.461,-21.973,0.000
1227.000,-35.156,-27.344,-24.414,-30.762,0.000
1230.000,-39.551,-35.156,-28.320,-40.527,0.000
1234.000,-25.391,-31.738,-24.414,-25.879,0.000
1238.000,-24.902,-26.855,-26.855,-16.602,0.000
1242.000,-25.391,-20.020,-23.926,-18.555,0.000
1246.000,-14.160,-19.043,-19.531,-21.973,0.000
1250.000,-16.113,-20.020,-19.531,-18.066,0.000
1254.000,-22.949,-20.508,-20.508,-16.113,0.000
1258.000,-23.438,-25.391,-26.367,-29.785,0.000
1262.000,-19.043,-30.273,-27.832,-32.227,0.000
1266.000,-19.043,-33.203,-24.902,-32.715,0.000
1269.000,-25.879,-30.762,-26.855,-24.902,0.000
1273.000,-25.879,-29.297,-26.855,-15.625,0.000
1277.000,-26.367,-32.227,-23.926,-26.367,0.000
1281.000,-22.461,-28.809,-19.043,-22.461,0.000
1285.000,-23.926,-25.879,-17.090,-10.254,0.000
1289.000,-32.715,-27.832,-21.484,-16.113,0.000
1293.000,-31.738,-33.203,-23.438,-20.020,0.000
1297.000,-20.508,-26.367,-14.648,-16.113,0.000
1301.000,-21.484,-24.902,-15.137,-20.020,0.000
1305.000,-33.691,-28.809,-21.973,-10.254,0.000
1309.000,-33.691,-30.273,-19.043,-6.836,0.000
1312.000,-35.645,-34.668,-19.043,-16.113,0.000
1316.000,-21.973,-31.738,-16.602,-1.465,0.000
1320.000,-9.766,-29.785,-16.602,5.371,0.000
1324.000,-14.648,-26.367,-19.043,0.000,0.000
1328.000,-8.789,-14.648,-16.113,-0.977,0.000
1332.000,-2.441,-13.184,-18.555,0.488,0.000
1336.000,-9.766,-24.902,-23.926,6.836,0.000
1340.000,-19.531,-24.414,-23.438,0.488,0.000
1344.000,-5.371,-17.090,-19.043,-0.977,0.000
1348.000,7.812,-13.672,-13.184,13.672,0.000
1351.000,-12.695,-12.695,-15.625,-2.441,0.000
1355.000,-19.531,-10.742,-18.555,-20.020,0.000
1359.000,-4.883,-10.742,-18.066,-22.949,0.000
1363.000,-5.859,-15.137,-18.555,-35.645,0.000
1367.000,-29.785,-20.020,-17.578,-36.621,0.000
1371.000,-34.668,-14.648,-13.672,-21.973,0.000
1375.000,-34.180,-16.602,-15.625,-31.250,0.000
1379.000,-34.668,-14.648,-20.020,-41.504,0.000
1383.000,-30.273,-12.207,-17.090,-32.715,0.000
1387.000,-40.527,-13.672,-15.625,-22.461,0.000
1391.000,-46.387,-15.625,-20.020,-34.180,0.000
1394.000,-38.086,-24.902,-14.160,-50.781,0.000
1398.000,-35.645,-23.438,-19.531,-55.664,0.000
1402.000,-54.688,-25.879,-28.320,-64.453,0.000
1406.000,-57.129,-26.855,-26.855,-61.035,0.000
1410.000,-43.457,-24.902,-25.879,-54.688,0.000
1414.000,-49.805,-35.645,-38.574,-64.453,0.000
1418.000,-56.152,-25.391,-39.062,-51.758,0.000
1422.000,-59.082,-26.367,-29.297,-41.992,0.000
1426.000,-50.781,-46.387,-33.203,-48.340,0.000
1430.000,-44.922,-44.922,-31.738,-39.062,0.000
1434.000,-46.387,-30.273,-30.762,-31.250,0.000
1437.000,-46.875,-32.227,-27.832,-23.438,0.000
1441.000,-42.969,-34.180,-13.672,-16.113,0.000
1445.000,-40.039,-29.297,-12.695,-25.879,0.000
1449.000,-32.715,-41.504,-23.438,-26.855,0.000
1453.000,-17.090,-45.898,-27.344,-11.230,0.000
1457.000,-17.578,-41.016,-26.367,-12.695,0.000
1461.000,-23.438,-43.457,-25.391,-17.578,0.000
1465.000,-16.113,-37.109,-23.438,-6.836,0.000
1469.000,-7.324,-30.273,-24.414,5.859,0.000
1473.000,1.465,-26.367,-24.902,7.324,0.000
1476.000,1.953,-26.367,-24.902,1.953,0.000
1480.000,6.348,-28.320,-19.043,2.441,0.000
1484.000,13.672,-27.832,-16.602,18.555,0.000
1488.000,5.859,-28.320,-25.391,17.090,0.000
1492.000,1.953,-30.273,-32.227,1.465,0.000
1496.000,-1.465,-29.297,-31.250,1.465,0.000
1500.000,-3.418,-25.391,-27.344,0.488,0.000
1504.000,5.859,-24.902,-31.738,-7.324,0.000
1508.000,14.160,-26.367,-34.668,-14.648,0.000
1512.000,16.113,-27.344,-38.086,-19.531,0.000
1516.000,10.742,-29.785,-39.551,-21.973,0.000
1519.000,1.465,-25.391,-39.551,-16.113,0.000
1523.000,-6.836,-23.438,-37.598,-12.207,0.000
1527.000,-10.742,-26.367,-26.855,-16.113,0.000
1531.000,-14.160,-21.973,-26.855,-4.395,0.000
1535.000,-18.066,-19.531,-32.227,-3.906,0.000
1539.000,-17.090,-22.949,-29.297,-8.789,0.000
1543.000,-21.484,-30.762,-25.879,-10.742,0.000
1547.000,-28.320,-35.156,-24.902,-24.414,0.000
1551.000,-27.344,-32.715,-23.438,-15.625,0.000
1555.000,-27.832,-28.809,-21.484,-9.766,0.000
1559.000,-35.156,-29.785,-23.926,-17.578,0.000
1562.000,-35.645,-34.180,-26.367,-19.531,0.000
1566.000,-27.832,-29.297,-20.508,-18.555,0.000
1570.000,-25.391,-29.297,-20.020,-12.695,0.000
1574.000,-21.484,-33.691,-21.973,-18.066,0.000
1578.000,-15.137,-31.738,-20.508,-32.715,0.000
1582.000,-17.578,-35.645,-20.996,-34.180,0.000
1586.000,-28.320,-34.668,-18.555,-23.438,0.000
1590.000,-31.738,-32.227,-20.996,-26.367,0.000
1594.000,-44.434,-32.715,-26.855,-27.832,0.000
1598.000,-46.387,-32.715,-26.855,-29.297,0.000
1601.000,-32.227,-36.133,-30.273,-32.227,0.000
1605.000,-23.438,-35.156,-32.715,-19.043,0.000
1609.000,-21.484,-32.227,-28.809,-20.508,0.000
1613.000,-28.809,-33.691,-34.668,-25.391,0.000
1617.000,-32.227,-38.574,-39.062,-15.137,0.000
1621.000,-20.508,-38.574,-37.598,-10.254,0.000
1625.000,-17.578,-37.109,-33.691,-19.043,0.000
1629.000,-17.090,-32.715,-28.320,-21.973,0.000
1633.000,-22.461,-35.156,-29.297,-13.672,0.000
1637.000,-30.273,-44.434,-32.227,-13.184,0.000
1641.000,-40.527,-41.504,-30.273,-27.832,0.000
1644.000,-41.016,-34.668,-29.297,-30.762,0.000
1648.000,-36.133,-33.691,-30.273,-24.414,0.000
1652.000,-35.156,-33.203,-32.715,-27.832,0.000
1656.000,-30.762,-29.785,-31.250,-36.621,0.000
1660.000,-25.391,-29.297,-30.273,-33.203,0.000
1664.000,-21.973,-25.879,-32.715,-20.020,0.000
1668.000,-10.742,-22.949,-29.297,-8.301,0.000
1672.000,-12.695,-29.297,-34.180,-19.043,0.000
1676.000,-36.621,-37.109,-39.551,-42.480,0.000
1680.000,-41.992,-43.457,-37.109,-35.156,0.000
1683.000,-28.320,-35.645,-37.598,-20.020,0.000
1687.000,-29.297,-24.414,-35.645,-21.484,0.000
1691.000,-42.969,-27.832,-38.574,-31.250,0.000
1695.000,-40.039,-30.762,-41.016,-28.809,0.000
1699.000,-24.414,-22.461,-35.156,-18.555,0.000
1703.000,-20.508,-20.996,-34.668,-15.137,0.000
1707.000,-25.391,-30.762,-37.598,-23.926,0.000
1711.000,-20.020,-33.203,-38.574,-20.508,0.000
1715.000,-11.719,-28.809,-33.691,-10.742,0.000
1719.000,-12.207,-31.738,-31.738,-13.672,0.000
1723.000,-0.977,-31.250,-32.227,-23.926,0.000
1726.000,16.113,-23.926,-34.180,-20.020,0.000
1730.000,6.348,-20.020,-30.273,-15.625,0.000
1734.000,-18.066,-25.391,-31.250,-20.996,0.000
1738.000,-32.715,-28.320,-33.203,-21.484,0.000
1742.000,-42.480,-32.227,-34.668,-27.832,0.000
1746.000,-31.250,-29.297,-39.062,-23.438,0.000
1750.000,-22.949,-29.297,-34.180,-22.461,0.000
1754.000,-31.738,-33.203,-31.738,-28.809,0.000
1758.000,-33.691,-32.715,-38.086,-26.367,0.000
1762.000,-34.180,-31.250,-38.574,-33.203,0.000
1766.000,-32.715,-30.273,-31.250,-25.391,0.000
1769.000,-36.621,-31.738,-25.391,-10.254,0.000
1773.000,-48.340,-34.180,-27.832,-20.996,0.000
1777.000,-49.316,-27.832,-29.785,-31.250,0.000
1781.000,-41.992,-26.855,-32.715,-37.598,0.000
1785.000,-41.992,-32.715,-38.086,-42.480,0.000
1789.000,-50.293,-31.738,-35.645,-45.898,0.000
1793.000,-49.316,-28.320,-34.180,-50.293,0.000
1797.000,-35.156,-28.320,-36.133,-48.340,0.000
1801.000,-34.668,-34.180,-37.598,-48.828,0.000
1805.000,-43.945,-32.715,-34.668,-45.898,0.000
1808.000,-44.922,-27.344,-27.832,-49.805,0.000
1812.000,-31.250,-26.367,-24.414,-48.828,0.000
1816.000,-10.742,-21.484,-25.879,-25.391,0.000
1820.000,-17.090,-19.531,-25.879,-26.855,0.000
1824.000,-49.316,-26.367,-18.555,-43.457,0.000
1828.000,-66.895,-31.250,-18.555,-48.828,0.000
1832.000,-41.504,-32.715,-21.973,-40.039,0.000
1836.000,-27.344,-27.832,-22.949,-35.156,0.000
1840.000,-32.227,-28.809,-26.855,-33.203,0.000
1844.000,-29.297,-33.203,-26.855,-33.203,0.000
1848.000,-28.809,-34.668,-22.461,-35.645,0.000
1851.000,-31.250,-37.598,-21.973,-29.785,0.000
1855.000,-49.316,-42.480,-23.926,-38.086,0.000
1859.000,-49.805,-42.480,-25.879,-42.480,0.000
1863.000,-41.504,-42.480,-23.926,-36.621,0.000
1867.000,-33.203,-42.480,-20.996,-38.086,0.000
1871.000,-27.344,-40.039,-21.484,-34.180,0.000
1875.000,-30.762,-39.551,-21.973,-29.297,0.000
1879.000,-35.645,-37.109,-21.973,-33.691,0.000
1883.000,-32.227,-29.297,-18.066,-29.297,0.000
1887.000,-24.902,-23.438,-14.648,-15.137,0.000
1891.000,-29.785,-28.320,-18.066,-30.273,0.000
1894.000,-30.762,-30.273,-25.391,-47.363,0.000
1898.000,-27.344,-36.133,-25.879,-45.410,0.000
1902.000,-26.855,-35.156,-14.160,-39.551,0.000
1906.000,-31.738,-33.203,-15.137,-39.062,0.000
1910.000,-40.039,-32.227,-18.066,-49.316,0.000
1914.000,-41.504,-32.715,-16.602,-53.223,0.000
1918.000,-37.109,-35.645,-17.578,-39.551,0.000
1922.000,-39.551,-30.762,-17.090,-30.762,0.000
1926.000,-45.898,-30.762,-16.602,-31.738,0.000
1930.000,-39.062,-31.738,-15.625,-32.715,0.000
1933.000,-26.367,-31.250,-15.137,-29.785,0.000
1937.000,-29.785,-29.785,-14.648,-19.043,0.000
1941.000,-37.598,-28.320,-11.230,-17.090,0.000
1945.000,-43.945,-34.668,-11.230,-22.949,0.000
1949.000,-43.457,-33.203,-20.020,-20.996,0.000
1953.000,-40.527,-26.855,-25.879,-12.207,0.000
1957.000,-45.410,-30.762,-21.973,-19.531,0.000
1961.000,-41.016,-34.668,-22.461,-35.645,0.000
1965.000,-31.250,-34.180,-24.414,-27.832,0.000
1969.000,-33.203,-33.203,-20.996,-17.090,0.000
1973.000,-37.109,-30.273,-24.414,-15.625,0.000
1976.000,-32.227,-32.715,-24.902,-13.672,0.000
1980.000,-21.484,-35.645,-20.508,-14.648,0.000
1984.000,-21.973,-34.180,-22.949,-9.277,0.000
1988.000,-22.461,-30.762,-20.508,-11.230,0.000
1992.000,-19.531,-25.391,-14.648,-20.508,0.000
1996.000,-14.648,-22.461,-16.113,-13.184,0.000
2000.000,-8.301,-21.484,-22.949,-13.672,0.000
2004.000,-5.859,-21.484,-25.879,-11.719,0.000
2008.000,-12.695,-18.066,-23.438,-13.672,0.000
2012.000,-20.020,-20.020,-23.438,-20.508,0.000
2016.000,-14.160,-22.461,-24.414,-9.277,0.000
2019.000,-5.371,-16.602,-17.578,0.000,0.000
2023.000,-7.324,-12.695,-11.719,-2.930,0.000
2027.000,-13.184,-10.742,-16.113,-7.324,0.000
2031.000,-13.184,-6.836,-19.043,-4.883,0.000
2035.000,2.441,-10.254,-16.602,-5.859,0.000
2039.000,-2.441,-12.207,-17.578,-21.973,0.000
2043.000,-20.020,-16.113,-20.996,-32.227,0.000
2047.000,-10.742,-20.508,-24.414,-29.297,0.000
2051.000,-15.137,-23.926,-24.902,-19.043,0.000
2055.000,-19.043,-30.273,-24.414,-15.137,0.000
2058.000,-3.906,-23.926,-17.090,-15.625,0.000
2062.000,-0.488,-15.137,-18.066,-23.926,0.000
2066.000,-5.371,-18.555,-21.973,-21.973,0.000
2070.000,-3.906,-19.043,-20.996,-15.625,0.000
2074.000,-11.719,-14.160,-21.484,-19.531,0.000
2078.000,-20.508,-18.066,-20.020,-19.531,0.000
2082.000,-13.184,-28.809,-22.461,-19.531,0.000
2086.000,-12.695,-29.785,-23.926,-10.254,0.000
2090.000,-18.555,-29.297,-23.926,-14.160,0.000
2094.000,-16.602,-25.879,-22.461,-30.273,0.000
2098.000,-13.184,-20.020,-16.113,-29.297,0.000
2101.000,-11.719,-33.203,-17.578,-19.043,0.000
2105.000,-13.184,-40.039,-22.949,-18.066,0.000
2109.000,-11.719,-29.297,-29.785,-27.832,0.000
2113.000,2.930,-24.414,-30.273,-13.672,0.000
2117.000,4.883,-26.367,-20.996,-13.672,0.000
2121.000,-17.578,-29.785,-16.113,-28.320,0.000
2125.000,-29.297,-34.180,-21.484,-32.715,0.000
2129.000,-24.414,-29.297,-23.926,-33.203,0.000
2133.000,-14.648,-28.320,-18.555,-22.461,0.000
2137.000,-25.879,-40.039,-17.090,-31.738,0.000
2141.000,-36.621,-42.969,-17.578,-39.062,0.000
2144.000,-55.176,-41.504,-18.555,-58.105,0.000
2148.000,-68.359,-45.410,-26.367,-67.871,0.000
2152.000,-52.734,-51.758,-30.762,-62.012,0.000
2156.000,-50.293,-56.641,-34.668,-62.500,0.000
2160.000,-59.570,-47.852,-37.109,-69.824,0.000
2164.000,-42.480,-35.156,-27.832,-56.152,0.000
2168.000,-30.273,-33.691,-18.066,-32.715,0.000
2172.000,-51.270,-43.945,-37.109,-38.086,0.000
2176.000,-65.430,-41.016,-46.387,-42.480,0.000
2180.000,-63.477,-36.133,-42.480,-48.340,0.000
2183.000,-55.176,-43.457,-44.434,-54.199,0.000
2187.000,-43.945,-36.621,-38.574,-43.457,0.000
2191.000,-45.410,-29.297,-31.250,-50.781,0.000
2195.000,-52.734,-27.832,-34.668,-63.965,0.000
2199.000,-56.641,-27.832,-37.109,-63.965,0.000
2203.000,-46.387,-29.785,-35.156,-50.781,0.000
2207.000,-39.062,-22.461,-28.320,-28.320,0.000
2211.000,-54.199,-19.043,-24.414,-50.293,0.000
2215.000,-56.641,-24.902,-36.621,-63.477,0.000
2219.000,-50.293,-27.832,-45.410,-41.992,0.000
2223.000,-49.316,-25.391,-41.504,-38.086,0.000
2226.000,-46.387,-27.344,-36.133,-46.387,0.000
2230.000,-39.551,-25.391,-33.203,-44.922,0.000
2234.000,-35.645,-23.926,-33.203,-39.062,0.000
2238.000,-27.832,-25.391,-27.344,-37.109,0.000
2242.000,-26.367,-26.367,-27.344,-39.062,0.000
2246.000,-19.531,-26.367,-29.785,-32.715,0.000
2250.000,-10.742,-29.297,-29.785,-23.438,0.000
2254.000,-12.695,-28.809,-27.344,-20.508,0.000
2258.000,-19.531,-23.438,-23.438,-11.719,0.000
2262.000,-18.555,-23.438,-28.320,-6.348,0.000
2266.000,-9.766,-25.879,-28.809,-6.348,0.000
2269.000,-5.371,-24.902,-23.926,7.812,0.000
2273.000,-5.859,-29.297,-28.320,1.465,0.000
2277.000,-7.812,-31.738,-27.344,-10.742,0.000
2281.000,-8.301,-33.691,-25.879,-12.207,0.000
2285.000,-11.719,-36.621,-30.762,-8.789,0.000
2289.000,-24.902,-34.180,-26.367,-7.812,0.000
2293.000,-28.320,-33.691,-22.949,-7.812,0.000
2297.000,-18.066,-33.691,-25.391,-3.418,0.000
2301.000,-14.160,-33.691,-23.438,0.977,0.000
2305.000,-30.273,-33.691,-21.973,4.883,0.000
2308.000,-31.738,-31.738,-24.414,-4.883,0.000
2312.000,-14.648,-29.785,-21.973,-6.348,0.000
2316.000,-12.695,-29.785,-22.461,0.488,0.000
2320.000,-21.973,-32.715,-26.367,-2.930,0.000
2324.000,-31.738,-35.645,-23.438,-9.766,0.000
2328.000,-31.738,-36.621,-26.367,-25.879,0.000
2332.000,-28.320,-40.039,-35.156,-37.598,0.000
2336.000,-30.762,-41.504,-40.039,-34.180,0.000
2340.000,-34.668,-42.480,-39.062,-35.156,0.000
2344.000,-30.273,-34.668,-33.691,-41.016,0.000
2348.000,-20.020,-31.738,-34.180,-41.504,0.000
2351.000,-11.719,-33.691,-28.320,-32.227,0.000
2355.000,-14.648,-35.156,-22.949,-27.344,0.000
2359.000,-17.090,-28.809,-23.926,-32.227,0.000
2363.000,-15.137,-25.391,-26.367,-36.621,0.000
2367.000,-21.484,-28.809,-30.273,-41.016,0.000
2371.000,-15.137,-29.785,-26.367,-30.762,0.000
2375.000,-10.742,-23.926,-22.461,-28.320,0.000
2379.000,-19.531,-18.555,-21.973,-39.551,0.000
2383.000,-26.367,-21.484,-21.484,-36.621,0.000
2387.000,-34.180,-27.344,-22.461,-24.902,0.000
2390.000,-34.180,-29.297,-23.438,-27.344,0.000
2394.000,-31.250,-31.738,-24.414,-38.086,0.000
2398.000,-26.367,-25.879,-22.461,-34.180,0.000
2402.000,-16.602,-20.996,-20.020,-28.320,0.000
2406.000,-17.090,-22.949,-18.066,-29.785,0.000
2410.000,-40.039,-20.508,-11.230,-36.621,0.000
2414.000,-45.410,-19.043,-11.719,-29.785,0.000
2418.000,-41.016,-19.531,-20.508,-20.996,0.000
2422.000,-41.016,-26.855,-26.367,-28.809,0.000
2426.000,-37.109,-31.250,-24.414,-41.992,0.000
2430.000,-34.668,-30.273,-24.414,-41.504,0.000
2433.000,-20.020,-27.344,-24.902,-31.250,0.000
2437.000,-5.371,-21.484,-20.996,-10.742,0.000
2441.000,-19.531,-22.949,-19.531,-21.484,0.000
2445.000,-40.039,-27.832,-29.785,-51.270,0.000
2449.000,-30.273,-25.879,-33.203,-48.340,0.000
2453.000,-21.973,-26.367,-27.832,-38.086,0.000
2457.000,-28.809,-30.762,-34.668,-41.504,0.000
2461.000,-28.320,-31.250,-41.992,-39.062,0.000
2465.000,-21.973,-33.203,-39.062,-34.180,0.000
2469.000,-24.414,-38.574,-40.039,-31.738,0.000
2473.000,-21.973,-36.133,-42.480,-24.902,0.000
2476.000,-16.113,-30.273,-41.992,-26.367,0.000
2480.000,-5.371,-20.508,-40.039,-29.297,0.000
2484.000,5.859,-11.230,-36.621,-4.883,0.000
2488.000,-2.930,-14.160,-24.902,13.672,0.000
2492.000,-16.602,-13.184,-18.066,0.488,0.000
2496.000,-11.230,-11.719,-23.438,-9.766,0.000
2500.000,0.000,-16.602,-23.438,-17.578,0.000
2504.000,-11.230,-21.973,-25.391,-26.367,0.000
2508.000,-25.879,-28.320,-31.250,-31.250,0.000
2512.000,-23.926,-30.273,-30.273,-35.156,0.000
2515.000,-11.719,-30.273,-31.250,-23.438,0.000
2519.000,-3.418,-28.320,-30.273,-8.301,0.000
2523.000,-7.812,-25.879,-29.785,-17.578,0.000
2527.000,-23.438,-29.785,-29.785,-39.551,0.000
2531.000,-24.902,-29.297,-24.414,-35.645,0.000
2535.000,-14.160,-25.391,-21.484,-23.926,0.000
2539.000,-16.602,-21.484,-20.508,-20.996,0.000
2543.000,-18.555,-17.578,-18.555,-21.484,0.000
2547.000,-14.160,-18.555,-16.113,-21.973,0.000
2551.000,-9.766,-19.043,-13.672,-19.043,0.000
2555.000,-3.418,-15.625,-10.254,-14.648,0.000
2558.000,-7.812,-18.555,-10.742,-15.625,0.000
2562.000,-18.555,-21.484,-15.625,-17.090,0.000
2566.000,-20.508,-25.391,-16.602,-10.742,0.000
2570.000,-18.555,-26.367,-16.602,-9.277,0.000
2574.000,-20.508,-25.391,-19.043,-18.066,0.000
2578.000,-23.926,-28.809,-15.137,-22.949,0.000
2582.000,-25.879,-30.273,-17.578,-20.508,0.000
2586.000,-31.738,-32.715,-30.762,-20.996,0.000
2590.000,-21.973,-28.320,-30.762,-28.320,0.000
2594.000,-12.695,-22.949,-27.344,-42.969,0.000
2598.000,-17.578,-23.438,-29.297,-36.133,0.000
2601.000,-25.391,-24.414,-36.621,-29.297,0.000
2605.000,-27.344,-22.461,-35.645,-33.691,0.000
2609.000,-21.973,-19.531,-27.344,-24.902,0.000
2613.000,-17.090,-15.625,-21.484,-17.090,0.000
2617.000,-19.043,-11.230,-19.043,-20.996,0.000
2621.000,-22.949,-13.184,-18.066,-22.949,0.000
2625.000,-23.926,-16.602,-20.020,-37.598,0.000
2629.000,-32.715,-20.508,-24.414,-45.410,0.000
2633.000,-35.156,-21.484,-22.461,-33.691,0.000
2637.000,-31.738,-23.438,-23.438,-28.809,0.000
2640.000,-33.203,-26.855,-26.855,-41.016,0.000
2644.000,-35.156,-26.367,-25.391,-47.363,0.000
2648.000,-37.598,-26.855,-27.344,-38.574,0.000
2652.000,-35.645,-34.180,-30.273,-31.250,0.000
2656.000,-34.668,-30.762,-25.879,-25.879,0.000
2660.000,-34.668,-20.996,-24.414,-28.809,0.000
2664.000,-31.250,-24.902,-28.809,-41.992,0.000
2668.000,-21.484,-25.391,-26.855,-32.715,0.000
2672.000,-14.648,-22.461,-21.484,-22.461,0.000
2676.000,-27.344,-28.320,-26.367,-32.715,0.000
2680.000,-39.551,-30.273,-29.785,-42.480,0.000
2683.000,-38.574,-30.762,-27.832,-39.062,0.000
2687.000,-40.527,-34.180,-27.344,-31.738,0.000
2691.000,-41.016,-29.785,-27.832,-27.832,0.000
2695.000,-35.645,-27.344,-28.320,-34.668,0.000
2699.000,-30.273,-28.809,-26.855,-34.668,0.000
2703.000,-30.273,-24.902,-25.879,-27.344,0.000
2707.000,-44.434,-27.832,-28.320,-19.531,0.000
2711.000,-55.176,-32.227,-27.344,-20.996,0.000
2715.000,-45.898,-29.297,-27.344,-30.273,0.000
2719.000,-41.504,-27.344,-25.391,-31.738,0.000
2723.000,-41.016,-32.227,-26.367,-31.250,0.000
2726.000,-37.109,-29.785,-22.461,-35.156,0.000
2730.000,-35.645,-27.832,-20.996,-39.062,0.000
2734.000,-32.227,-29.297,-27.344,-36.621,0.000
2738.000,-32.227,-26.367,-28.320,-27.832,0.000
2742.000,-39.551,-28.809,-32.715,-28.809,0.000
2746.000,-38.086,-29.785,-33.691,-25.879,0.000
2750.000,-32.715,-32.715,-26.855,-18.555,0.000
2754.000,-35.645,-39.551,-25.391,-20.996,0.000
2758.000,-30.762,-36.133,-23.926,-19.043,0.000
2762.000,-25.879,-33.203,-21.484,-20.020,0.000
2765.000,-20.020,-33.691,-22.949,-19.043,0.000
2769.000,-10.742,-28.809,-25.879,-20.508,0.000
2773.000,-9.277,-22.949,-24.902,-23.438,0.000
2777.000,-13.184,-30.273,-22.949,-26.855,0.000
2781.000,-16.113,-33.203,-26.855,-28.320,0.000
2785.000,-4.395,-28.320,-28.809,-20.508,0.000
2789.000,-5.859,-33.203,-26.367,-10.254,0.000
2793.000,-30.273,-38.086,-22.949,-13.672,0.000
2797.000,-25.879,-38.086,-19.531,-19.531,0.000
2801.000,-13.184,-38.086,-27.344,-10.254,0.000
2805.000,-10.254,-36.133,-25.879,-11.230,0.000
2808.000,-14.648,-35.156,-23.438,-20.508,0.000
2812.000,-12.695,-30.762,-27.832,-15.137,0.000
2816.000,9.277,-27.832,-24.902,4.395,0.000
2820.000,11.719,-31.250,-21.484,16.113,0.000
2824.000,-18.066,-29.297,-24.902,-12.207,0.000
2828.000,-26.367,-25.879,-23.926,-25.879,0.000
2832.000,-25.879,-37.109,-19.531,-14.648,0.000
2836.000,-41.016,-38.574,-20.020,-27.344,0.000
2840.000,-47.363,-35.645,-23.438,-43.457,0.000
2844.000,-53.223,-40.527,-20.508,-47.363,0.000
2847.000,-58.105,-41.992,-19.043,-55.664,0.000
2851.000,-56.152,-40.039,-17.090,-43.457,0.000
2855.000,-58.594,-43.457,-14.648,-46.875,0.000
2859.000,-76.660,-56.641,-20.996,-76.660,0.000
2863.000,-82.031,-56.641,-23.438,-64.941,0.000
2867.000,-77.637,-42.480,-11.230,-51.270,0.000
2871.000,-79.590,-35.645,-17.578,-59.082,0.000
2875.000,-73.730,-51.758,-22.949,-65.918,0.000
2879.000,-73.242,-67.383,-19.043,-70.801,0.000
2883.000,-61.035,-45.898,-22.949,-62.988,0.000
2887.000,-57.617,-28.809,-24.414,-54.199,0.000
2890.000,-61.035,-31.738,-19.531,-54.199,0.000
2894.000,-51.270,-29.297,-13.672,-45.898,0.000
2898.000,-48.828,-31.738,-15.625,-45.898,0.000
2902.000,-45.898,-41.992,-22.461,-42.969,0.000
2906.000,-41.992,-40.039,-20.996,-29.785,0.000
2910.000,-34.668,-36.133,-17.090,-24.902,0.000
2914.000,-24.902,-39.062,-20.020,-23.438,0.000
2918.000,-26.367,-37.109,-17.090,-12.695,0.000
2922.000,-28.809,-35.156,-14.160,0.000,0.000
2926.000,-22.949,-30.762,-15.137,-10.254,0.000
2930.000,-19.043,-34.668,-21.484,-27.344,0.000
2933.000,-15.625,-36.133,-29.297,-20.020,0.000
2937.000,-10.254,-26.855,-24.902,-8.301,0.000
2941.000,-14.160,-27.832,-24.414,-7.324,0.000
2945.000,-25.391,-29.785,-24.414,-8.301,0.000
2949.000,-22.461,-27.344,-22.949,2.441,0.000
2953.000,-22.949,-34.180,-31.738,6.836,0.000
2957.000,-30.762,-34.180,-37.598,-7.324,0.000
2961.000,-28.320,-27.344,-26.855,-20.508,0.000
2965.000,-19.531,-26.855,-27.832,-17.090,0.000
2969.000,-18.555,-23.926,-33.203,-7.812,0.000
2972.000,-21.973,-21.484,-29.785,-3.418,0.000
2976.000,-25.391,-28.320,-30.762,-7.324,0.000
2980.000,-13.184,-28.320,-27.344,-6.836,0.000
2984.000,3.906,-19.043,-20.508,4.395,0.000
2988.000,-3.418,-25.391,-19.043,12.695,0.000
2992.000,-6.836,-28.320,-18.066,15.137,0.000
2996.000,-7.812,-23.926,-20.996,2.441,0.000
3000.000,-15.137,-21.484,-25.879,-8.301,0.000
3004.000,-8.301,-23.926,-29.297,-7.812,0.000
3008.000,-6.348,-26.855,-30.273,-9.766,0.000
3012.000,-5.371,-29.297,-33.691,-11.230,0.000
3015.000,-4.883,-26.855,-32.227,-1.465,0.000
3019.000,-4.883,-25.391,-22.461,1.953,0.000
3023.000,-12.207,-32.227,-23.438,-12.695,0.000
3027.000,-17.578,-28.809,-26.855,-11.719,0.000
3031.000,-16.113,-31.738,-23.926,-12.695,0.000
3035.000,-9.766,-37.109,-24.414,-21.973,0.000
3039.000,-11.230,-29.785,-22.949,-24.902,0.000
3043.000,-13.672,-27.344,-19.531,-34.668,0.000
3047.000,-15.137,-30.273,-26.367,-48.828,0.000
3051.000,-23.926,-31.250,-32.227,-43.457,0.000
3055.000,-45.898,-39.062,-32.715,-29.297,0.000
3058.000,-55.176,-41.992,-34.668,-40.039,0.000
3062.000,-50.293,-39.551,-37.109,-49.805,0.000
3066.000,-41.016,-42.480,-35.156,-43.945,0.000
3070.000,-33.691,-42.969,-38.574,-41.016,0.000
3074.000,-20.020,-33.691,-37.109,-35.156,0.000
3078.000,-17.090,-33.203,-29.785,-39.551,0.000
3082.000,-42.969,-40.527,-36.621,-60.059,0.000
3086.000,-55.176,-40.039,-39.062,-53.711,0.000
3090.000,-51.270,-41.992,-37.598,-50.781,0.000
3094.000,-40.039,-41.016,-40.039,-51.758,0.000
3097.000,-40.039,-43.945,-37.109,-54.199,0.000
3101.000,-31.738,-45.410,-31.250,-40.527,0.000
3105.000,-21.973,-39.062,-35.156,-35.156,0.000
3109.000,-39.062,-40.039,-39.551,-54.199,0.000
3113.000,-43.945,-36.621,-38.086,-55.176,0.000
3117.000,-17.578,-34.180,-38.086,-38.574,0.000
3121.000,-14.160,-36.133,-38.574,-31.738,0.000
3125.000,-28.320,-33.203,-40.527,-38.574,0.000
3129.000,-28.320,-29.785,-37.598,-42.480,0.000
3133.000,-35.156,-27.832,-38.574,-48.340,0.000
3137.000,-26.367,-27.344,-36.621,-36.621,0.000
3140.000,-19.531,-25.391,-31.738,-31.738,0.000
3144.000,-26.855,-29.297,-26.367,-34.180,0.000
3148.000,-27.344,-33.691,-23.438,-24.902,0.000
3152.000,-25.391,-35.645,-27.344,-18.555,0.000
3156.000,-20.996,-33.203,-28.320,-23.926,0.000
3160.000,-23.926,-31.250,-26.855,-33.691,0.000
3164.000,-18.555,-36.621,-27.832,-42.480,0.000
3168.000,-13.184,-34.180,-32.715,-37.598,0.000
3172.000,-24.902,-34.668,-34.668,-36.133,0.000
3176.000,-32.227,-37.109,-34.668,-36.133,0.000
3180.000,-33.203,-39.551,-39.551,-45.410,0.000
3183.000,-32.227,-39.062,-35.645,-52.734,0.000
3187.000,-29.785,-34.668,-36.621,-40.039,0.000
3191.000,-32.715,-41.504,-41.016,-41.504,0.000
3195.000,-24.902,-41.016,-36.621,-41.504,0.000
3199.000,-5.859,-36.133,-37.598,-34.180,0.000
3203.000,-7.324,-30.762,-33.203,-33.203,0.000
3207.000,-30.273,-25.879,-27.832,-30.273,0.000
3211.000,-39.551,-28.809,-30.273,-28.809,0.000
3215.000,-45.410,-27.832,-32.227,-26.367,0.000
3219.000,-47.363,-31.738,-33.203,-20.996,0.000
3222.000,-41.016,-33.691,-30.273,-18.555,0.000
3226.000,-34.180,-28.320,-27.344,-15.137,0.000
3230.000,-35.645,-27.344,-27.344,-9.277,0.000
3234.000,-34.668,-27.832,-27.832,-7.812,0.000
3238.000,-41.016,-28.320,-24.902,-4.883,0.000
3242.000,-48.340,-30.762,-27.344,-3.906,0.000
3246.000,-41.992,-31.738,-30.273,-20.020,0.000
3250.000,-34.180,-34.668,-27.832,-13.184,0.000
3254.000,-30.273,-30.762,-26.855,-3.906,0.000
3258.000,-37.598,-30.762,-32.227,-18.066,0.000
3262.000,-40.039,-36.133,-33.691,-29.297,0.000
3265.000,-37.598,-32.715,-28.320,-28.320,0.000
3269.000,-41.992,-29.785,-27.344,-23.438,0.000
3273.000,-49.316,-31.250,-31.738,-27.344,0.000
3277.000,-54.688,-33.691,-31.250,-41.016,0.000
3281.000,-58.105,-34.668,-29.785,-43.457,0.000
3285.000,-56.152,-36.133,-27.832,-21.484,0.000
3289.000,-38.086,-35.645,-25.391,-15.625,0.000
3293.000,-21.973,-30.273,-26.367,-13.184,0.000
3297.000,-26.855,-28.320,-23.438,-19.043,0.000
3301.000,-49.805,-36.133,-20.996,-38.086,0.000
3305.000,-51.758,-37.598,-18.555,-31.250,0.000
3308.000,-36.133,-30.762,-20.996,-23.438,0.000
3312.000,-30.273,-24.902,-19.043,-20.020,0.000
3316.000,-25.879,-26.855,-15.137,-8.301,0.000
3320.000,-16.113,-29.785,-18.555,-1.953,0.000
3324.000,-14.648,-33.203,-20.996,-14.648,0.000
3328.000,-17.578,-36.621,-17.578,-15.137,0.000
3332.000,-38.574,-34.180,-20.508,-14.648,0.000
3336.000,-45.410,-33.691,-26.855,-12.207,0.000
3340.000,-32.715,-35.645,-23.926,-13.672,0.000
3344.000,-36.133,-34.668,-19.531,-24.414,0.000
3347.000,-30.762,-25.879,-22.461,-18.066,0.000
3351.000,-27.832,-22.461,-23.926,-4.883,0.000
3355.000,-34.180,-26.367,-25.391,-1.953,0.000
3359.000,-29.297,-21.973,-28.320,-10.742,0.000
3363.000,-25.391,-21.973,-33.203,-19.531,0.000
3367.000,-21.484,-16.602,-31.738,-14.160,0.000
3371.000,-23.926,-10.742,-29.297,-13.672,0.000
3375.000,-29.785,-17.090,-22.949,-13.672,0.000
3379.000,-28.809,-17.090,-21.973,-15.625,0.000
3383.000,-16.602,-13.672,-20.020,-20.508,0.000
3387.000,-10.742,-8.301,-14.160,-12.695,0.000
3390.000,-16.113,-12.207,-14.648,-10.742,0.000
3394.000,-18.066,-18.555,-14.160,-16.113,0.000
3398.000,-17.090,-15.625,-14.160,-8.789,0.000
3402.000,-15.137,-18.555,-20.020,0.977,0.000
3406.000,-16.602,-26.855,-22.949,-12.207,0.000
3410.000,-16.602,-25.391,-21.973,-32.227,0.000
3414.000,-12.207,-23.926,-21.484,-28.320,0.000
3418.000,-16.602,-26.367,-20.020,-26.367,0.000
3422.000,-28.320,-20.508,-16.113,-31.250,0.000
3426.000,-30.762,-16.113,-13.184,-30.762,0.000
3430.000,-19.043,-18.066,-10.254,-28.320,0.000
3433.000,-17.578,-18.066,-8.789,-17.578,0.000
3437.000,-32.715,-15.625,-12.695,-9.766,0.000
3441.000,-38.574,-18.066,-11.719,-14.160,0.000
3445.000,-37.598,-22.949,-11.719,-11.230,0.000
3449.000,-42.480,-23.438,-14.648,-4.883,0.000
3453.000,-40.039,-24.414,-15.625,-3.418,0.000
3457.000,-36.621,-24.414,-16.602,-10.742,0.000
3461.000,-38.086,-21.484,-15.625,-18.066,0.000
3465.000,-29.297,-22.461,-14.160,-16.113,0.000
3469.000,-25.391,-22.461,-13.672,-9.766,0.000
3472.000,-22.949,-13.672,-12.695,-3.906,0.000
3476.000,-21.973,-8.301,-8.789,-2.930,0.000
3480.000,-20.996,-8.301,-7.324,-3.906,0.000
3484.000,-13.184,-3.906,-10.254,-1.465,0.000
3488.000,-12.207,-4.883,-12.207,-4.395,0.000
3492.000,-18.555,-14.160,-18.555,-21.973,0.000
3496.000,-14.648,-15.137,-21.484,-17.090,0.000
3500.000,-16.602,-19.043,-23.438,-5.859,0.000
3504.000,-11.719,-18.555,-26.367,-5.859,0.000
3508.000,-2.930,-17.090,-20.996,-3.906,0.000
3512.000,-4.395,-20.020,-18.555,-2.441,0.000
3515.000,-0.488,-23.438,-24.414,-10.742,0.000
3519.000,-12.695,-28.320,-21.484,-7.812,0.000
3523.000,-15.625,-30.762,-14.648,8.301,0.000
3527.000,-5.859,-26.855,-11.719,4.883,0.000
3531.000,-9.277,-28.809,-17.090,-0.488,0.000
3535.000,-14.648,-27.832,-18.555,7.324,0.000
3539.000,-16.113,-25.879,-17.578,5.371,0.000
3543.000,-16.602,-24.414,-26.367,1.465,0.000
3547.000,-22.461,-31.738,-30.273,-5.371,0.000
3551.000,-20.020,-28.809,-25.879,-2.441,0.000
3554.000,-10.254,-20.020,-25.391,6.348,0.000
3558.000,-10.742,-25.391,-26.367,5.371,0.000
3562.000,-12.695,-20.508,-24.414,-2.930,0.000
3566.000,-5.371,-18.066,-17.578,-7.812,0.000
3570.000,-5.859,-24.902,-19.043,4.395,0.000
3574.000,-0.977,-30.273,-26.855,16.113,0.000
3578.000,-4.395,-36.133,-20.020,-2.930,0.000
3582.000,-22.461,-42.969,-21.484,-20.020,0.000
3586.000,-19.531,-38.086,-26.855,-12.207,0.000
3590.000,-14.648,-41.992,-21.973,-7.812,0.000
3594.000,-19.531,-43.945,-23.438,-19.531,0.000
3597.000,-21.484,-46.875,-22.461,-27.344,0.000
3601.000,-36.133,-42.969,-19.531,-30.762,0.000
3605.000,-31.738,-31.250,-22.949,-30.273,0.000
3609.000,-42.969,-44.434,-17.090,-31.738,0.000
3613.000,-59.570,-40.039,-12.695,-42.969,0.000
3617.000,-49.316,-25.391,-14.648,-48.340,0.000
3621.000,-44.434,-37.598,-10.742,-33.203,0.000
3625.000,-48.340,-38.574,-10.742,-29.297,0.000
3629.000,-46.875,-29.297,-17.090,-43.945,0.000
3633.000,-32.715,-28.809,-19.531,-34.668,0.000
3637.000,-26.367,-27.832,-5.371,-15.625,0.000
3640.000,-43.945,-35.645,-4.883,-22.949,0.000
3644.000,-53.223,-48.340,-18.555,-35.156,0.000
3648.000,-39.062,-43.945,-21.484,-29.785,0.000
3652.000,-42.480,-35.156,-19.531,-20.508,0.000
3656.000,-52.734,-37.598,-24.414,-26.367,0.000
3660.000,-51.270,-32.227,-20.508,-30.273,0.000
3664.000,-45.410,-29.297,-21.973,-37.598,0.000
3668.000,-34.668,-33.203,-25.391,-32.715,0.000
3672.000,-26.367,-33.691,-20.020,-14.160,0.000
3676.000,-23.926,-32.227,-22.461,-18.066,0.000
3679.000,-25.879,-27.832,-21.484,-23.926,0.000
3683.000,-23.438,-32.715,-23.438,-17.090,0.000
3687.000,-25.879,-37.109,-30.273,-16.602,0.000
3691.000,-22.461,-34.180,-31.738,-20.508,0.000
3695.000,-19.043,-39.551,-38.086,-26.855,0.000
3699.000,-23.438,-44.922,-39.062,-26.855,0.000
3703.000,-18.066,-39.062,-34.180,-22.949,0.000
3707.000,-9.766,-30.762,-29.297,-16.602,0.000
3711.000,-4.395,-34.180,-27.344,-14.160,0.000
3715.000,8.301,-32.715,-26.367,-1.465,0.000
3719.000,4.883,-31.250,-23.926,7.812,0.000
3722.000,-8.301,-37.109,-26.855,2.441,0.000
3726.000,-9.766,-38.574,-27.832,-8.789,0.000
3730.000,-5.859,-33.691,-22.949,-9.277,0.000
3734.000,-2.441,-26.855,-18.066,6.836,0.000
3738.000,-7.324,-24.902,-14.648,14.160,0.000
3742.000,-20.508,-29.785,-19.531,-1.465,0.000
3746.000,-16.602,-29.297,-25.391,-12.207,0.000
3750.000,-2.930,-23.438,-20.996,1.953,0.000
3754.000,-1.953,-20.020,-19.531,7.812,0.000
3758.000,-6.836,-19.531,-25.879,-2.441,0.000
3762.000,-3.906,-18.555,-27.832,-2.930,0.000
3765.000,1.953,-17.090,-24.902,3.418,0.000
3769.000,-2.441,-24.414,-24.902,6.348,0.000
3773.000,-12.695,-24.414,-28.809,-1.465,0.000
3777.000,-13.184,-20.996,-27.832,-6.836,0.000
3781.000,-5.859,-20.020,-22.949,6.348,0.000
3785.000,-0.977,-20.508,-26.367,8.301,0.000
3789.000,-10.742,-20.020,-25.391,-4.395,0.000
3793.000,-23.438,-21.973,-22.461,-6.348,0.000
3797.000,-13.184,-20.020,-23.926,-2.441,0.000
3801.000,-1.465,-17.090,-24.902,5.371,0.000
3804.000,-3.418,-13.672,-23.926,7.812,0.000
3808.000,-8.301,-9.766,-20.508,2.441,0.000
3812.000,-3.906,-10.742,-20.996,-5.859,0.000
3816.000,4.883,-15.625,-20.996,-11.719,0.000
3820.000,-8.789,-22.949,-21.973,-4.883,0.000
3824.000,-29.785,-23.438,-22.949,2.930,0.000
3828.000,-38.086,-31.738,-31.250,-11.230,0.000
3832.000,-27.832,-42.480,-34.668,-23.438,0.000
3836.000,-23.438,-38.086,-35.645,-20.508,0.000
3840.000,-21.484,-32.715,-30.762,-17.578,0.000
3844.000,-10.742,-32.715,-22.461,-20.020,0.000
3847.000,-21.973,-38.574,-25.879,-23.438,0.000
3851.000,-36.621,-36.133,-27.344,-13.672,0.000
3855.000,-39.551,-32.715,-31.250,-14.648,0.000
3859.000,-52.246,-33.203,-38.086,-32.715,0.000
3863.000,-51.758,-25.391,-36.621,-44.434,0.000
3867.000,-38.574,-28.809,-37.598,-40.527,0.000
3871.000,-34.180,-37.598,-37.109,-32.227,0.000
3875.000,-37.109,-32.715,-31.738,-31.738,0.000
3879.000,-41.016,-28.320,-34.668,-35.156,0.000
3883.000,-30.273,-32.715,-36.621,-23.926,0.000
3886.000,-21.484,-31.738,-36.133,-8.789,0.000
3890.000,-24.414,-30.762,-37.598,-10.742,0.000
3894.000,-25.391,-33.691,-44.434,-29.785,0.000
3898.000,-23.438,-30.762,-44.434,-30.762,0.000
3902.000,-17.090,-29.297,-41.504,-22.461,0.000
3906.000,-15.625,-29.785,-42.480,-25.879,0.000
3910.000,-20.508,-28.320,-31.250,-30.273,0.000
3914.000,-25.879,-26.855,-28.809,-22.949,0.000
3918.000,-18.066,-26.855,-29.785,-11.719,0.000
3922.000,-18.555,-24.414,-31.250,-18.555,0.000
3926.000,-20.020,-25.391,-32.227,-27.832,0.000
3929.000,-14.160,-27.832,-28.809,-30.273,0.000
3933.000,-14.160,-26.367,-29.297,-33.203,0.000
3937.000,-14.648,-24.414,-29.297,-29.785,0.000
3941.000,-18.555,-23.926,-29.785,-28.809,0.000
3945.000,-15.625,-23.926,-26.855,-22.461,0.000
3949.000,-13.672,-25.391,-25.391,-21.973,0.000
3953.000,-16.113,-24.902,-29.297,-18.555,0.000
3957.000,-20.020,-23.926,-25.391,-10.254,0.000
3961.000,-26.855,-23.438,-23.926,-19.531,0.000
3965.000,-24.902,-20.996,-27.832,-29.785,0.000
3969.000,-20.996,-22.949,-25.391,-27.832,0.000
3972.000,-24.902,-23.926,-24.414,-30.762,0.000
3976.000,-30.273,-23.926,-26.855,-36.133,0.000
3980.000,-23.438,-27.344,-26.855,-31.738,0.000
3984.000,-17.090,-26.367,-25.391,-26.367,0.000
3988.000,-17.090,-22.949,-25.391,-27.344,0.000
3992.000,-18.555,-24.902,-30.762,-32.715,0.000
3996.000,-20.996,-25.391,-32.227,-37.109,0.000
4000.000,-21.484,-23.926,-28.320,-25.391,0.000
4004.000,-25.879,-30.762,-27.344,-16.113,0.000
4008.000,-24.414,-33.691,-20.508,-31.250,0.000
4011.000,-18.555,-30.273,-17.090,-36.621,0.000
4015.000,-18.066,-21.484,-21.973,-29.785,0.000
4019.000,-26.367,-21.484,-23.926,-36.133,0.000
4023.000,-29.785,-22.949,-24.414,-36.133,0.000
4027.000,-24.414,-15.137,-21.484,-36.133,0.000
4031.000,-21.973,-19.043,-18.066,-40.527,0.000
4035.000,-23.926,-20.508,-16.602,-32.715,0.000
4039.000,-26.855,-18.066,-17.578,-28.320,0.000
4043.000,-22.949,-20.508,-16.602,-32.227,0.000
4047.000,-25.391,-22.461,-16.113,-30.762,0.000
4051.000,-24.902,-25.879,-20.508,-34.668,0.000
4054.000,-31.250,-29.297,-21.973,-36.621,0.000
4058.000,-52.246,-27.344,-19.531,-43.457,0.000
4062.000,-50.781,-27.344,-20.020,-50.781,0.000
4066.000,-41.992,-31.250,-20.508,-43.945,0.000
4070.000,-40.039,-32.227,-20.020,-42.969,0.000
4074.000,-49.805,-37.109,-18.066,-51.758,0.000
4078.000,-51.758,-40.527,-20.020,-57.617,0.000
4082.000,-39.062,-34.668,-18.555,-48.340,0.000
4086.000,-33.691,-35.156,-19.531,-37.598,0.000
4090.000,-33.691,-38.086,-21.973,-30.273,0.000
4094.000,-48.340,-35.645,-18.555,-36.133,0.000
4097.000,-42.969,-30.273,-22.949,-41.992,0.000
4101.000,-29.297,-28.809,-24.414,-36.133,0.000
4105.000,-32.227,-27.344,-22.949,-29.785,0.000
4109.000,-36.133,-23.438,-22.461,-30.273,0.000
4113.000,-37.598,-22.461,-23.438,-39.551,0.000
4117.000,-31.738,-24.414,-23.438,-41.016,0.000
4121.000,-31.738,-26.855,-23.438,-37.598,0.000
4125.000,-35.156,-28.809,-29.297,-44.922,0.000
4129.000,-37.109,-34.180,-31.250,-44.434,0.000
4133.000,-39.062,-38.086,-29.785,-45.410,0.000
4136.000,-40.527,-37.109,-25.391,-44.922,0.000
4140.000,-41.016,-33.203,-20.508,-38.086,0.000
4144.000,-32.715,-30.273,-22.461,-41.504,0.000
4148.000,-27.344,-25.879,-24.902,-44.922,0.000
4152.000,-28.320,-23.438,-21.484,-36.621,0.000
4156.000,-41.504,-25.391,-18.555,-30.762,0.000
4160.000,-47.363,-26.855,-21.484,-36.133,0.000
4164.000,-30.762,-23.438,-23.926,-35.156,0.000
4168.000,-27.344,-18.555,-22.949,-25.879,0.000
4172.000,-42.969,-20.508,-22.461,-21.973,0.000
4176.000,-50.781,-20.996,-23.926,-28.320,0.000
4179.000,-43.945,-22.949,-24.902,-40.527,0.000
4183.000,-35.156,-26.855,-26.855,-27.832,0.000
4187.000,-32.715,-27.344,-29.297,-18.066,0.000
4191.000,-42.480,-30.273,-26.855,-31.250,0.000
4195.000,-43.457,-27.344,-19.043,-29.785,0.000
4199.000,-41.016,-26.855,-17.090,-25.391,0.000
4203.000,-38.086,-27.344,-20.020,-25.879,0.000
4207.000,-33.691,-28.320,-20.996,-28.809,0.000
4211.000,-34.180,-35.156,-23.926,-33.203,0.000
4215.000,-41.992,-41.504,-23.926,-34.180,0.000
4219.000,-36.621,-43.457,-22.461,-28.320,0.000
4222.000,-34.180,-40.527,-23.926,-27.832,0.000
4226.000,-41.992,-39.551,-25.391,-41.504,0.000
4230.000,-36.133,-40.039,-27.832,-37.109,0.000
4234.000,-27.832,-36.621,-29.785,-28.320,0.000
4238.000,-33.691,-33.203,-29.785,-35.156,0.000
4242.000,-41.992,-35.156,-31.738,-42.969,0.000
4246.000,-44.922,-35.645,-32.227,-47.363,0.000
4250.000,-47.363,-35.156,-29.785,-44.434,0.000
4254.000,-46.875,-35.156,-28.809,-31.250,0.000
4258.000,-43.945,-38.086,-29.785,-28.320,0.000
4261.000,-46.387,-40.527,-30.273,-42.480,0.000
4265.000,-48.340,-44.922,-31.738,-45.410,0.000
4269.000,-46.875,-44.434,-31.250,-42.969,0.000
4273.000,-41.016,-36.133,-28.809,-46.387,0.000
4277.000,-39.062,-35.156,-29.297,-41.504,0.000
4281.000,-41.504,-41.016,-33.203,-42.480,0.000
4285.000,-41.016,-38.574,-35.156,-39.062,0.000
4289.000,-35.645,-35.645,-36.133,-23.438,0.000
4293.000,-31.250,-35.645,-31.250,-25.879,0.000
4297.000,-27.832,-29.785,-30.273,-24.902,0.000
4301.000,-18.555,-27.344,-29.785,-11.719,0.000
4304.000,-10.254,-30.762,-26.367,-7.812,0.000
4308.000,-20.020,-33.203,-28.809,-13.672,0.000
4312.000,-22.461,-35.645,-32.227,-21.484,0.000
4316.000,-8.789,-36.133,-31.250,-20.996,0.000
4320.000,2.441,-28.320,-29.297,-15.137,0.000
4324.000,0.488,-26.855,-30.273,-14.648,0.000
4328.000,-1.953,-21.484,-26.367,-10.254,0.000
4332.000,-2.441,-19.531,-25.391,-8.789,0.000
4336.000,-7.324,-29.297,-27.832,1.465,0.000
4340.000,-11.719,-33.203,-30.273,3.418,0.000
4343.000,-15.625,-32.227,-31.738,-5.859,0.000
4347.000,-17.090,-35.645,-30.762,4.395,0.000
4351.000,-13.184,-41.016,-30.762,12.207,0.000
4355.000,-6.348,-32.227,-28.809,12.207,0.000
4359.000,-10.742,-30.273,-27.344,8.301,0.000
4363.000,10.254,-34.668,-22.949,20.020,0.000
4367.000,4.883,-36.133,-20.508,11.719,0.000
4371.000,-32.227,-39.551,-27.832,-11.719,0.000
4375.000,-29.297,-41.992,-17.090,-4.395,0.000
4379.000,-29.785,-49.316,-12.207,-9.277,0.000
4383.000,-36.621,-46.387,-15.625,-22.949,0.000
4386.000,-42.480,-44.922,-14.160,-30.273,0.000
4390.000,-55.664,-43.945,-16.113,-34.668,0.000
4394.000,-53.223,-49.805,-19.531,-44.922,0.000
4398.000,-48.828,-60.059,-25.879,-54.688,0.000
4402.000,-44.922,-43.457,-24.414,-41.992,0.000
4406.000,-46.875,-30.762,-18.066,-38.574,0.000
4410.000,-67.871,-42.969,-21.484,-59.082,0.000
4414.000,-70.801,-40.527,-24.414,-58.105,0.000
4418.000,-64.453,-45.898,-18.555,-54.688,0.000
4422.000,-73.730,-66.406,-19.531,-51.758,0.000
4426.000,-70.801,-49.805,-21.484,-50.781,0.000
4429.000,-70.312,-39.551,-20.996,-59.082,0.000
4433.000,-69.336,-38.574,-22.461,-59.570,0.000
4437.000,-52.246,-29.297,-23.926,-55.176,0.000
4441.000,-45.898,-23.926,-19.531,-53.711,0.000
4445.000,-57.617,-33.691,-30.762,-63.477,0.000
4449.000,-56.641,-46.387,-41.016,-62.988,0.000
4453.000,-55.664,-41.992,-27.832,-59.570,0.000
4457.000,-64.941,-44.922,-26.855,-61.035,0.000
4461.000,-67.871,-53.711,-29.297,-67.383,0.000
4465.000,-56.641,-54.688,-25.879,-58.105,0.000
4468.000,-46.875,-47.852,-26.855,-40.039,0.000
4472.000,-47.363,-40.527,-24.414,-41.016,0.000
4476.000,-49.316,-37.598,-25.879,-46.875,0.000
4480.000,-41.504,-35.156,-26.855,-51.270,0.000
4484.000,-45.410,-41.504,-26.855,-53.711,0.000
4488.000,-58.105,-34.668,-33.203,-53.223,0.000
4492.000,-51.758,-24.414,-37.598,-53.223,0.000
4496.000,-53.711,-25.879,-31.250,-42.480,0.000
4500.000,-61.523,-24.902,-22.461,-31.250,0.000
4504.000,-67.383,-28.320,-31.250,-41.504,0.000
4508.000,-62.500,-28.809,-39.551,-47.852,0.000
4511.000,-49.316,-23.438,-38.574,-38.086,0.000
4515.000,-53.223,-27.344,-30.762,-37.109,0.000
4519.000,-49.805,-22.949,-25.879,-33.691,0.000
4523.000,-29.785,-9.277,-28.320,-23.438,0.000
4527.000,-38.086,-15.625,-27.344,-27.344,0.000
4531.000,-39.551,-24.902,-27.344,-31.250,0.000
4535.000,-20.508,-38.574,-28.320,-27.832,0.000
4539.000,-20.020,-33.691,-24.902,-20.508,0.000
4543.000,-24.902,-10.742,-24.902,-19.043,0.000
4547.000,-25.879,0.000,-29.297,-31.250,0.000
4551.000,-24.414,-3.906,-31.738,-38.574,0.000
4554.000,-18.066,-12.207,-27.344,-27.832,0.000
4558.000,-28.320,-16.602,-25.391,-41.992,0.000
4562.000,-27.344,-18.066,-29.297,-54.199,0.000
4566.000,-20.020,-12.695,-25.391,-43.945,0.000
4570.000,-27.832,-12.207,-20.996,-40.527,0.000
4574.000,-30.762,-11.719,-20.508,-36.621,0.000
4578.000,-35.156,-12.695,-25.879,-41.992,0.000
4582.000,-19.043,-24.902,-27.832,-39.062,0.000
4586.000,-1.465,-20.508,-15.625,-27.832,0.000
4590.000,-23.926,-14.648,-16.602,-40.527,0.000
4593.000,-32.227,-19.531,-20.508,-51.270,0.000
4597.000,-30.273,-14.648,-20.996,-49.316,0.000
4601.000,-48.340,-12.207,-24.902,-44.922,0.000
4605.000,-60.547,-12.207,-20.508,-35.156,0.000
4609.000,-58.594,-20.996,-16.602,-41.016,0.000
4613.000,-46.875,-23.438,-20.508,-43.945,0.000
4617.000,-46.387,-15.625,-21.973,-31.738,0.000
4621.000,-58.105,-15.137,-17.090,-26.367,0.000
4625.000,-55.664,-14.648,-15.625,-25.879,0.000
4629.000,-52.734,-9.766,-15.625,-38.574,0.000
4633.000,-47.363,-16.113,-12.695,-38.086,0.000
4636.000,-32.227,-21.484,-16.602,-22.461,0.000
4640.000,-35.156,-18.066,-20.508,-23.438,0.000
4644.000,-33.203,-13.672,-15.137,-24.414,0.000
4648.000,-17.090,-3.906,-6.348,-16.113,0.000
4652.000,-19.043,-13.672,-14.160,-10.254,0.000
4656.000,-27.344,-23.438,-24.902,-24.414,0.000
4660.000,-28.320,-18.066,-28.320,-36.133,0.000
4664.000,-19.043,-18.555,-27.832,-29.297,0.000
4668.000,-17.090,-21.484,-28.320,-25.879,0.000
4672.000,-21.973,-16.113,-32.227,-23.926,0.000
4676.000,-15.137,-15.137,-29.785,-29.297,0.000
4679.000,-13.184,-24.414,-26.367,-36.133,0.000
4683.000,-14.160,-21.973,-22.949,-31.738,0.000
4687.000,-19.531,-18.066,-23.926,-30.273,0.000
4691.000,-18.066,-23.926,-22.949,-29.297,0.000
4695.000,-23.438,-22.461,-22.949,-31.738,0.000
4699.000,-29.785,-21.973,-23.438,-31.738,0.000
4703.000,-22.461,-21.484,-20.508,-25.391,0.000
4707.000,-15.137,-18.066,-23.926,-22.949,0.000
4711.000,-21.484,-19.043,-26.855,-24.414,0.000
4715.000,-24.902,-28.320,-27.344,-27.344,0.000
4718.000,-34.668,-25.391,-28.809,-27.832,0.000
4722.000,-44.434,-18.555,-25.879,-20.020,0.000
4726.000,-41.992,-24.414,-23.926,-21.973,0.000
4730.000,-31.738,-17.090,-26.367,-36.621,0.000
4734.000,-25.879,-13.184,-29.297,-40.527,0.000
4738.000,-27.344,-17.578,-23.926,-39.551,0.000
4742.000,-27.344,-14.648,-19.043,-41.504,0.000
4746.000,-30.273,-13.672,-16.602,-34.668,0.000
4750.000,-17.090,-8.301,-19.043,-26.367,0.000
4754.000,-12.695,-14.160,-19.043,-24.902,0.000
4758.000,-33.203,-24.414,-19.531,-33.203,0.000
4761.000,-29.297,-20.508,-20.996,-31.250,0.000
4765.000,-5.371,-15.137,-19.043,-10.742,0.000
4769.000,9.766,-7.324,-8.789,5.859,0.000
4773.000,-12.207,-10.254,-16.602,-18.555,0.000
4777.000,-25.391,-17.578,-26.855,-35.156,0.000
4781.000,-6.348,-11.230,-25.879,-23.438,0.000
4785.000,8.301,-2.930,-24.902,-12.695,0.000
4789.000,1.953,-3.906,-28.809,-17.578,0.000
4793.000,-13.184,-23.438,-36.621,-39.062,0.000
4797.000,-8.789,-30.273,-39.551,-36.133,0.000
4801.000,-8.789,-21.484,-39.551,-22.461,0.000
4804.000,1.465,-18.066,-38.086,-9.277,0.000
4808.000,4.883,-24.902,-38.574,-10.254,0.000
4812.000,4.395,-22.949,-33.203,-19.531,0.000
4816.000,3.906,-13.184,-31.738,-9.277,0.000
4820.000,-15.625,-23.926,-35.156,-7.812,0.000
4824.000,-24.414,-32.715,-35.156,-6.836,0.000
4828.000,-13.672,-19.531,-36.133,-5.859,0.000
4832.000,-1.953,-15.137,-33.203,-6.836,0.000
4836.000,2.441,-21.484,-28.809,5.859,0.000
4840.000,2.441,-18.066,-25.391,15.625,0.000
4843.000,2.930,-19.531,-22.949,13.184,0.000
4847.000,9.766,-26.855,-23.438,14.160,0.000
4851.000,13.672,-20.508,-25.879,12.695,0.000
4855.000,10.742,-19.531,-25.391,5.371,0.000
4859.000,15.625,-20.020,-21.973,15.137,0.000
4863.000,22.949,-20.996,-20.508,23.926,0.000
4867.000,11.719,-27.832,-21.973,25.391,0.000
4871.000,8.301,-29.297,-18.066,35.156,0.000
4875.000,19.043,-24.902,-11.719,46.387,0.000
4879.000,22.949,-23.438,-13.184,50.781,0.000
4883.000,36.621,-22.461,-15.625,40.527,0.000
4886.000,34.668,-20.508,-16.113,24.414,0.000
4890.000,22.461,-23.438,-16.113,20.508,0.000
4894.000,31.250,-20.508,-9.766,27.344,0.000
4898.000,35.156,-18.066,-4.395,34.180,0.000
4902.000,18.555,-25.879,-13.184,22.949,0.000
4906.000,8.789,-25.391,-17.578,22.949,0.000
4910.000,14.160,-25.879,-19.043,19.531,0.000
4914.000,20.996,-32.227,-20.508,4.883,0.000
4918.000,10.742,-34.668,-17.090,1.953,0.000
4922.000,2.441,-30.273,-15.625,8.301,0.000
4926.000,-5.371,-33.691,-13.184,6.836,0.000
4929.000,-19.043,-38.574,-15.625,-5.371,0.000
4933.000,-18.555,-42.480,-18.555,-2.930,0.000
4937.000,-16.602,-42.969,-15.625,9.277,0.000
4941.000,-26.367,-35.645,-14.648,4.395,0.000
4945.000,-30.762,-36.133,-17.090,-13.672,0.000
4949.000,-21.484,-34.180,-15.137,-7.812,0.000
4953.000,-31.738,-30.762,-7.324,-0.488,0.000
4957.000,-40.527,-32.227,-6.836,-8.789,0.000
4961.000,-25.391,-28.809,-6.836,-7.324,0.000
4965.000,-19.531,-35.156,-10.742,-2.441,0.000
4968.000,-25.879,-36.621,-19.531,-2.930,0.000
4972.000,-27.832,-28.809,-20.020,-8.301,0.000
4976.000,-20.508,-27.344,-10.254,-12.695,0.000
4980.000,-15.625,-29.297,-9.766,-19.531,0.000
4984.000,-14.160,-31.250,-13.672,-25.879,0.000
4988.000,-9.277,-29.297,-8.789,-15.625,0.000
4992.000,-12.695,-28.809,-10.742,-21.973,0.000
4996.000,-17.578,-27.344,-18.555,-26.367,0.000
5000.000,-14.648,-25.391,-20.508,-25.879,0.000
5004.000,-13.672,-23.926,-23.438,-23.438,0.000
5008.000,-10.742,-23.926,-24.414,-15.625,0.000
5011.000,-9.766,-27.344,-22.461,-25.391,0.000
5015.000,-6.836,-25.391,-20.020,-33.203,0.000
5019.000,0.000,-24.902,-20.508,-27.832,0.000
5023.000,-20.020,-29.297,-26.367,-24.414,0.000
5027.000,-50.293,-26.367,-28.809,-24.902,0.000
5031.000,-51.758,-23.438,-29.785,-18.555,0.000
5035.000,-36.621,-23.438,-27.344,-17.090,0.000
5039.000,-32.715,-24.902,-27.344,-10.742,0.000
5043.000,-34.180,-24.902,-28.809,-9.277,0.000
5047.000,-33.691,-23.438,-26.367,-16.113,0.000
5050.000,-19.043,-25.879,-24.902,-9.766,0.000
5054.000,-16.602,-25.879,-24.414,-0.977,0.000
5058.000,-19.043,-22.461,-18.555,0.977,0.000
5062.000,-11.230,-21.484,-19.531,-4.883,0.000
5066.000,-4.883,-24.902,-27.344,-6.348,0.000
5070.000,-8.789,-26.855,-29.785,-6.836,0.000
5074.000,-12.207,-29.297,-31.250,-10.742,0.000
5078.000,-8.301,-32.715,-32.715,-17.090,0.000
5082.000,-5.859,-30.273,-29.785,-9.277,0.000
5086.000,-9.766,-29.785,-29.785,1.953,0.000
5090.000,-9.766,-25.879,-25.879,2.930,0.000
5093.000,-7.324,-24.414,-21.973,-5.859,0.000
5097.000,-2.441,-30.273,-24.414,-17.090,0.000
5101.000,3.418,-22.461,-20.020,-11.230,0.000
5105.000,8.789,-16.602,-20.020,-2.930,0.000
5109.000,-0.977,-27.832,-21.484,-8.789,0.000
5113.000,-15.137,-32.715,-19.043,-18.555,0.000
5117.000,-5.859,-25.879,-21.484,-14.648,0.000
5121.000,-1.465,-22.949,-20.508,3.906,0.000
5125.000,-7.812,-24.414,-21.973,0.977,0.000
5129.000,-11.719,-26.855,-26.855,-0.977,0.000
5133.000,-14.160,-29.297,-25.391,9.277,0.000
5136.000,-12.207,-33.691,-25.391,12.695,0.000
5140.000,-14.160,-34.668,-27.832,3.418,0.000
5144.000,-9.766,-29.785,-27.344,0.000,0.000
5148.000,-9.766,-34.668,-27.832,-6.836,0.000
5152.000,-12.207,-39.551,-32.227,-6.348,0.000
5156.000,-7.324,-32.227,-30.762,1.953,0.000
5160.000,-7.324,-27.344,-27.344,-4.395,0.000
5164.000,-4.395,-31.250,-22.461,-12.207,0.000
5168.000,4.395,-35.645,-19.531,0.000,0.000
5172.000,21.973,-34.668,-15.137,21.484,0.000
5175.000,10.254,-37.109,-16.602,-4.395,0.000
5179.000,-26.367,-40.039,-26.367,-39.062,0.000
5183.000,-26.855,-35.645,-26.367,-38.086,0.000
5187.000,-20.508,-44.922,-29.297,-28.809,0.000
5191.000,-35.156,-72.266,-31.250,-32.715,0.000
5195.000,-40.527,-50.781,-18.066,-46.875,0.000
5199.000,-39.551,-25.879,-17.090,-56.641,0.000
5203.000,-50.293,-49.316,-22.949,-56.152,0.000
5207.000,-79.102,-44.434,-22.949,-66.895,0.000
5211.000,-110.840,-36.133,-23.926,-92.285,0.000
5215.000,-112.793,-47.363,-18.066,-92.773,0.000
5218.000,-96.680,-69.336,-24.414,-76.660,0.000
5222.000,-106.445,-66.406,-36.621,-84.473,0.000
5226.000,-117.188,-31.738,-14.160,-98.145,0.000
5230.000,-110.840,-18.066,-6.348,-97.168,0.000
5234.000,-104.492,-29.785,-22.949,-83.008,0.000
5238.000,-99.121,-41.992,-15.625,-75.195,0.000
5242.000,-89.355,-45.410,-20.508,-76.172,0.000
5246.000,-80.078,-38.574,-30.762,-76.172,0.000
5250.000,-76.172,-31.738,-9.277,-73.242,0.000
5254.000,-77.637,-42.480,-11.230,-69.336,0.000
5258.000,-86.914,-62.988,-46.387,-68.359,0.000
5261.000,-86.914,-61.035,-49.316,-71.289,0.000
5265.000,-76.172,-29.297,-29.297,-76.660,0.000
5269.000,-80.566,0.488,-31.738,-82.520,0.000
5273.000,-77.637,-10.742,-28.809,-71.777,0.000
5277.000,-73.242,-30.273,-11.719,-67.383,0.000
5281.000,-92.285,-29.297,-12.207,-91.309,0.000
5285.000,-95.703,-35.645,-14.160,-101.562,0.000
5289.000,-65.430,-33.203,8.789,-76.660,0.000
5293.000,-27.832,-43.945,3.906,-49.805,0.000
5297.000,-38.086,-35.645,-29.785,-73.242,0.000
5300.000,-84.473,-10.254,-55.664,-111.328,0.000
5304.000,-117.676,-20.020,-47.852,-110.352,0.000
5308.000,-117.188,-29.297,-20.508,-99.609,0.000
5312.000,-106.934,-30.762,-37.598,-95.703,0.000
5316.000,-115.234,-24.414,-60.547,-106.445,0.000
5320.000,-108.398,-29.297,-43.457,-98.633,0.000
5324.000,-87.402,-18.555,-43.457,-79.102,0.000
5328.000,-79.102,-25.879,-43.457,-78.125,0.000
5332.000,-93.750,-20.996,-34.180,-87.891,0.000
5336.000,-101.074,-16.602,-24.902,-90.332,0.000
5340.000,-83.008,-48.828,-23.926,-70.312,0.000
5343.000,-92.773,-33.691,-33.691,-71.289,0.000
5347.000,-99.121,-5.859,-41.992,-82.031,0.000
5351.000,-86.426,-37.109,-48.828,-79.590,0.000
5355.000,-81.055,-67.383,-45.898,-71.289,0.000
5359.000,-85.449,-37.598,-46.387,-72.754,0.000
5363.000,-81.055,-1.465,-36.133,-74.219,0.000
5367.000,-74.707,-19.043,-37.109,-72.266,0.000
5371.000,-72.754,-27.832,-49.805,-63.965,0.000
5375.000,-77.148,-30.273,-38.086,-66.406,0.000
5379.000,-87.891,-45.898,-32.227,-89.355,0.000
5382.000,-84.961,-32.227,-38.574,-93.262,0.000
5386.000,-78.125,-31.250,-39.551,-84.473,0.000
5390.000,-63.965,-25.879,-35.156,-76.660,0.000
5394.000,-65.430,-36.621,-34.180,-77.148,0.000
5398.000,-79.590,-44.434,-39.062,-92.773,0.000
5402.000,-74.707,-21.973,-40.527,-83.984,0.000
5406.000,-71.289,-17.090,-34.668,-69.824,0.000
5410.000,-71.289,-24.902,-32.715,-82.031,0.000
5414.000,-62.988,-26.367,-36.133,-79.590,0.000
5418.000,-52.734,-10.254,-42.969,-58.105,0.000
5422.000,-55.176,-22.949,-31.250,-44.434,0.000
5425.000,-62.012,-37.109,-25.879,-45.898,0.000
5429.000,-83.496,-23.926,-45.898,-62.500,0.000
5433.000,-80.078,-22.949,-29.297,-46.875,0.000
5437.000,-71.777,-35.645,-29.785,-42.480,0.000
5441.000,-77.637,-16.602,-52.246,-60.547,0.000
5445.000,-69.824,-14.160,-41.016,-63.477,0.000
5449.000,-62.988,-21.973,-26.855,-59.570,0.000
5453.000,-62.012,-26.855,-31.250,-42.969,0.000
5457.000,-57.617,-23.926,-39.062,-40.527,0.000
5461.000,-55.664,-19.531,-34.668,-47.363,0.000
5465.000,-49.316,-24.902,-30.762,-39.062,0.000
5468.000,-44.434,-20.508,-25.879,-32.715,0.000
5472.000,-49.316,-33.203,-22.949,-44.922,0.000
5476.000,-51.758,-51.758,-38.086,-56.152,0.000
5480.000,-48.340,-46.875,-45.898,-60.547,0.000
5484.000,-46.875,-23.926,-34.668,-54.688,0.000
5488.000,-45.898,-1.465,-28.320,-46.387,0.000
5492.000,-39.062,-18.066,-42.480,-61.523,0.000
5496.000,-41.504,-29.297,-49.316,-77.637,0.000
5500.000,-50.293,-12.695,-41.504,-69.336,0.000
5504.000,-36.133,-19.531,-37.109,-49.316,0.000
5507.000,-33.203,-27.344,-40.527,-41.504,0.000
5511.000,-35.156,-19.531,-34.180,-47.852,0.000
5515.000,-27.344,-11.230,-23.926,-45.898,0.000
5519.000,-38.086,-30.762,-17.090,-41.016,0.000
5523.000,-28.809,-22.949,-10.742,-28.320,0.000
5527.000,-28.809,-3.906,-14.160,-25.391,0.000
5531.000,-48.828,-15.137,-22.949,-34.180,0.000
5535.000,-46.875,-31.250,-26.367,-27.832,0.000
5539.000,-38.574,-29.785,-17.090,-14.648,0.000
5543.000,-39.551,-22.949,-19.043,-22.461,0.000
5547.000,-38.574,-12.695,-28.320,-38.086,0.000
5550.000,-32.227,-5.859,-32.227,-26.855,0.000
5554.000,-28.320,-9.766,-24.414,-16.602,0.000
5558.000,-25.879,-5.859,-5.859,-19.531,0.000
5562.000,-20.508,-9.766,-2.441,-19.043,0.000
5566.000,-12.207,-25.879,-10.742,-11.719,0.000
5570.000,8.301,-33.691,-9.766,8.301,0.000
5574.000,-0.977,-15.625,-13.184,-1.953,0.000
5578.000,-26.367,-2.441,-14.648,-27.832,0.000
5582.000,-7.812,3.418,-3.418,-17.578,0.000
5586.000,-0.977,-6.836,-10.254,-15.137,0.000
5590.000,-13.184,-26.855,-26.367,-23.438,0.000
5593.000,-8.789,-25.879,-28.320,-30.762,0.000
5597.000,-8.301,-26.367,-25.879,-28.320,0.000
5601.000,-1.953,-23.438,-27.832,-10.254,0.000
5605.000,7.324,-13.672,-30.273,-4.395,0.000
5609.000,8.301,-19.043,-32.715,-14.648,0.000
5613.000,10.742,-20.020,-35.156,-11.719,0.000
5617.000,19.043,-18.066,-33.691,-6.348,0.000
5621.000,29.297,-26.367,-32.715,-0.488,0.000
5625.000,31.738,-26.367,-28.320,15.625,0.000
5629.000,26.855,-18.555,-26.367,10.742,0.000
5632.000,23.926,-21.484,-24.902,9.766,0.000
5636.000,27.344,-19.531,-23.926,28.809,0.000
5640.000,29.785,-19.043,-24.902,32.227,0.000
5644.000,26.367,-18.555,-24.414,20.508,0.000
5648.000,33.203,-22.461,-27.344,23.438,0.000
5652.000,47.363,-19.043,-29.785,42.480,0.000
5656.000,40.527,-13.672,-27.832,55.664,0.000
5660.000,39.551,-35.645,-16.113,57.617,0.000
5664.000,46.875,-36.133,-14.160,47.852,0.000
5668.000,51.758,-3.418,-16.602,41.992,0.000
5672.000,54.199,3.906,-10.742,44.922,0.000
5675.000,60.059,-0.977,0.977,47.852,0.000
5679.000,62.012,-5.859,0.488,41.016,0.000
5683.000,50.781,-5.371,-15.137,37.109,0.000
5687.000,43.457,-10.742,-19.531,46.875,0.000
5691.000,40.039,-14.160,-9.766,44.434,0.000
5695.000,35.645,-12.695,-7.812,22.461,0.000
5699.000,37.598,-13.672,-8.789,22.461,0.000
5703.000,41.504,-22.461,-4.395,32.227,0.000
5707.000,29.785,-22.461,-3.906,27.344,0.000
5711.000,24.902,-14.648,-6.348,18.555,0.000
5715.000,29.297,-19.043,-5.859,15.625,0.000
5718.000,28.809,-28.320,-4.883,14.648,0.000
5722.000,22.461,-24.414,-6.348,18.066,0.000
5726.000,6.836,-9.766,-2.441,22.949,0.000
5730.000,15.625,-5.859,-0.977,20.020,0.000
5734.000,29.297,-4.883,0.977,22.461,0.000
5738.000,29.785,-9.277,2.930,23.438,0.000
5742.000,20.508,-16.602,-0.488,27.832,0.000
5746.000,17.578,-11.719,-4.395,37.109,0.000
5750.000,25.391,2.441,-2.930,34.180,0.000
5754.000,28.809,2.441,-4.395,29.785,0.000
5757.000,35.645,-5.859,-8.789,23.926,0.000
5761.000,32.715,3.906,-4.883,21.484,0.000
5765.000,17.578,9.766,-3.906,21.973,0.000
5769.000,13.672,-1.465,-5.371,19.043,0.000
5773.000,18.555,-1.465,-4.883,15.625,0.000
5777.000,11.230,1.465,-11.230,4.395,0.000
5781.000,10.254,0.488,-12.207,-1.465,0.000
5785.000,18.555,-0.977,-12.207,-0.977,0.000
5789.000,16.602,-3.906,-13.672,-2.930,0.000
5793.000,13.184,-12.207,-13.672,-12.207,0.000
5797.000,15.625,-17.090,-12.207,-20.996,0.000
5800.000,15.137,-11.230,-5.859,-14.648,0.000
5804.000,8.301,-7.812,0.977,-11.230,0.000
5808.000,-10.254,-15.137,-1.465,-15.137,0.000
5812.000,-24.902,-19.043,-4.883,-16.113,0.000
5816.000,-18.555,-9.766,-0.977,-12.207,0.000
5820.000,-5.371,-12.207,2.930,-3.906,0.000
5824.000,-0.977,-16.113,-2.441,-9.277,0.000
5828.000,-13.184,-11.230,-13.184,-21.973,0.000
5832.000,-11.719,-13.672,-7.324,-11.230,0.000
5836.000,6.836,-14.648,-1.953,0.488,0.000
5840.000,-1.465,-13.184,-13.672,-7.812,0.000
5843.000,-33.691,-9.766,-19.043,-16.113,0.000
5847.000,-33.203,-15.137,-22.949,-18.555,0.000
5851.000,-24.902,-17.578,-25.879,-14.160,0.000
5855.000,-29.297,-18.066,-20.996,-15.137,0.000
5859.000,-30.762,-24.902,-21.484,-20.508,0.000
5863.000,-28.320,-22.949,-23.438,-24.414,0.000
5867.000,-27.832,-18.066,-23.926,-24.902,0.000
5871.000,-33.691,-16.113,-28.809,-29.785,0.000
5875.000,-40.039,-14.648,-25.391,-33.203,0.000
5879.000,-30.762,-16.602,-10.742,-35.156,0.000
5882.000,-28.320,-19.531,-15.625,-35.156,0.000
5886.000,-41.016,-25.879,-22.949,-35.156,0.000
5890.000,-46.387,-32.715,-20.508,-29.785,0.000
5894.000,-40.039,-27.344,-18.555,-35.156,0.000
5898.000,-25.879,-15.625,-18.066,-38.574,0.000
5902.000,-20.996,-12.207,-22.461,-33.691,0.000
5906.000,-27.344,-12.695,-18.066,-34.180,0.000
5910.000,-30.762,-10.254,-22.949,-37.598,0.000
5914.000,-20.996,-10.742,-30.273,-41.992,0.000
5918.000,-4.395,-7.324,-22.949,-31.250,0.000
5922.000,-8.789,-2.441,-20.996,-25.391,0.000
5925.000,-29.297,1.465,-20.020,-24.414,0.000
5929.000,-32.715,-13.184,-19.531,-24.902,0.000
5933.000,-27.832,-19.043,-26.367,-21.484,0.000
5937.000,-24.902,-11.719,-25.391,-21.973,0.000
5941.000,-27.832,-14.648,-22.461,-30.273,0.000
5945.000,-27.344,-7.812,-19.043,-29.297,0.000
5949.000,-23.926,-10.742,-22.461,-26.367,0.000
5953.000,-32.227,-20.508,-27.832,-25.391,0.000
5957.000,-41.504,-23.438,-27.832,-29.297,0.000
5961.000,-45.410,-21.973,-24.414,-23.926,0.000
5964.000,-41.992,-29.785,-25.391,-17.578,0.000
5968.000,-24.902,-36.621,-29.297,-1.465,0.000
5972.000,-19.531,-33.203,-21.973,8.301,0.000
5976.000,-48.828,-52.246,-21.973,-27.832,0.000
5980.000,-52.734,-59.082,-28.809,-49.316,0.000
5984.000,-47.363,-48.340,-28.320,-38.086,0.000
5988.000,-59.570,-56.152,-20.996,-34.180,0.000
5992.000,-56.641,-50.293,-10.742,-47.852,0.000
5996.000,-57.129,-52.246,-10.254,-54.199,0.000
6000.000,-69.824,-56.641,-18.555,-51.270,0.000
6004.000,-74.707,-49.805,-20.996,-67.871,0.000
6007.000,-89.355,-43.457,-21.484,-93.750,0.000
6011.000,-99.121,-37.109,-25.879,-97.656,0.000
6015.000,-97.168,-30.273,-25.391,-91.309,0.000
6019.000,-102.539,-30.762,-16.602,-89.355,0.000
6023.000,-103.516,-22.949,10.254,-81.543,0.000
6027.000,-100.586,-43.945,8.789,-93.750,0.000
6031.000,-122.559,-51.758,-10.742,-115.234,0.000
6035.000,-146.484,-21.973,-11.719,-129.395,0.000
6039.000,-155.273,-28.320,-15.625,-142.090,0.000
6043.000,-163.086,-43.945,-23.438,-145.508,0.000
6047.000,-149.902,-15.625,-11.230,-142.578,0.000
6050.000,-151.367,1.465,10.254,-149.414,0.000
6054.000,-162.598,-39.551,22.949,-150.879,0.000
6058.000,-155.762,-62.988,13.184,-145.020,0.000
6062.000,-154.785,-39.062,-7.324,-146.484,0.000
6066.000,-154.785,-12.695,-4.395,-149.414,0.000
6070.000,-152.344,-14.648,0.000,-147.949,0.000
6074.000,-129.395,-15.625,6.348,-122.559,0.000
6078.000,-127.441,-37.109,-23.926,-115.723,0.000
6082.000,-137.207,-73.242,-32.715,-127.441,0.000
6086.000,-107.422,-65.918,-1.465,-97.656,0.000
6089.000,-91.797,-31.738,-20.508,-72.754,0.000
6093.000,-94.238,2.441,-30.762,-83.496,0.000
6097.000,-82.520,-16.602,-16.602,-84.961,0.000
6101.000,-54.199,-37.109,-24.902,-58.105,0.000
6105.000,-33.203,-25.391,-16.113,-33.203,0.000
6109.000,-42.969,-25.391,3.906,-43.457,0.000
6113.000,-56.152,-53.223,-10.254,-66.895,0.000
6117.000,-56.641,-64.453,-30.762,-51.758,0.000
6121.000,-45.410,-32.227,-20.508,-17.090,0.000
6125.000,-37.109,-15.625,-8.789,-14.160,0.000
6129.000,-50.293,-16.602,-33.691,-36.133,0.000
6132.000,-42.480,-27.344,-28.809,-31.250,0.000
6136.000,-23.438,-50.293,-18.555,-14.160,0.000
6140.000,-21.484,-46.875,-39.551,-17.578,0.000
6144.000,-19.531,-39.551,-40.039,-24.414,0.000
6148.000,2.441,-66.895,-19.043,-14.648,0.000
6152.000,20.020,-24.414,-19.043,-0.488,0.000
6156.000,-19.043,16.602,-38.574,-10.742,0.000
6160.000,-50.293,10.254,-42.969,-24.414,0.000
6164.000,-27.344,-29.297,-26.367,-16.602,0.000
6168.000,-12.207,-72.754,-18.555,-5.859,0.000
6172.000,-14.648,-21.484,-49.805,-24.414,0.000
6175.000,-22.461,-5.371,-43.457,-42.480,0.000
6179.000,-26.855,-27.344,-26.855,-39.062,0.000
6183.000,-29.297,-50.781,-45.410,-29.785,0.000
6187.000,-27.832,-43.457,-30.762,-21.973,0.000
6191.000,-15.137,-8.789,-22.461,-23.926,0.000
6195.000,-7.324,-16.113,-38.574,-24.902,0.000
6199.000,-37.109,-29.297,-42.480,-40.039,0.000
6203.000,-44.922,-13.184,-41.016,-41.016,0.000
6207.000,-20.020,-17.090,-28.320,-17.090,0.000
6211.000,-26.367,-41.992,-34.668,-21.484,0.000
6214.000,-43.457,-39.062,-41.992,-51.270,0.000
6218.000,-29.297,-20.020,-33.203,-45.898,0.000
6222.000,-20.996,-26.367,-29.785,-20.996,0.000
6226.000,-28.320,-35.156,-38.574,-32.227,0.000
6230.000,-29.297,-15.137,-41.016,-49.805,0.000
6234.000,-16.113,-17.578,-34.668,-34.180,0.000
6238.000,-16.602,-29.297,-30.762,-20.996,0.000
6242.000,-25.879,-24.902,-35.645,-23.926,0.000
6246.000,-18.555,-11.230,-28.809,-27.344,0.000
6250.000,-20.508,-19.043,-27.832,-35.156,0.000
6254.000,-31.250,-51.758,-45.898,-35.156,0.000
6257.000,-47.852,-55.664,-65.918,-42.480,0.000
6261.000,-49.805,-50.293,-54.199,-49.316,0.000
6265.000,-33.203,-51.758,-29.785,-37.598,0.000
6269.000,-24.414,-29.297,-28.809,-34.180,0.000
6273.000,-21.973,-14.160,-20.508,-28.320,0.000
6277.000,-13.184,-11.230,-23.926,-13.672,0.000
6281.000,-21.484,-29.785,-32.715,-13.184,0.000
6285.000,-28.809,-30.762,-17.578,-20.508,0.000
6289.000,-28.809,-15.137,-20.996,-14.160,0.000
6293.000,-24.414,-18.066,-22.461,-14.648,0.000
6297.000,-25.391,-47.363,-16.602,-29.785,0.000
6300.000,-11.719,-40.039,-19.531,-11.719,0.000
6304.000,-5.859,-13.672,-26.855,-0.977,0.000
6308.000,-28.320,-23.438,-31.738,-17.090,0.000
6312.000,-48.340,-30.762,-25.391,-25.391,0.000
6316.000,-34.180,-31.250,-22.949,-14.160,0.000
6320.000,-6.348,-34.668,-18.555,1.953,0.000
6324.000,-14.160,-12.207,-22.949,-17.578,0.000
6328.000,-23.926,-5.859,-47.363,-35.645,0.000
6332.000,-26.367,-24.902,-36.133,-31.738,0.000
6336.000,-32.227,-19.043,-18.066,-26.367,0.000
6339.000,-38.574,-15.137,-25.391,-31.738,0.000
6343.000,-33.691,-30.273,-27.832,-33.203,0.000
6347.000,-24.902,-21.973,-31.738,-30.273,0.000
6351.000,-22.461,0.488,-34.180,-28.320,0.000
6355.000,-19.043,-12.695,-22.949,-17.090,0.000
6359.000,-0.488,-17.090,-14.160,2.441,0.000
6363.000,11.230,3.418,-15.137,-1.465,0.000
6367.000,5.859,-4.395,-19.043,-14.648,0.000
6371.000,-25.391,-26.367,-21.973,-26.367,0.000
6375.000,-49.316,-18.555,-32.227,-38.086,0.000
6379.000,-34.180,-4.883,-30.762,-38.086,0.000
6382.000,-23.926,-7.324,-35.645,-39.551,0.000
6386.000,-21.484,-2.930,-49.805,-41.504,0.000
6390.000,-17.578,-7.812,-51.758,-47.852,0.000
6394.000,-3.906,-16.113,-41.016,-31.250,0.000
6398.000,1.465,3.418,-38.086,-18.555,0.000
6402.000,6.836,1.953,-43.457,-7.812,0.000
6406.000,-7.324,0.488,-41.504,3.418,0.000
6410.000,-13.672,5.371,-36.133,-10.254,0.000
6414.000,10.254,1.465,-31.738,-2.930,0.000
6418.000,15.625,0.000,-28.809,9.277,0.000
6422.000,12.695,-2.441,-23.438,10.254,0.000
6425.000,5.859,-9.277,-22.461,12.695,0.000
6429.000,-4.395,-17.090,-26.367,1.465,0.000
6433.000,7.324,-11.230,-25.391,-5.859,0.000
6437.000,22.461,-13.672,-26.855,-0.977,0.000
6441.000,32.227,-18.555,-24.902,14.648,0.000
6445.000,42.969,-10.742,-20.508,18.066,0.000
6449.000,40.527,-11.230,-14.160,7.324,0.000
6453.000,29.297,-11.230,-12.695,10.742,0.000
6457.000,34.668,-5.371,-9.766,21.973,0.000
6461.000,50.293,-12.207,1.465,32.715,0.000
6464.000,60.059,-22.461,-4.395,36.133,0.000
6468.000,53.711,-4.883,-14.160,36.621,0.000
6472.000,28.320,-6.348,-24.414,29.297,0.000
6476.000,20.020,-13.672,-25.879,15.137,0.000
6480.000,22.949,-3.906,-23.926,11.719,0.000
6484.000,25.391,-3.906,-20.996,18.555,0.000
6488.000,22.461,-15.137,-22.461,21.973,0.000
6492.000,22.461,-21.973,-35.156,13.672,0.000
6496.000,40.527,-15.625,-38.574,13.672,0.000
6500.000,59.082,-12.207,-32.715,22.949,0.000
6504.000,46.387,-6.348,-26.855,24.414,0.000
6507.000,17.090,-5.859,-26.367,15.137,0.000
6511.000,12.695,-15.625,-24.902,11.230,0.000
6515.000,7.812,-21.973,-22.461,2.441,0.000
6519.000,10.254,-24.414,-25.391,5.859,0.000
6523.000,24.902,-18.555,-25.879,20.996,0.000
6527.000,27.344,-5.371,-18.066,14.160,0.000
6531.000,24.902,-7.324,-16.113,-1.953,0.000
6535.000,28.809,-6.836,-14.160,11.230,0.000
6539.000,29.297,-8.301,-13.672,21.484,0.000
6543.000,17.578,-13.672,-15.137,4.883,0.000
6546.000,11.719,-6.348,-14.648,0.977,0.000
6550.000,23.438,-2.930,-13.672,3.906,0.000
6554.000,27.832,-31.738,-13.184,10.742,0.000
6558.000,2.930,-23.926,-10.254,14.160,0.000
6562.000,-13.184,-11.719,-9.766,-1.953,0.000
6566.000,-16.602,-21.973,-16.113,-6.348,0.000
6570.000,-22.461,-5.371,-16.602,-3.906,0.000
6574.000,-20.508,-2.441,-10.742,-3.906,0.000
6578.000,-14.648,-10.742,-10.254,-14.648,0.000
6582.000,-7.812,-13.184,-15.625,-24.414,0.000
6586.000,-0.488,-10.742,-14.648,-12.695,0.000
6589.000,1.465,-7.324,-7.812,-3.906,0.000
6593.000,-7.324,-16.113,-12.207,-17.578,0.000
6597.000,-17.090,-26.367,-23.438,-27.344,0.000
6601.000,-17.578,-26.855,-25.879,-23.926,0.000
6605.000,-19.531,-25.391,-25.879,-23.438,0.000
6609.000,-21.484,-26.855,-18.555,-18.555,0.000
6613.000,-14.648,-29.297,-16.602,-18.555,0.000
6617.000,-9.277,-19.043,-17.578,-17.578,0.000
6621.000,-0.488,-11.230,-12.695,-6.836,0.000
6625.000,3.418,-23.926,-17.578,0.000,0.000
6629.000,-6.836,-21.973,-18.066,6.348,0.000
6632.000,-23.926,-19.531,-14.648,-6.348,0.000
6636.000,-44.434,-28.809,-11.719,-30.273,0.000
6640.000,-40.527,-25.391,-5.371,-18.066,0.000
6644.000,-38.086,-24.902,-8.301,-12.207,0.000
6648.000,-28.809,-26.855,-5.859,-19.043,0.000
6652.000,-4.883,-29.297,6.836,2.930,0.000
6656.000,-23.438,-46.387,-5.859,-2.930,0.000
6660.000,-37.598,-50.293,-25.391,-23.438,0.000
6664.000,-18.555,-41.992,-18.066,-22.461,0.000
6668.000,-8.301,-35.156,-11.719,-17.090,0.000
6671.000,-11.230,-30.762,-20.996,-18.066,0.000
6675.000,-16.602,-28.809,-24.902,-25.391,0.000
6679.000,-11.719,-27.344,-21.973,-22.461,0.000
6683.000,-19.043,-32.227,-24.902,-14.648,0.000
6687.000,-29.785,-29.297,-20.020,-12.695,0.000
6691.000,-17.090,-27.344,-12.207,-7.324,0.000
6695.000,-12.207,-29.297,-19.043,-18.555,0.000
6699.000,-20.996,-41.016,-19.531,-18.555,0.000
6703.000,-18.066,-55.176,-8.301,6.836,0.000
6707.000,-9.766,-41.992,-4.883,7.812,0.000
6711.000,-14.648,-24.902,-5.371,0.977,0.000
6714.000,-4.883,-19.043,6.348,5.371,0.000
6718.000,-0.488,-11.230,3.906,1.953,0.000
6722.000,-15.625,-8.789,-8.789,-6.348,0.000
6726.000,-21.973,-19.043,-16.602,-11.719,0.000
6730.000,-18.066,-27.832,-19.531,-17.578,0.000
6734.000,-7.324,-25.391,-17.578,-9.277,0.000
6738.000,-10.254,-17.578,-13.672,-3.906,0.000
6742.000,-18.555,-15.625,-12.695,-11.719,0.000
6746.000,-14.648,-20.508,-11.230,-14.648,0.000
6750.000,-7.812,-16.602,-6.348,-7.812,0.000
6754.000,-7.324,-17.578,-9.277,2.441,0.000
6757.000,1.465,-23.438,-10.254,1.953,0.000
6761.000,6.836,-19.043,1.465,1.953,0.000
6765.000,7.812,-17.578,5.371,7.812,0.000
6769.000,11.230,-23.926,-1.953,7.812,0.000
6773.000,8.789,-17.578,-2.930,7.324,0.000
6777.000,0.488,-12.695,-1.953,0.000,0.000
6781.000,9.277,-14.160,-5.371,-4.395,0.000
6785.000,10.742,-23.438,-13.184,-2.441,0.000
6789.000,7.324,-26.367,-17.090,-0.488,0.000
6793.000,16.602,-22.949,-17.578,2.930,0.000
6796.000,9.766,-27.832,-18.555,2.930,0.000
6800.000,-3.418,-26.855,-21.484,2.930,0.000
6804.000,-13.184,-21.973,-24.414,4.395,0.000
6808.000,-20.508,-18.066,-20.020,-1.465,0.000
6812.000,-16.602,-18.066,-16.113,-7.812,0.000
6816.000,8.301,-17.578,-16.113,4.395,0.000
6820.000,13.672,-16.113,-12.207,15.625,0.000
6824.000,-23.438,-27.344,-14.160,-9.766,0.000
6828.000,-46.387,-36.621,-17.578,-36.133,0.000
6832.000,-27.344,-18.066,-10.742,-29.297,0.000
6836.000,-20.508,-3.418,-9.277,-21.484,0.000
6839.000,-46.875,-28.320,-22.949,-43.457,0.000
6843.000,-59.082,-43.457,-29.297,-65.430,0.000
6847.000,-55.664,-43.945,-26.855,-76.660,0.000
6851.000,-50.293,-35.645,-23.438,-66.406,0.000
6855.000,-57.617,-17.090,-20.508,-62.500,0.000
6859.000,-78.613,4.395,-24.414,-81.055,0.000
6863.000,-63.965,4.883,-11.230,-69.824,0.000
6867.000,-63.477,-44.434,-13.672,-61.035,0.000
6871.000,-78.613,-50.293,-43.457,-70.801,0.000
6875.000,-86.914,-15.137,-37.598,-95.215,0.000
6879.000,-97.168,-2.441,-26.855,-112.793,0.000
6882.000,-96.680,-48.340,-27.344,-95.215,0.000
6886.000,-103.027,-56.152,-27.832,-93.262,0.000
6890.000,-99.609,0.977,-25.391,-97.168,0.000
6894.000,-107.910,-26.367,-21.484,-107.910,0.000
6898.000,-108.887,-31.250,-19.043,-112.793,0.000
6902.000,-91.797,-11.719,-14.648,-105.957,0.000
6906.000,-94.238,-51.758,-12.695,-101.074,0.000
6910.000,-114.746,-76.660,-18.066,-109.375,0.000
6914.000,-115.723,-45.898,-9.277,-109.863,0.000
6918.000,-107.910,9.277,1.953,-97.656,0.000
6921.000,-114.746,23.438,-8.301,-103.516,0.000
6925.000,-120.117,-17.578,-12.207,-104.492,0.000
6929.000,-112.793,-28.809,-4.395,-96.680,0.000
6933.000,-81.055,2.930,10.742,-88.379,0.000
6937.000,-99.609,4.395,10.742,-95.703,0.000
6941.000,-130.371,-48.828,-7.812,-97.168,0.000
6945.000,-131.348,-47.363,-19.531,-118.652,0.000
6949.000,-123.535,-14.160,-22.949,-139.160,0.000
6953.000,-89.844,-20.508,-26.855,-119.141,0.000
6957.000,-76.660,-41.992,-43.457,-97.656,0.000
6961.000,-90.332,-30.273,-31.250,-104.492,0.000
6964.000,-98.145,7.812,-17.090,-109.375,0.000
6968.000,-79.102,-6.348,-20.508,-82.031,0.000
6972.000,-65.430,-17.578,-23.438,-65.430,0.000
6976.000,-72.754,6.836,-12.207,-74.219,0.000
6980.000,-85.449,-10.742,-17.090,-93.750,0.000
6984.000,-88.867,-23.926,-33.691,-88.379,0.000
6988.000,-69.336,-27.832,-42.480,-71.289,0.000
6992.000,-62.012,-26.367,-56.152,-74.219,0.000
6996.000,-78.125,-17.090,-44.922,-80.566,0.000
7000.000,-75.684,-4.395,-25.879,-74.707,0.000
7003.000,-58.594,0.000,-21.973,-56.641,0.000
7007.000,-49.805,-15.137,-18.066,-46.875,0.000
7011.000,-49.316,-15.625,-14.648,-57.617,0.000
7015.000,-45.410,-34.180,-11.230,-53.711,0.000
7019.000,-34.668,-29.297,-13.672,-28.320,0.000
7023.000,-42.480,6.348,-23.438,-24.414,0.000
7027.000,-57.129,-1.465,-30.273,-53.223,0.000
7031.000,-40.527,-8.301,-27.344,-53.223,0.000
7035.000,-31.250,-16.113,-26.855,-38.086,0.000
7039.000,-47.852,-22.461,-27.344,-39.062,0.000
7043.000,-56.641,-40.039,-27.832,-47.363,0.000
7046.000,-32.715,-26.855,-24.414,-31.250,0.000
7050.000,-20.020,-4.883,-20.996,-16.602,0.000
7054.000,-26.367,-18.066,-25.879,-25.391,0.000
7058.000,-28.809,-35.645,-36.133,-41.504,0.000
7062.000,-37.598,-34.668,-22.949,-47.852,0.000
7066.000,-36.621,-30.762,-9.277,-46.387,0.000
7070.000,-25.391,-23.438,-9.766,-42.969,0.000
7074.000,-23.438,-13.184,-14.160,-36.621,0.000
7078.000,-35.156,-21.973,-21.484,-44.922,0.000
7082.000,-31.738,-23.438,-21.973,-41.992,0.000
7086.000,-41.016,-44.922,-29.297,-40.527,0.000
7089.000,-51.758,-29.785,-31.738,-41.504,0.000
7093.000,-42.480,4.395,-24.902,-40.527,0.000
7097.000,-32.715,-10.254,-21.973,-43.457,0.000
7101.000,-25.879,-23.926,-24.902,-41.504,0.000
7105.000,-30.762,-24.414,-26.855,-37.598,0.000
7109.000,-34.180,-17.578,-24.414,-27.832,0.000
7113.000,-36.133,-17.090,-19.531,-28.320,0.000
7117.000,-29.785,-14.648,-11.230,-21.973,0.000
7121.000,-22.949,-10.742,-12.695,-18.066,0.000
7125.000,-33.203,-30.273,-27.344,-31.250,0.000
7128.000,-38.574,-17.578,-24.414,-28.320,0.000
7132.000,-23.926,-4.883,-9.277,-13.672,0.000
7136.000,-24.902,-24.902,-11.719,-11.230,0.000
7140.000,-35.156,-23.926,-20.020,-21.484,0.000
7144.000,-29.297,-17.578,-15.137,-25.879,0.000
7148.000,-22.949,-9.766,-15.625,-26.367,0.000
7152.000,-20.996,0.977,-20.508,-25.391,0.000
7156.000,-16.113,-7.812,-14.648,-11.719,0.000
7160.000,-26.367,-11.719,-17.090,-20.020,0.000
7164.000,-32.227,-10.254,-21.484,-23.926,0.000
7168.000,-25.391,-24.902,-18.066,-9.766,0.000
7171.000,-19.043,-14.160,-11.230,0.977,0.000
7175.000,-24.902,-4.883,-9.766,-0.977,0.000
7179.000,-39.551,-0.488,-12.207,-14.160,0.000
7183.000,-51.758,-27.344,-24.902,-28.320,0.000
7187.000,-56.641,-56.641,-35.156,-33.203,0.000
7191.000,-53.711,-36.621,-27.344,-26.367,0.000
7195.000,-35.645,-5.859,-12.695,-16.113,0.000
7199.000,-31.738,-2.930,-14.160,-10.254,0.000
7203.000,-36.133,-10.254,-21.484,-10.254,0.000
7207.000,-21.484,-15.137,-13.672,-8.301,0.000
7211.000,-15.137,-27.344,-9.766,-4.395,0.000
7214.000,-10.742,-21.973,-11.719,6.836,0.000
7218.000,-12.695,-16.602,-19.043,-1.953,0.000
7222.000,-13.672,-20.996,-21.973,-4.883,0.000
7226.000,-5.859,-13.672,-10.742,-9.277,0.000
7230.000,-6.836,-16.602,-10.742,-27.344,0.000
7234.000,-22.461,-21.484,-28.320,-21.484,0.000
7238.000,-27.344,-22.949,-32.715,-15.625,0.000
7242.000,-21.484,-21.484,-23.926,-15.625,0.000
7246.000,-23.926,-10.254,-23.438,-21.973,0.000
7250.000,-18.555,-4.883,-26.367,-22.461,0.000
7253.000,-12.207,-6.836,-29.297,-16.113,0.000
7257.000,-17.090,-20.020,-33.203,-22.949,0.000
7261.000,-9.766,-25.879,-37.109,-23.926,0.000
7265.000,-1.465,0.000,-37.109,-28.809,0.000
7269.000,1.953,15.625,-28.809,-23.926,0.000
7273.000,12.695,13.184,-29.785,-8.301,0.000
7277.000,5.859,-9.277,-41.992,-19.531,0.000
7281.000,-10.254,-29.297,-50.293,-35.645,0.000
7285.000,-4.395,-5.859,-43.945,-28.320,0.000
7289.000,5.859,9.766,-37.109,-4.395,0.000
7293.000,7.324,0.000,-36.133,11.230,0.000
7296.000,10.742,-4.395,-35.645,-0.977,0.000
7300.000,17.578,1.465,-39.062,-3.418,0.000
7304.000,20.020,-2.930,-40.527,10.254,0.000
7308.000,18.555,-16.602,-34.180,-2.930,0.000
7312.000,18.555,-19.043,-25.391,-9.277,0.000
7316.000,23.926,-3.418,-24.902,14.160,0.000
7320.000,24.414,-4.395,-22.949,21.484,0.000
7324.000,20.996,-11.230,-19.531,14.160,0.000
7328.000,26.855,-10.742,-21.484,14.648,0.000
7332.000,38.574,-12.207,-18.555,22.949,0.000
7336.000,40.527,-6.836,-15.625,32.227,0.000
7339.000,24.902,-3.906,-12.207,23.926,0.000
7343.000,22.949,-9.766,-14.648,10.254,0.000
7347.000,46.875,-11.230,-15.625,25.879,0.000
7351.000,51.758,-12.695,-16.113,36.133,0.000
7355.000,29.785,-16.113,-18.555,35.645,0.000
7359.000,18.066,-18.066,-17.090,39.551,0.000
7363.000,27.832,-18.555,-15.137,36.621,0.000
7367.000,41.016,-19.043,-8.301,45.898,0.000
7371.000,47.363,-14.648,2.441,55.176,0.000
7375.000,41.016,-11.230,-5.859,53.711,0.000
7378.000,22.949,-20.508,-18.066,37.598,0.000
7382.000,21.484,-20.996,-20.508,24.902,0.000
7386.000,36.133,-20.020,-18.555,32.227,0.000
7390.000,23.926,-21.973,-16.113,26.855,0.000
7394.000,11.719,-17.090,-12.207,29.297,0.000
7398.000,8.789,-21.973,-11.230,31.738,0.000
7402.000,4.395,-27.832,-12.695,26.367,0.000
