timestamp,TP9,AF7,AF8,TP10,Right AUX
1673805940.575,-49.316,-31.250,-34.180,-19.043,0.000
1673805940.579,-39.062,-32.227,-33.203,-18.066,0.000
1673805940.583,-19.043,-26.367,-27.832,-18.555,0.000
1673805940.587,-28.809,-24.902,-26.855,-14.160,0.000
1673805940.591,-38.086,-29.297,-28.320,-5.859,0.000
1673805940.595,-51.270,-33.203,-30.273,-2.441,0.000
1673805940.599,-63.965,-33.203,-20.996,2.441,0.000
1673805940.603,-57.129,-41.504,-17.090,-3.906,0.000
1673805940.607,-53.711,-49.805,-20.508,-7.324,0.000
1673805940.611,-46.875,-47.363,-19.531,1.465,0.000
1673805940.614,-38.574,-36.133,-21.973,-0.488,0.000
1673805940.618,-28.809,-25.391,-26.367,-13.672,0.000
1673805940.622,-18.555,-29.785,-24.414,-8.301,0.000
1673805940.626,-7.324,-31.738,-16.113,0.488,0.000
1673805940.630,-4.883,-23.438,-15.137,0.000,0.000
1673805940.634,4.395,-20.508,-30.762,-2.441,0.000
1673805940.638,9.277,-20.508,-41.504,-13.672,0.000
1673805940.642,-2.930,-20.020,-24.902,-9.766,0.000
1673805940.646,-2.441,-20.996,-26.367,-9.766,0.000
1673805940.650,-20.996,-24.902,-39.062,-14.648,0.000
1673805940.654,-28.809,-24.414,-29.785,-5.371,0.000
1673805940.657,-14.648,-24.902,-23.438,-1.465,0.000
1673805940.661,-15.625,-23.926,-25.391,0.000,0.000
1673805940.665,-14.648,-28.809,-24.902,-6.836,0.000
1673805940.669,-6.348,-33.691,-25.391,-5.859,0.000
1673805940.673,-13.184,-29.785,-27.344,4.395,0.000
1673805940.677,-30.762,-22.949,-26.367,3.418,0.000
1673805940.681,-30.762,-17.090,-24.414,-6.348,0.000
1673805940.685,-26.367,-30.273,-30.273,-12.695,0.000
1673805940.689,-29.297,-39.551,-38.574,-6.836,0.000
1673805940.693,-33.691,-37.598,-38.086,-8.789,0.000
1673805940.697,-43.945,-35.645,-39.062,-12.207,0.000
1673805940.700,-43.457,-31.738,-40.039,-11.719,0.000
1673805940.704,-42.969,-31.250,-38.086,-7.812,0.000
1673805940.708,-48.340,-30.762,-36.621,-9.766,0.000
1673805940.712,-51.270,-28.320,-35.156,-25.879,0.000
1673805940.716,-56.152,-28.320,-29.297,-33.203,0.000
1673805940.720,-52.246,-24.902,-31.250,-20.508,0.000
1673805940.724,-41.504,-19.043,-40.527,-17.578,0.000
1673805940.728,-29.785,-22.461,-38.086,-33.203,0.000
1673805940.732,-24.902,-23.926,-31.250,-40.039,0.000
1673805940.736,-32.227,-29.297,-36.621,-39.062,0.000
1673805940.740,-40.527,-28.809,-41.016,-37.109,0.000
1673805940.743,-46.387,-24.414,-40.039,-34.180,0.000
1673805940.747,-41.016,-29.297,-37.598,-31.738,0.000
1673805940.751,-36.133,-31.738,-37.598,-34.180,0.000
1673805940.755,-38.086,-30.762,-40.039,-41.016,0.000
1673805940.759,-35.645,-35.645,-44.434,-37.598,0.000
1673805940.763,-28.809,-37.598,-43.457,-41.504,0.000
1673805940.767,-38.086,-32.715,-42.969,-39.062,0.000
1673805940.771,-41.504,-24.414,-43.457,-27.344,0.000
1673805940.775,-31.738,-23.926,-41.504,-20.508,0.000
1673805940.779,-38.086,-32.227,-41.992,-18.066,0.000
1673805940.782,-46.387,-30.762,-41.992,-20.020,0.000
1673805940.786,-41.016,-27.344,-38.086,-23.438,0.000
1673805940.790,-37.598,-30.273,-38.086,-16.602,0.000
1673805940.794,-32.227,-22.461,-38.086,-10.254,0.000
1673805940.798,-37.109,-25.391,-35.645,-21.484,0.000
1673805940.802,-41.504,-33.691,-38.574,-32.227,0.000
1673805940.806,-39.062,-33.203,-39.062,-12.695,0.000
1673805940.810,-47.852,-25.879,-35.156,4.395,0.000
1673805940.814,-50.293,-23.438,-33.203,-15.137,0.000
1673805940.818,-42.969,-28.809,-35.156,-25.879,0.000
1673805940.822,-36.621,-31.250,-32.227,-13.672,0.000
1673805940.825,-29.297,-31.250,-32.715,-8.789,0.000
1673805940.829,-32.227,-31.738,-35.156,-17.578,0.000
1673805940.833,-44.922,-38.086,-39.062,-26.855,0.000
1673805940.837,-41.992,-34.180,-39.062,-10.742,0.000
1673805940.841,-33.203,-25.879,-32.715,-1.953,0.000
1673805940.845,-39.062,-33.203,-31.738,-23.926,0.000
1673805940.849,-37.109,-45.410,-26.855,-34.668,0.000
1673805940.853,-25.879,-39.551,-23.438,-27.344,0.000
1673805940.857,-22.461,-26.855,-25.879,-22.461,0.000
1673805940.861,-42.969,-31.738,-30.762,-21.484,0.000
1673805940.865,-54.688,-35.645,-29.297,-17.578,0.000
1673805940.868,-54.688,-29.297,-30.762,-19.043,0.000
1673805940.872,-52.734,-32.227,-42.480,-20.020,0.000
1673805940.876,-47.852,-37.598,-39.062,-20.508,0.000
1673805940.880,-47.363,-29.297,-26.855,-30.273,0.000
1673805940.884,-40.527,-29.297,-27.832,-26.367,0.000
1673805940.888,-39.551,-33.203,-35.156,-17.578,0.000
1673805940.892,-44.434,-33.691,-36.621,-18.066,0.000
1673805940.896,-56.641,-32.227,-39.062,-28.809,0.000
1673805940.900,-62.500,-26.855,-38.086,-43.457,0.000
1673805940.904,-52.734,-26.855,-40.039,-35.156,0.000
1673805940.907,-50.781,-37.598,-46.387,-32.715,0.000
1673805940.911,-49.805,-38.574,-42.480,-32.715,0.000
1673805940.915,-43.945,-32.227,-36.621,-26.367,0.000
1673805940.919,-35.645,-30.273,-38.574,-25.391,0.000
1673805940.923,-29.785,-29.785,-35.156,-14.648,0.000
1673805940.927,-26.367,-34.180,-32.715,-9.766,0.000
1673805940.931,-31.738,-38.574,-37.109,-14.648,0.000
1673805940.935,-46.387,-38.574,-37.598,-21.973,0.000
1673805940.939,-44.434,-36.621,-31.250,-14.160,0.000
1673805940.943,-36.133,-35.156,-29.297,-9.766,0.000
1673805940.947,-47.363,-37.109,-39.062,-25.879,0.000
1673805940.950,-60.059,-43.457,-42.969,-29.297,0.000
1673805940.954,-64.453,-37.598,-34.668,-19.531,0.000
1673805940.958,-58.105,-29.297,-30.762,-12.695,0.000
1673805940.962,-58.105,-33.691,-31.738,-15.137,0.000
1673805940.966,-64.453,-35.156,-31.738,-19.043,0.000
1673805940.970,-62.012,-38.574,-24.902,-17.578,0.000
1673805940.974,-49.316,-36.133,-19.043,-4.395,0.000
1673805940.978,-42.969,-30.762,-29.297,-1.953,0.000
1673805940.982,-44.434,-28.320,-36.621,-19.043,0.000
1673805940.986,-36.133,-32.227,-28.809,-13.672,0.000
1673805940.989,-29.297,-30.762,-23.926,-4.883,0.000
1673805940.993,-28.809,-24.414,-27.344,-5.859,0.000
1673805940.997,-23.438,-26.367,-27.832,-8.789,0.000
1673805941.001,-15.137,-22.461,-27.344,-10.254,0.000
1673805941.005,-13.184,-21.973,-26.855,0.000,0.000
1673805941.009,-5.371,-21.484,-23.926,10.254,0.000
1673805941.013,-2.441,-19.531,-23.926,3.418,0.000
1673805941.017,-2.930,-20.508,-29.297,-1.953,0.000
1673805941.021,-5.859,-11.230,-30.762,5.371,0.000
1673805941.025,-9.277,-10.742,-26.855,0.488,0.000
1673805941.029,-16.113,-13.672,-23.438,-6.836,0.000
1673805941.032,-19.043,-1.953,-20.508,-6.348,0.000
1673805941.036,-17.090,-3.906,-23.926,-14.648,0.000
1673805941.040,-24.902,-8.301,-27.344,-9.277,0.000
1673805941.044,-20.020,-6.836,-20.020,-0.977,0.000
1673805941.048,-16.113,-13.672,-15.137,-8.301,0.000
1673805941.052,-27.832,-18.066,-17.090,-9.277,0.000
1673805941.056,-38.086,-13.672,-14.648,-6.348,0.000
1673805941.060,-43.457,-10.254,-16.602,-4.395,0.000
1673805941.064,-37.109,-14.160,-15.625,-6.348,0.000
1673805941.068,-35.645,-17.578,-16.113,-12.207,0.000
1673805941.072,-33.203,-13.672,-23.438,-6.348,0.000
1673805941.075,-30.273,-13.184,-22.461,1.465,0.000
1673805941.079,-38.574,-20.508,-20.020,-4.395,0.000
1673805941.083,-34.668,-20.020,-18.555,-8.301,0.000
1673805941.087,-26.855,-15.625,-24.902,0.977,0.000
1673805941.091,-13.184,-13.672,-29.785,11.230,0.000
1673805941.095,-6.836,-2.441,-28.320,16.602,0.000
1673805941.099,-13.672,-4.395,-32.227,7.324,0.000
1673805941.103,-13.184,-13.672,-23.926,9.277,0.000
1673805941.107,-8.789,-10.254,-16.113,20.020,0.000
1673805941.111,-7.812,-10.254,-18.066,12.695,0.000
1673805941.115,-11.230,-11.230,-20.020,-0.977,0.000
1673805941.118,-8.789,-4.883,-27.344,-11.719,0.000
1673805941.122,-12.207,-5.859,-28.320,-12.695,0.000
1673805941.126,-29.297,-20.996,-28.809,-13.672,0.000
1673805941.130,-19.531,-27.344,-33.203,-21.484,0.000
1673805941.134,-9.766,-27.344,-34.668,-35.156,0.000
1673805941.138,-10.254,-34.180,-34.180,-33.691,0.000
1673805941.142,-18.066,-30.273,-35.645,-25.391,0.000
1673805941.146,-38.086,-23.926,-33.691,-28.320,0.000
1673805941.150,-42.969,-20.508,-32.715,-31.738,0.000
1673805941.154,-43.945,-21.973,-32.715,-19.531,0.000
1673805941.157,-49.805,-25.879,-26.855,-5.859,0.000
1673805941.161,-44.434,-19.043,-29.785,-10.742,0.000
1673805941.165,-33.691,-9.277,-29.785,-12.695,0.000
1673805941.169,-18.066,-13.184,-32.227,-12.695,0.000
1673805941.173,-15.625,-23.438,-44.434,-11.230,0.000
1673805941.177,-21.484,-26.855,-38.086,-11.230,0.000
1673805941.181,-28.809,-32.715,-23.926,-7.812,0.000
1673805941.185,-39.062,-26.855,-22.461,-5.371,0.000
1673805941.189,-42.969,-25.879,-29.785,-6.836,0.000
1673805941.193,-44.434,-34.180,-27.344,1.465,0.000
1673805941.197,-33.203,-35.645,-24.902,4.395,0.000
1673805941.200,-28.320,-30.273,-31.250,-8.301,0.000
1673805941.204,-25.391,-23.438,-27.832,-11.719,0.000
1673805941.208,-33.203,-28.320,-20.996,-15.625,0.000
1673805941.212,-43.457,-36.133,-30.762,-31.250,0.000
1673805941.216,-35.645,-31.738,-34.668,-35.156,0.000
1673805941.220,-38.086,-28.320,-37.598,-34.668,0.000
1673805941.224,-41.992,-31.250,-40.527,-36.133,0.000
1673805941.228,-37.598,-29.297,-32.227,-30.762,0.000
1673805941.232,-34.668,-26.367,-39.062,-40.527,0.000
1673805941.236,-23.438,-36.133,-49.805,-55.176,0.000
1673805941.240,-14.160,-40.527,-53.223,-47.363,0.000
1673805941.243,-13.672,-26.855,-50.781,-44.434,0.000
1673805941.247,-27.344,-20.996,-52.246,-52.246,0.000
1673805941.251,-38.086,-17.578,-54.688,-49.805,0.000
1673805941.255,-27.344,-16.602,-47.363,-43.457,0.000
1673805941.259,-31.738,-17.090,-38.086,-29.297,0.000
1673805941.263,-37.598,-23.438,-36.621,-24.414,0.000
1673805941.267,-27.832,-26.367,-37.109,-28.809,0.000
1673805941.271,-26.367,-26.367,-28.320,-13.184,0.000
1673805941.275,-49.805,-34.668,-27.344,-6.836,0.000
1673805941.279,-59.570,-33.203,-32.715,-12.207,0.000
1673805941.282,-52.734,-32.227,-29.297,-13.672,0.000
1673805941.286,-57.129,-33.691,-28.320,-8.301,0.000
1673805941.290,-56.152,-31.250,-28.809,-1.465,0.000
1673805941.294,-46.387,-28.809,-28.809,-3.418,0.000
1673805941.298,-32.227,-23.926,-24.902,1.953,0.000
1673805941.302,-33.203,-24.902,-17.090,6.348,0.000
1673805941.306,-31.250,-21.973,-15.137,17.090,0.000
1673805941.310,-24.414,-29.297,-20.508,14.160,0.000
1673805941.314,-25.879,-38.574,-20.996,2.441,0.000
1673805941.318,-7.812,-34.668,-16.602,10.742,0.000
1673805941.322,-8.789,-26.367,-20.996,18.066,0.000
1673805941.325,-24.902,-24.414,-31.738,5.859,0.000
1673805941.329,-18.066,-24.902,-29.785,3.906,0.000
1673805941.333,-11.230,-22.949,-25.391,0.000,0.000
1673805941.337,-3.418,-32.227,-27.832,0.000,0.000
1673805941.341,4.395,-26.855,-23.438,5.371,0.000
1673805941.345,-7.812,-11.230,-12.207,6.836,0.000
1673805941.349,-13.672,-10.742,-16.113,1.953,0.000
1673805941.353,-13.672,-13.184,-18.555,-2.930,0.000
1673805941.357,-22.949,-20.020,-22.949,-0.977,0.000
1673805941.361,-17.578,-22.949,-24.414,-0.488,0.000
1673805941.364,-2.441,-13.672,-18.066,-0.488,0.000
1673805941.368,-1.465,-19.531,-28.320,-3.418,0.000
1673805941.372,-5.371,-19.043,-33.203,1.465,0.000
1673805941.376,-18.066,-10.742,-32.227,7.324,0.000
1673805941.380,-26.855,-18.555,-36.133,0.488,0.000
1673805941.384,-20.508,-19.531,-38.574,3.418,0.000
1673805941.388,-20.996,-15.137,-36.133,13.184,0.000
1673805941.392,-20.020,-20.020,-35.645,20.020,0.000
1673805941.396,-11.230,-20.508,-40.039,17.578,0.000
1673805941.400,-16.113,-13.672,-42.480,5.859,0.000
1673805941.404,-15.625,-9.766,-45.410,-2.441,0.000
1673805941.407,-13.184,-11.719,-43.457,3.906,0.000
1673805941.411,-21.973,-12.207,-42.969,-3.906,0.000
1673805941.415,-36.133,-17.090,-49.316,-25.391,0.000
1673805941.419,-43.945,-17.090,-43.945,-24.902,0.000
1673805941.423,-45.410,-18.555,-40.039,-23.926,0.000
1673805941.427,-46.875,-30.762,-44.922,-26.367,0.000
1673805941.431,-47.852,-29.785,-47.852,-33.203,0.000
1673805941.435,-43.945,-30.273,-51.758,-48.828,0.000
1673805941.439,-42.480,-35.645,-52.246,-46.875,0.000
1673805941.443,-45.898,-28.320,-40.039,-38.086,0.000
1673805941.447,-48.340,-28.320,-32.715,-48.828,0.000
1673805941.450,-50.781,-30.762,-31.738,-54.199,0.000
1673805941.454,-44.922,-30.273,-38.086,-45.410,0.000
1673805941.458,-55.664,-32.715,-36.621,-46.875,0.000
1673805941.462,-65.430,-34.180,-25.879,-44.922,0.000
1673805941.466,-56.641,-33.691,-22.949,-42.480,0.000
1673805941.470,-60.059,-43.945,-25.879,-47.363,0.000
1673805941.474,-68.848,-52.734,-27.344,-45.898,0.000
1673805941.478,-59.570,-44.434,-26.855,-40.527,0.000
1673805941.482,-50.781,-40.039,-31.250,-44.434,0.000
1673805941.486,-47.852,-39.062,-24.902,-36.133,0.000
1673805941.490,-64.453,-41.504,-25.391,-30.273,0.000
1673805941.493,-75.684,-41.016,-28.809,-33.203,0.000
1673805941.497,-63.965,-31.738,-23.926,-31.738,0.000
1673805941.501,-59.570,-34.668,-23.926,-29.297,0.000
1673805941.505,-67.383,-45.410,-26.367,-34.180,0.000
1673805941.509,-66.406,-42.969,-28.809,-28.809,0.000
1673805941.513,-62.988,-39.062,-24.902,-23.438,0.000
1673805941.517,-62.500,-36.133,-28.809,-32.715,0.000
1673805941.521,-59.570,-38.086,-38.574,-33.691,0.000
1673805941.525,-53.711,-48.340,-41.504,-33.203,0.000
1673805941.529,-45.410,-39.062,-36.621,-36.133,0.000
1673805941.532,-39.062,-26.855,-29.297,-33.203,0.000
1673805941.536,-31.250,-31.738,-20.996,-29.297,0.000
1673805941.540,-26.855,-34.668,-20.996,-18.066,0.000
1673805941.544,-11.719,-30.762,-20.996,-4.883,0.000
1673805941.548,-8.789,-33.203,-25.391,-16.113,0.000
1673805941.552,-11.230,-39.062,-32.227,-24.414,0.000
1673805941.556,0.488,-31.250,-29.297,-9.277,0.000
1673805941.560,-5.371,-24.414,-27.832,-1.465,0.000
1673805941.564,-14.648,-34.668,-24.414,-5.371,0.000
1673805941.568,-21.973,-33.203,-28.809,-20.020,0.000
1673805941.572,-20.996,-24.414,-32.227,-16.113,0.000
1673805941.575,-27.832,-30.762,-29.785,-0.977,0.000
1673805941.579,-35.645,-35.645,-38.086,-0.977,0.000
1673805941.583,-35.645,-29.785,-39.062,-2.930,0.000
1673805941.587,-31.738,-28.809,-18.555,2.930,0.000
1673805941.591,-29.785,-33.203,-18.555,4.883,0.000
1673805941.595,-32.715,-39.551,-29.297,-4.395,0.000
1673805941.599,-30.762,-46.875,-28.320,-13.184,0.000
1673805941.603,-29.297,-40.039,-23.438,-9.766,0.000
1673805941.607,-38.574,-37.598,-21.973,-2.441,0.000
1673805941.611,-42.969,-36.621,-27.832,-9.277,0.000
1673805941.615,-28.809,-28.320,-31.250,-16.113,0.000
1673805941.618,-35.156,-32.715,-31.738,-11.719,0.000
1673805941.622,-42.480,-38.574,-32.227,-10.742,0.000
1673805941.626,-34.668,-39.062,-24.414,-11.719,0.000
1673805941.630,-35.156,-37.598,-21.484,-8.789,0.000
1673805941.634,-20.508,-33.691,-24.902,1.953,0.000
1673805941.638,-15.137,-35.156,-30.762,8.789,0.000
1673805941.642,-28.320,-28.809,-30.762,3.906,0.000
1673805941.646,-33.691,-27.832,-30.273,-1.953,0.000
1673805941.650,-25.391,-31.738,-32.715,-12.207,0.000
1673805941.654,-23.926,-36.133,-26.855,-10.254,0.000
1673805941.657,-40.527,-41.992,-28.320,-0.977,0.000
1673805941.661,-44.434,-41.016,-29.785,-5.859,0.000
1673805941.665,-35.156,-34.668,-31.738,-7.812,0.000
1673805941.669,-34.180,-34.668,-41.992,-14.648,0.000
1673805941.673,-41.504,-41.016,-41.504,-12.207,0.000
1673805941.677,-47.852,-35.645,-31.250,-8.301,0.000
1673805941.681,-42.480,-35.645,-26.367,-18.555,0.000
1673805941.685,-34.180,-38.574,-35.156,-32.715,0.000
1673805941.689,-45.898,-31.738,-37.598,-42.480,0.000
1673805941.693,-47.852,-17.578,-34.180,-34.180,0.000
1673805941.697,-39.551,-15.625,-36.621,-26.367,0.000
1673805941.700,-40.527,-26.367,-33.691,-31.738,0.000
1673805941.704,-45.410,-28.320,-38.574,-42.969,0.000
1673805941.708,-51.270,-30.273,-51.758,-41.504,0.000
1673805941.712,-46.387,-42.969,-49.316,-34.180,0.000
1673805941.716,-43.457,-33.691,-34.668,-44.922,0.000
1673805941.720,-39.551,-16.602,-26.367,-50.293,0.000
1673805941.724,-28.320,-11.719,-20.508,-28.320,0.000
1673805941.728,-33.691,-14.648,-23.926,-31.250,0.000
1673805941.732,-42.480,-23.926,-36.133,-58.105,0.000
1673805941.736,-34.180,-25.879,-40.527,-50.781,0.000
1673805941.739,-35.156,-20.508,-33.691,-25.879,0.000
1673805941.743,-39.551,-21.484,-30.762,-19.043,0.000
1673805941.747,-40.039,-26.855,-26.855,-20.020,0.000
1673805941.751,-34.668,-25.879,-30.273,-18.066,0.000
1673805941.755,-15.625,-22.949,-36.133,-18.066,0.000
1673805941.759,-7.324,-24.414,-24.902,-14.648,0.000
1673805941.763,-13.184,-20.020,-15.625,-15.137,0.000
1673805941.767,-22.949,-11.719,-14.160,-10.254,0.000
1673805941.771,-29.297,-5.859,-13.672,-5.859,0.000
1673805941.775,-30.273,-5.371,-13.672,-6.836,0.000
1673805941.779,-19.531,-13.672,-11.230,-11.230,0.000
1673805941.782,-11.719,-7.324,-4.883,-10.742,0.000
1673805941.786,-24.414,-6.348,-4.883,-7.812,0.000
1673805941.790,-28.809,-25.879,-8.301,-10.254,0.000
1673805941.794,-34.180,-29.297,-6.348,-13.184,0.000
1673805941.798,-39.062,-20.996,-7.812,-20.996,0.000
1673805941.802,-41.992,-13.184,-8.789,-26.855,0.000
1673805941.806,-34.180,-3.418,-9.766,-18.066,0.000
1673805941.810,-21.973,-4.883,-6.836,-5.859,0.000
1673805941.814,-22.949,-16.113,-5.859,-9.277,0.000
1673805941.818,-27.832,-14.160,-11.719,-17.578,0.000
1673805941.822,-32.227,-13.184,-20.996,-16.602,0.000
1673805941.825,-36.133,-17.090,-20.508,-2.930,0.000
1673805941.829,-43.457,-20.508,-8.789,2.930,0.000
1673805941.833,-35.645,-23.926,-17.578,-7.812,0.000
1673805941.837,-13.184,-15.137,-19.043,-9.766,0.000
1673805941.841,-10.254,-3.418,-9.277,2.930,0.000
1673805941.845,-8.789,-9.277,-4.395,0.488,0.000
1673805941.849,-16.602,-17.578,-13.184,-7.812,0.000
1673805941.853,-30.273,-19.043,-20.020,-4.883,0.000
1673805941.857,-22.461,-23.438,-14.648,-6.836,0.000
1673805941.861,-14.648,-20.508,-12.207,2.930,0.000
1673805941.864,-12.695,-20.508,-10.254,3.906,0.000
1673805941.868,-26.367,-20.020,-21.484,-8.789,0.000
1673805941.872,-28.809,-11.719,-21.484,-2.930,0.000
1673805941.876,-19.531,-13.672,-16.602,4.395,0.000
1673805941.880,-27.344,-20.996,-27.344,-12.695,0.000
1673805941.884,-40.039,-20.996,-27.832,-29.785,0.000
1673805941.888,-41.504,-14.160,-25.391,-24.902,0.000
1673805941.892,-43.457,-12.695,-28.320,-18.066,0.000
1673805941.896,-33.691,-20.508,-33.203,-28.809,0.000
1673805941.900,-23.926,-15.625,-35.156,-41.016,0.000
1673805941.904,-35.156,-17.578,-31.250,-36.133,0.000
1673805941.907,-42.969,-23.926,-28.809,-25.879,0.000
1673805941.911,-54.688,-14.648,-30.273,-27.344,0.000
1673805941.915,-50.781,-13.184,-30.762,-36.621,0.000
1673805941.919,-38.574,-21.973,-31.738,-24.902,0.000
1673805941.923,-44.434,-22.461,-43.457,-22.461,0.000
1673805941.927,-41.504,-20.996,-44.434,-30.762,0.000
1673805941.931,-26.855,-20.996,-37.109,-26.855,0.000
1673805941.935,-19.043,-23.438,-44.434,-27.832,0.000
1673805941.939,-19.531,-30.762,-45.410,-26.367,0.000
1673805941.943,-22.949,-28.809,-33.203,-22.461,0.000
1673805941.947,-32.227,-19.043,-30.762,-25.391,0.000
1673805941.950,-52.246,-20.996,-34.668,-33.203,0.000
1673805941.954,-54.199,-27.344,-31.738,-30.273,0.000
1673805941.958,-42.480,-31.250,-24.414,-25.879,0.000
1673805941.962,-27.344,-24.902,-18.555,-25.879,0.000
1673805941.966,-18.066,-17.578,-22.461,-24.902,0.000
1673805941.970,-31.738,-23.438,-36.621,-29.297,0.000
1673805941.974,-43.945,-36.133,-36.621,-29.297,0.000
1673805941.978,-46.387,-41.504,-26.367,-28.809,0.000
1673805941.982,-52.734,-33.203,-23.438,-23.926,0.000
1673805941.986,-46.875,-33.203,-23.926,-25.391,0.000
1673805941.990,-34.180,-29.785,-38.574,-20.508,0.000
1673805941.993,-32.227,-23.926,-36.621,-12.695,0.000
1673805941.997,-31.250,-28.320,-21.484,-20.996,0.000
1673805942.001,-34.180,-27.832,-20.508,-25.391,0.000
1673805942.005,-34.668,-26.855,-26.367,-19.531,0.000
1673805942.009,-27.344,-22.461,-24.902,-8.789,0.000
1673805942.013,-26.367,-24.414,-23.926,-16.113,0.000
1673805942.017,-30.762,-34.180,-31.738,-29.785,0.000
1673805942.021,-35.156,-34.180,-40.039,-20.020,0.000
1673805942.025,-34.180,-31.738,-36.621,-8.789,0.000
1673805942.029,-47.852,-31.250,-30.273,-11.230,0.000
1673805942.032,-49.805,-26.855,-25.879,-15.625,0.000
1673805942.036,-43.945,-22.461,-27.344,-13.184,0.000
1673805942.040,-42.969,-19.531,-27.832,-9.766,0.000
1673805942.044,-32.715,-20.020,-26.367,-15.625,0.000
1673805942.048,-22.949,-24.414,-24.902,-20.996,0.000
1673805942.052,-25.391,-29.785,-20.508,-14.648,0.000
1673805942.056,-35.156,-21.484,-23.926,-5.859,0.000
1673805942.060,-39.062,-17.090,-28.809,-18.555,0.000
1673805942.064,-36.133,-22.949,-26.855,-36.621,0.000
1673805942.068,-19.043,-19.531,-24.902,-32.227,0.000
1673805942.072,-15.625,-23.926,-29.785,-23.926,0.000
1673805942.075,-24.414,-30.273,-37.109,-20.020,0.000
1673805942.079,-18.066,-20.996,-37.598,-20.996,0.000
1673805942.083,-22.461,-21.973,-34.668,-17.090,0.000
1673805942.087,-32.227,-24.414,-32.715,-9.766,0.000
1673805942.091,-29.297,-20.020,-34.180,-3.906,0.000
1673805942.095,-28.809,-23.438,-35.645,-11.230,0.000
1673805942.099,-22.949,-25.879,-25.879,-10.254,0.000
1673805942.103,-20.508,-26.367,-25.391,-10.254,0.000
1673805942.107,-27.832,-28.809,-34.180,-4.883,0.000
1673805942.111,-26.367,-25.879,-26.855,4.883,0.000
1673805942.114,-20.508,-19.531,-29.297,-2.441,0.000
1673805942.118,-17.090,-17.090,-28.809,-0.488,0.000
1673805942.122,-22.949,-21.973,-21.973,1.465,0.000
1673805942.126,-20.996,-28.320,-30.273,-8.301,0.000
1673805942.130,-13.672,-39.062,-33.691,-15.625,0.000
1673805942.134,-12.695,-31.738,-34.180,-17.090,0.000
1673805942.138,-19.043,-28.320,-37.598,-18.555,0.000
1673805942.142,-27.832,-39.062,-38.086,-9.766,0.000
1673805942.146,-32.715,-29.785,-34.180,-6.348,0.000
1673805942.150,-34.668,-18.066,-36.133,-19.043,0.000
1673805942.154,-34.180,-23.438,-35.645,-23.926,0.000
1673805942.157,-40.039,-34.180,-30.762,-16.113,0.000
1673805942.161,-38.574,-36.133,-27.832,-17.090,0.000
1673805942.165,-41.016,-35.156,-26.855,-30.762,0.000
1673805942.169,-33.691,-28.809,-27.832,-28.320,0.000
1673805942.173,-31.738,-21.484,-27.344,-11.230,0.000
1673805942.177,-28.809,-20.996,-37.109,-10.742,0.000
1673805942.181,-27.832,-27.344,-40.527,-20.020,0.000
1673805942.185,-33.203,-33.203,-29.785,-25.391,0.000
1673805942.189,-22.949,-26.855,-30.273,-16.113,0.000
1673805942.193,-23.926,-24.902,-31.250,-10.742,0.000
1673805942.197,-38.086,-27.344,-31.738,-24.414,0.000
1673805942.200,-41.992,-30.273,-34.180,-30.273,0.000
1673805942.204,-33.203,-30.762,-34.668,-18.555,0.000
1673805942.208,-22.461,-36.133,-36.133,-20.508,0.000
1673805942.212,-26.367,-42.480,-37.109,-31.250,0.000
1673805942.216,-41.016,-38.086,-38.086,-29.297,0.000
1673805942.220,-34.180,-28.320,-35.645,-28.809,0.000
1673805942.224,-39.062,-28.320,-41.992,-24.902,0.000
1673805942.228,-47.852,-29.785,-49.805,-17.090,0.000
1673805942.232,-45.410,-20.996,-40.527,-22.949,0.000
1673805942.236,-38.086,-23.438,-32.227,-31.250,0.000
1673805942.239,-33.691,-31.738,-31.250,-23.438,0.000
1673805942.243,-33.203,-34.180,-35.156,-20.996,0.000
1673805942.247,-36.133,-33.203,-37.598,-21.973,0.000
1673805942.251,-35.156,-33.691,-30.762,-18.066,0.000
1673805942.255,-26.367,-36.621,-28.320,-14.160,0.000
1673805942.259,-28.809,-33.691,-32.227,-11.719,0.000
1673805942.263,-34.180,-25.391,-30.273,-17.090,0.000
1673805942.267,-38.574,-24.902,-32.715,-18.555,0.000
1673805942.271,-42.969,-26.855,-36.621,-17.578,0.000
1673805942.275,-33.203,-26.367,-32.227,-14.648,0.000
1673805942.279,-25.879,-21.973,-29.785,-18.066,0.000
1673805942.282,-27.344,-22.461,-33.691,-27.832,0.000
1673805942.286,-32.715,-35.645,-40.527,-27.344,0.000
1673805942.290,-31.738,-34.180,-34.668,-12.695,0.000
1673805942.294,-27.832,-32.227,-23.438,-7.812,0.000
1673805942.298,-17.090,-33.203,-30.273,-11.230,0.000
1673805942.302,-7.812,-26.855,-26.855,-6.836,0.000
1673805942.306,-11.719,-31.250,-20.020,-8.789,0.000
1673805942.310,-7.812,-34.668,-30.762,0.488,0.000
1673805942.314,-18.555,-25.391,-33.691,-6.836,0.000
1673805942.318,-21.484,-19.043,-22.461,-18.066,0.000
1673805942.322,-13.184,-21.973,-21.973,-3.418,0.000
1673805942.325,-19.531,-24.902,-30.762,-7.812,0.000
1673805942.329,-20.996,-27.344,-35.645,-19.531,0.000
1673805942.333,-9.766,-26.367,-36.621,-19.043,0.000
1673805942.337,3.418,-15.625,-32.227,-17.578,0.000
1673805942.341,-14.160,-11.230,-33.691,-15.137,0.000
1673805942.345,-38.574,-18.555,-37.598,-18.555,0.000
1673805942.349,-29.297,-23.438,-36.621,-28.320,0.000
1673805942.353,-14.160,-22.461,-34.668,-26.367,0.000
1673805942.357,-20.020,-24.902,-26.855,-19.043,0.000
1673805942.361,-25.879,-32.227,-24.414,-23.438,0.000
1673805942.365,-21.973,-32.715,-25.391,-18.066,0.000
1673805942.368,-34.668,-27.344,-28.809,-22.461,0.000
1673805942.372,-51.270,-30.762,-31.738,-23.926,0.000
1673805942.376,-46.387,-35.156,-27.832,-19.043,0.000
1673805942.380,-32.227,-27.344,-22.949,-19.531,0.000
1673805942.384,-32.227,-22.461,-27.344,-27.832,0.000
1673805942.388,-32.715,-26.855,-29.297,-17.578,0.000
1673805942.392,-25.391,-28.809,-23.438,1.465,0.000
1673805942.396,-28.320,-34.180,-30.762,-7.812,0.000
1673805942.400,-29.297,-34.180,-35.645,-15.137,0.000
1673805942.404,-20.020,-30.762,-30.762,-24.902,0.000
1673805942.407,-20.996,-25.879,-39.551,-23.926,0.000
1673805942.411,-22.461,-20.996,-44.922,-15.137,0.000
1673805942.415,-20.508,-23.438,-33.203,-15.137,0.000
1673805942.419,-27.832,-26.855,-24.902,-23.438,0.000
1673805942.423,-27.832,-32.715,-25.391,-21.973,0.000
1673805942.427,-25.391,-29.785,-23.438,-13.184,0.000
1673805942.431,-29.785,-25.879,-23.926,-13.184,0.000
1673805942.435,-32.715,-33.691,-32.227,-24.414,0.000
1673805942.439,-28.809,-39.551,-38.574,-23.438,0.000
1673805942.443,-14.648,-31.250,-33.203,-12.207,0.000
1673805942.447,-16.113,-28.809,-27.832,-14.160,0.000
1673805942.450,-35.645,-33.691,-35.156,-28.809,0.000
1673805942.454,-34.180,-31.250,-46.387,-27.344,0.000
1673805942.458,-41.504,-27.832,-42.480,-14.648,0.000
1673805942.462,-51.758,-19.531,-29.785,-21.484,0.000
1673805942.466,-54.199,-19.043,-26.855,-28.320,0.000
1673805942.470,-51.758,-26.367,-30.273,-22.461,0.000
1673805942.474,-47.852,-34.668,-30.273,-17.090,0.000
1673805942.478,-59.082,-39.062,-34.668,-16.602,0.000
1673805942.482,-54.688,-31.250,-29.785,-14.160,0.000
1673805942.486,-47.363,-31.738,-23.926,-12.695,0.000
1673805942.489,-46.875,-35.156,-27.832,-5.859,0.000
1673805942.493,-50.293,-39.062,-33.203,-8.301,0.000
1673805942.497,-48.828,-37.109,-28.320,-25.879,0.000
1673805942.501,-38.574,-19.043,-17.578,-22.461,0.000
1673805942.505,-34.668,-21.484,-27.832,-5.859,0.000
1673805942.509,-34.668,-36.621,-29.297,-4.395,0.000
1673805942.513,-36.621,-31.738,-18.555,-12.695,0.000
1673805942.517,-39.062,-21.973,-20.996,-13.672,0.000
1673805942.521,-44.434,-25.391,-23.926,-16.602,0.000
1673805942.525,-45.898,-24.902,-22.949,-19.531,0.000
1673805942.529,-38.574,-22.949,-23.926,-18.066,0.000
1673805942.532,-22.461,-23.926,-19.531,-16.113,0.000
1673805942.536,-14.160,-17.578,-19.043,-25.879,0.000
1673805942.540,-22.461,-22.949,-22.949,-28.320,0.000
1673805942.544,-20.996,-20.508,-20.508,-14.160,0.000
1673805942.548,-16.602,-12.207,-25.391,-14.160,0.000
1673805942.552,-32.227,-25.879,-33.203,-14.648,0.000
1673805942.556,-43.457,-28.809,-27.832,-8.789,0.000
1673805942.560,-37.598,-14.160,-20.996,-3.906,0.000
1673805942.564,-24.414,-8.789,-27.832,0.000,0.000
1673805942.568,-22.461,-15.625,-27.832,0.977,0.000
1673805942.572,-36.133,-21.484,-11.230,9.277,0.000
1673805942.575,-32.715,-19.043,-10.254,17.090,0.000
1673805942.579,-21.484,-10.742,-14.160,18.555,0.000
1673805942.583,-20.508,-11.719,-12.695,11.230,0.000
1673805942.587,-25.391,-23.926,-15.625,-0.488,0.000
1673805942.591,-21.973,-16.113,-14.160,6.836,0.000
1673805942.595,-20.508,0.977,-8.789,7.324,0.000
1673805942.599,-20.508,-1.953,-15.137,-10.742,0.000
1673805942.603,-14.648,-4.395,-18.555,-9.277,0.000
1673805942.607,-18.555,-7.324,-19.043,-7.812,0.000
1673805942.611,-14.160,-7.812,-20.020,-2.441,0.000
1673805942.614,-9.277,-8.789,-19.043,-3.906,0.000
1673805942.618,-16.602,-11.719,-20.996,-18.555,0.000
1673805942.622,-17.090,-0.977,-16.113,0.000,0.000
1673805942.626,-20.996,-2.441,-20.020,8.301,0.000
1673805942.630,-19.043,-17.578,-32.227,-18.066,0.000
1673805942.634,-5.859,-22.461,-29.785,-21.973,0.000
1673805942.638,-9.766,-18.066,-21.973,-0.488,0.000
1673805942.642,-21.973,-10.254,-19.531,1.465,0.000
1673805942.646,-30.273,-10.742,-27.832,-14.648,0.000
1673805942.650,-26.855,-13.672,-33.691,-20.020,0.000
1673805942.654,-9.766,-19.043,-31.250,-11.230,0.000
1673805942.657,-10.742,-24.414,-27.832,1.465,0.000
1673805942.661,-10.742,-18.555,-28.809,7.324,0.000
1673805942.665,-17.090,-17.578,-22.461,8.789,0.000
1673805942.669,-26.855,-29.297,-12.207,8.789,0.000
1673805942.673,-23.926,-29.785,-13.184,2.930,0.000
1673805942.677,-19.531,-25.391,-20.020,-5.371,0.000
1673805942.681,-13.184,-20.996,-17.090,-2.930,0.000
1673805942.685,-11.719,-20.508,-22.461,-6.348,0.000
1673805942.689,-10.742,-20.996,-29.297,-3.418,0.000
1673805942.693,-7.812,-19.043,-27.832,0.000,0.000
1673805942.697,-6.836,-16.113,-25.391,-11.230,0.000
1673805942.700,-9.277,-18.066,-20.996,-25.391,0.000
1673805942.704,-10.254,-15.137,-19.531,-22.461,0.000
1673805942.708,-15.137,-19.043,-24.902,-24.414,0.000
1673805942.712,-9.277,-19.531,-29.785,-24.902,0.000
1673805942.716,-14.648,-12.207,-32.227,-15.625,0.000
1673805942.720,-23.926,-16.602,-31.250,-22.949,0.000
1673805942.724,-21.973,-29.785,-23.926,-23.438,0.000
1673805942.728,-20.508,-31.738,-23.438,-22.461,0.000
1673805942.732,-17.578,-19.531,-22.949,-27.832,0.000
1673805942.736,-11.230,-16.113,-25.391,-27.832,0.000
1673805942.740,-5.859,-22.461,-25.391,-20.996,0.000
1673805942.743,-16.602,-26.367,-29.297,-20.020,0.000
1673805942.747,-25.391,-22.461,-33.203,-27.344,0.000
1673805942.751,-25.879,-15.625,-23.926,-27.344,0.000
1673805942.755,-19.043,-20.996,-28.809,-28.320,0.000
1673805942.759,-3.418,-26.855,-35.645,-16.113,0.000
1673805942.763,-9.766,-22.461,-26.367,-15.625,0.000
1673805942.767,-32.715,-33.203,-24.902,-37.109,0.000
1673805942.771,-28.320,-41.992,-27.344,-26.855,0.000
1673805942.775,-15.625,-36.133,-32.227,-14.160,0.000
1673805942.779,-16.602,-27.832,-33.691,-17.578,0.000
1673805942.782,-22.461,-31.738,-31.250,-17.578,0.000
1673805942.786,-47.363,-38.086,-28.809,-19.531,0.000
1673805942.790,-50.293,-34.180,-25.391,-14.160,0.000
1673805942.794,-37.598,-27.832,-30.273,-11.719,0.000
1673805942.798,-39.062,-27.832,-32.227,-13.184,0.000
1673805942.802,-29.785,-29.785,-25.391,-5.371,0.000
1673805942.806,-22.949,-24.902,-23.926,8.301,0.000
1673805942.810,-30.762,-25.879,-27.344,-1.953,0.000
1673805942.814,-31.738,-29.785,-24.902,-10.254,0.000
1673805942.818,-28.320,-27.344,-27.832,-2.930,0.000
1673805942.822,-23.438,-26.367,-33.691,0.000,0.000
1673805942.825,-21.973,-29.297,-23.926,5.371,0.000
1673805942.829,-20.508,-23.438,-15.625,-2.441,0.000
1673805942.833,-20.508,-22.461,-21.973,-9.277,0.000
1673805942.837,-26.367,-25.879,-16.113,5.371,0.000
1673805942.841,-8.301,-25.879,-12.695,2.930,0.000
1673805942.845,3.418,-18.066,-13.672,-5.371,0.000
1673805942.849,-4.883,-12.207,-13.184,-4.395,0.000
1673805942.853,-9.277,-15.625,-26.855,-8.789,0.000
1673805942.857,-15.137,-21.973,-29.785,-20.508,0.000
1673805942.861,-13.184,-25.879,-21.973,-18.555,0.000
1673805942.864,-13.184,-30.273,-25.879,-18.555,0.000
1673805942.868,-19.531,-29.297,-28.809,-30.762,0.000
1673805942.872,-29.297,-29.297,-28.320,-24.902,0.000
1673805942.876,-25.391,-29.785,-26.367,-8.301,0.000
1673805942.880,-30.273,-28.320,-22.949,-14.160,0.000
1673805942.884,-40.039,-31.738,-19.043,-21.484,0.000
1673805942.888,-42.480,-32.715,-21.973,-18.555,0.000
1673805942.892,-39.551,-32.227,-25.391,-13.672,0.000
1673805942.896,-32.227,-27.832,-20.996,-12.695,0.000
1673805942.900,-26.855,-26.855,-28.809,-25.879,0.000
1673805942.904,-33.691,-24.902,-35.156,-26.855,0.000
1673805942.907,-31.738,-20.020,-28.809,-15.625,0.000
1673805942.911,-15.625,-20.020,-27.344,-20.996,0.000
1673805942.915,-15.625,-28.320,-34.180,-25.391,0.000
1673805942.919,-34.180,-32.227,-36.133,-24.902,0.000
1673805942.923,-47.363,-29.785,-29.297,-13.184,0.000
1673805942.927,-41.016,-31.738,-27.832,-5.859,0.000
1673805942.931,-37.109,-26.855,-29.297,-18.555,0.000
1673805942.935,-34.668,-25.879,-28.320,-24.902,0.000
1673805942.939,-21.973,-36.133,-29.785,-15.137,0.000
1673805942.943,-19.531,-36.133,-29.297,-15.137,0.000
1673805942.947,-30.762,-32.715,-30.762,-27.344,0.000
1673805942.950,-27.832,-37.598,-28.809,-34.180,0.000
1673805942.954,-13.184,-40.527,-29.785,-23.438,0.000
1673805942.958,-13.672,-40.527,-33.691,-16.602,0.000
1673805942.962,-28.809,-33.203,-30.762,-23.926,0.000
1673805942.966,-26.855,-25.879,-27.832,-26.855,0.000
1673805942.970,-14.160,-29.785,-27.344,-27.344,0.000
1673805942.974,-17.090,-22.949,-25.879,-17.578,0.000
1673805942.978,-20.020,-15.137,-31.738,-11.719,0.000
1673805942.982,-21.484,-16.602,-40.527,-18.555,0.000
1673805942.986,-37.109,-20.996,-37.109,-13.184,0.000
1673805942.989,-35.645,-26.855,-32.715,-13.184,0.000
1673805942.993,-27.832,-31.250,-33.203,-23.926,0.000
1673805942.997,-20.996,-23.926,-36.621,-22.461,0.000
1673805943.001,-13.672,-16.113,-32.227,-20.020,0.000
1673805943.005,-18.066,-30.273,-29.785,-20.020,0.000
1673805943.009,-39.062,-36.133,-25.391,-17.090,0.000
1673805943.013,-52.734,-22.461,-25.391,-10.742,0.000
1673805943.017,-42.480,-15.625,-26.855,-13.672,0.000
1673805943.021,-30.273,-23.926,-38.574,-26.855,0.000
1673805943.025,-43.457,-35.645,-43.457,-20.996,0.000
1673805943.029,-64.941,-34.180,-39.551,-17.090,0.000
1673805943.032,-57.129,-29.785,-44.434,-28.320,0.000
1673805943.036,-44.922,-18.555,-41.992,-30.762,0.000
1673805943.040,-41.992,-24.414,-38.086,-18.555,0.000
1673805943.044,-45.410,-29.297,-41.992,-12.695,0.000
1673805943.048,-47.852,-21.484,-41.016,-24.414,0.000
1673805943.052,-43.945,-25.879,-31.738,-31.738,0.000
1673805943.056,-42.969,-31.738,-25.391,-19.531,0.000
1673805943.060,-58.594,-36.621,-26.367,-16.113,0.000
1673805943.064,-61.035,-37.109,-29.297,-22.949,0.000
1673805943.068,-47.363,-41.992,-35.156,-23.926,0.000
1673805943.072,-45.898,-35.645,-36.133,-20.996,0.000
1673805943.075,-46.387,-31.738,-28.320,-16.602,0.000
1673805943.079,-43.945,-33.691,-29.785,-23.926,0.000
1673805943.083,-37.109,-34.180,-35.156,-32.227,0.000
1673805943.087,-46.875,-40.039,-31.250,-26.855,0.000
1673805943.091,-54.688,-36.621,-27.344,-18.555,0.000
1673805943.095,-50.781,-35.645,-26.855,-24.414,0.000
1673805943.099,-47.852,-44.434,-34.180,-33.203,0.000
1673805943.103,-35.156,-33.691,-33.691,-38.574,0.000
1673805943.107,-31.250,-20.508,-25.391,-26.855,0.000
1673805943.111,-38.574,-19.531,-27.832,-33.203,0.000
1673805943.115,-29.785,-22.461,-29.297,-44.434,0.000
1673805943.118,-21.973,-29.785,-28.809,-29.297,0.000
1673805943.122,-41.504,-23.438,-31.738,-25.391,0.000
1673805943.126,-44.434,-18.066,-36.133,-25.391,0.000
1673805943.130,-32.715,-18.066,-44.434,-32.715,0.000
1673805943.134,-31.250,-20.508,-39.551,-23.926,0.000
1673805943.138,-36.133,-25.391,-33.203,-17.578,0.000
1673805943.142,-41.016,-25.879,-30.762,-24.414,0.000
1673805943.146,-32.227,-31.250,-30.273,-21.973,0.000
1673805943.150,-43.457,-25.879,-33.691,-19.531,0.000
1673805943.154,-56.152,-15.137,-33.203,-17.090,0.000
1673805943.157,-42.480,-12.207,-28.320,-14.160,0.000
1673805943.161,-32.227,-10.254,-21.484,-5.859,0.000
1673805943.165,-24.414,-10.254,-25.879,-2.930,0.000
1673805943.169,-17.090,-15.625,-29.297,-13.184,0.000
1673805943.173,-21.484,-21.484,-25.391,-15.137,0.000
1673805943.177,-30.273,-20.020,-27.344,-1.465,0.000
1673805943.181,-40.039,-22.461,-26.367,-2.930,0.000
1673805943.185,-41.504,-32.227,-25.879,-16.602,0.000
1673805943.189,-34.668,-29.297,-26.855,-7.324,0.000
1673805943.193,-40.039,-28.320,-24.902,0.977,0.000
1673805943.197,-35.645,-27.832,-19.043,-2.441,0.000
1673805943.200,-23.438,-17.090,-19.043,-7.812,0.000
1673805943.204,-24.414,-17.090,-24.414,-11.719,0.000
1673805943.208,-28.809,-20.020,-27.344,-6.348,0.000
1673805943.212,-23.926,-21.484,-25.879,-9.277,0.000
1673805943.216,-27.832,-27.344,-30.762,-16.113,0.000
1673805943.220,-30.273,-24.902,-33.203,-22.461,0.000
1673805943.224,-29.297,-18.555,-23.926,-9.766,0.000
1673805943.228,-40.527,-19.043,-22.461,-0.977,0.000
1673805943.232,-45.898,-30.273,-29.785,-20.508,0.000
1673805943.236,-41.504,-31.738,-35.645,-27.832,0.000
1673805943.239,-41.992,-24.902,-31.250,-16.113,0.000
1673805943.243,-41.992,-30.762,-27.344,-20.020,0.000
1673805943.247,-33.203,-32.227,-33.691,-33.691,0.000
1673805943.251,-17.090,-31.250,-35.645,-36.133,0.000
1673805943.255,-38.574,-32.715,-33.691,-28.809,0.000
1673805943.259,-56.152,-29.785,-32.227,-19.531,0.000
1673805943.263,-45.410,-27.832,-34.180,-25.391,0.000
1673805943.267,-45.410,-27.832,-36.621,-23.926,0.000
1673805943.271,-32.227,-30.762,-25.879,-13.184,0.000
1673805943.275,-20.508,-36.621,-18.066,-13.184,0.000
1673805943.279,-31.250,-38.086,-30.273,-19.043,0.000
1673805943.282,-42.480,-31.738,-35.645,-27.344,0.000
1673805943.286,-37.598,-33.203,-35.645,-35.156,0.000
1673805943.290,-38.086,-31.738,-32.715,-24.902,0.000
1673805943.294,-38.574,-24.902,-30.273,-11.719,0.000
1673805943.298,-30.273,-31.738,-35.645,-17.090,0.000
1673805943.302,-33.691,-31.738,-38.574,-21.973,0.000
1673805943.306,-49.805,-23.438,-39.062,-23.926,0.000
1673805943.310,-53.711,-28.809,-40.039,-29.297,0.000
1673805943.314,-48.828,-27.832,-42.969,-29.785,0.000
1673805943.318,-51.270,-21.973,-38.086,-29.785,0.000
1673805943.322,-47.363,-25.879,-35.156,-24.414,0.000
1673805943.325,-39.062,-28.809,-34.668,-11.719,0.000
1673805943.329,-34.668,-20.996,-31.738,-10.742,0.000
1673805943.333,-31.738,-20.996,-32.715,-27.344,0.000
1673805943.337,-25.879,-23.926,-38.086,-27.344,0.000
1673805943.341,-15.137,-12.695,-41.992,-7.812,0.000
1673805943.345,-19.531,-16.113,-42.480,-5.371,0.000
1673805943.349,-39.062,-26.367,-38.086,-14.648,0.000
1673805943.353,-40.527,-30.762,-31.250,-18.555,0.000
1673805943.357,-37.598,-32.715,-29.297,-17.090,0.000
1673805943.361,-36.621,-27.344,-35.645,-11.719,0.000
1673805943.364,-26.855,-19.043,-34.180,-13.184,0.000
1673805943.368,-26.855,-15.625,-26.367,-17.090,0.000
1673805943.372,-26.855,-20.020,-20.508,-13.672,0.000
1673805943.376,-20.996,-28.320,-22.949,-7.324,0.000
1673805943.380,-17.090,-21.973,-23.926,-9.277,0.000
1673805943.384,-16.113,-15.625,-20.508,-19.043,0.000
1673805943.388,-7.812,-16.113,-13.184,-7.324,0.000
1673805943.392,1.465,-19.531,-14.648,3.906,0.000
1673805943.396,0.488,-26.367,-26.855,-5.371,0.000
1673805943.400,-1.465,-16.602,-22.949,-11.230,0.000
1673805943.404,1.953,-11.230,-19.043,-11.230,0.000
1673805943.407,-13.184,-12.207,-18.555,-0.488,0.000
1673805943.411,-35.645,-12.695,-18.555,-3.906,0.000
1673805943.415,-28.320,-14.648,-15.137,-15.137,0.000
1673805943.419,-12.695,-10.742,-10.742,-4.883,0.000
1673805943.423,-15.137,-7.812,-14.648,6.348,0.000
1673805943.427,-24.414,-18.555,-20.020,0.000,0.000
1673805943.431,-21.973,-21.484,-20.020,-7.812,0.000
1673805943.435,-12.695,-16.602,-24.414,-7.812,0.000
1673805943.439,-10.742,-12.207,-27.832,-0.488,0.000
1673805943.443,-20.508,-4.883,-21.973,15.625,0.000
1673805943.447,-20.020,-2.441,-15.625,8.301,0.000
1673805943.450,-13.672,-8.301,-23.926,-8.301,0.000
1673805943.454,-4.395,-11.230,-26.855,-3.418,0.000
1673805943.458,-19.531,-22.949,-20.508,-0.977,0.000
1673805943.462,-37.598,-25.879,-17.578,-0.488,0.000
1673805943.466,-19.043,-9.766,-21.973,1.953,0.000
1673805943.470,-18.555,1.465,-25.879,-6.836,0.000
1673805943.474,-24.414,-1.465,-16.602,-9.277,0.000
1673805943.478,-29.297,-7.324,-10.254,-4.395,0.000
1673805943.482,-40.039,-10.254,-10.254,-13.672,0.000
1673805943.486,-35.645,-15.137,-17.578,-26.367,0.000
1673805943.490,-22.949,-19.531,-21.484,-19.043,0.000
1673805943.493,-23.438,-21.484,-16.602,-17.090,0.000
1673805943.497,-23.438,-14.648,-15.625,-20.996,0.000
1673805943.501,-17.578,-7.324,-13.672,-20.020,0.000
1673805943.505,-10.254,-8.301,-13.184,-6.836,0.000
1673805943.509,-7.324,-11.719,-17.090,2.930,0.000
1673805943.513,-15.625,-19.531,-22.461,-5.371,0.000
1673805943.517,-17.090,-18.555,-21.484,-15.137,0.000
1673805943.521,-9.277,-17.090,-20.996,-4.395,0.000
1673805943.525,-10.742,-20.508,-24.902,9.766,0.000
1673805943.529,-14.160,-22.949,-20.996,11.230,0.000
1673805943.532,-4.395,-31.250,-21.484,5.859,0.000
1673805943.536,0.000,-23.926,-17.578,7.324,0.000
1673805943.540,4.883,-17.578,-16.602,10.742,0.000
1673805943.544,-7.324,-15.625,-22.949,-3.418,0.000
1673805943.548,-20.996,-14.648,-22.949,-5.859,0.000
1673805943.552,-17.578,-16.113,-20.996,-5.859,0.000
1673805943.556,-23.438,-11.230,-26.367,-11.230,0.000
1673805943.560,-28.809,-13.672,-34.668,-6.836,0.000
1673805943.564,-27.832,-16.113,-38.574,-14.648,0.000
1673805943.568,-27.832,-16.602,-32.715,-23.926,0.000
1673805943.572,-25.879,-19.043,-31.250,-19.531,0.000
1673805943.575,-28.320,-22.461,-43.457,-24.414,0.000
1673805943.579,-30.273,-30.273,-38.086,-34.180,0.000
1673805943.583,-32.715,-32.715,-29.785,-35.156,0.000
1673805943.587,-46.387,-31.738,-34.180,-28.320,0.000
1673805943.591,-56.641,-32.227,-27.832,-21.484,0.000
1673805943.595,-51.270,-29.297,-24.414,-18.066,0.000
1673805943.599,-45.410,-36.621,-28.320,-19.043,0.000
1673805943.603,-46.875,-31.250,-31.738,-24.902,0.000
1673805943.607,-58.105,-29.297,-33.203,-18.066,0.000
1673805943.611,-63.477,-40.039,-30.273,-16.113,0.000
1673805943.614,-44.922,-29.297,-24.902,-22.949,0.000
1673805943.618,-25.391,-20.508,-34.180,-23.926,0.000
1673805943.622,-31.738,-27.832,-42.480,-26.855,0.000
1673805943.626,-43.457,-40.039,-33.203,-22.949,0.000
1673805943.630,-30.273,-32.715,-21.973,-14.648,0.000
1673805943.634,-41.016,-17.578,-15.625,-7.324,0.000
1673805943.638,-45.898,-23.438,-17.578,-4.395,0.000
1673805943.642,-30.273,-25.391,-15.137,5.371,0.000
1673805943.646,-25.879,-18.555,-16.602,0.488,0.000
1673805943.650,-19.531,-16.113,-20.508,-15.137,0.000
1673805943.654,-26.367,-19.043,-23.926,-11.230,0.000
1673805943.657,-29.785,-20.508,-24.902,-1.465,0.000
1673805943.661,-30.762,-21.484,-22.949,-10.254,0.000
1673805943.665,-28.809,-27.832,-27.344,-18.066,0.000
1673805943.669,-29.785,-33.203,-25.879,-10.254,0.000
1673805943.673,-42.969,-26.855,-21.484,-6.348,0.000
1673805943.677,-41.016,-28.809,-25.391,-7.812,0.000
1673805943.681,-35.156,-29.785,-28.320,-16.602,0.000
1673805943.685,-42.969,-32.715,-38.086,-19.531,0.000
1673805943.689,-46.387,-31.738,-40.527,-11.719,0.000
1673805943.693,-36.621,-14.648,-36.133,-16.113,0.000
1673805943.697,-35.156,-20.508,-37.109,-24.902,0.000
1673805943.700,-28.320,-23.926,-31.250,-27.344,0.000
1673805943.704,-22.461,-14.160,-29.297,-22.461,0.000
1673805943.708,-40.527,-21.484,-33.203,-18.555,0.000
1673805943.712,-48.340,-29.785,-31.250,-25.391,0.000
1673805943.716,-38.574,-27.832,-29.297,-27.344,0.000
1673805943.720,-29.785,-23.926,-31.738,-23.438,0.000
1673805943.724,-27.832,-24.414,-33.691,-22.949,0.000
1673805943.728,-22.461,-28.320,-33.691,-19.043,0.000
1673805943.732,-19.043,-31.250,-32.227,-16.113,0.000
1673805943.736,-27.832,-30.273,-31.250,-16.602,0.000
1673805943.739,-29.785,-19.531,-27.832,-5.859,0.000
1673805943.743,-23.926,-15.137,-23.438,-2.930,0.000
1673805943.747,-17.578,-13.672,-24.414,-8.301,0.000
1673805943.751,-14.648,-18.066,-23.926,-10.742,0.000
1673805943.755,-25.879,-22.461,-25.879,-13.184,0.000
1673805943.759,-21.484,-22.949,-25.391,-13.672,0.000
1673805943.763,1.953,-26.367,-30.762,-14.648,0.000
1673805943.767,17.578,-23.926,-37.109,-14.160,0.000
1673805943.771,0.977,-20.996,-38.086,-16.113,0.000
1673805943.775,-29.297,-17.578,-36.133,-12.695,0.000
1673805943.779,-35.156,-20.020,-26.855,-6.836,0.000
1673805943.782,-32.227,-25.391,-21.484,-15.625,0.000
1673805943.786,-29.785,-27.832,-29.785,-21.484,0.000
1673805943.790,-25.879,-28.320,-41.992,-21.484,0.000
1673805943.794,-13.184,-30.762,-35.645,-20.996,0.000
1673805943.798,-6.836,-29.297,-21.973,-20.508,0.000
1673805943.802,-11.719,-25.879,-24.902,-26.855,0.000
1673805943.806,-17.090,-27.832,-30.762,-25.391,0.000
1673805943.810,-17.090,-25.879,-30.762,-26.367,0.000
1673805943.814,-22.949,-21.484,-28.320,-33.203,0.000
1673805943.818,-26.367,-27.344,-35.156,-39.551,0.000
1673805943.822,-14.648,-31.250,-32.227,-28.320,0.000
1673805943.825,-13.672,-31.250,-26.855,-19.531,0.000
1673805943.829,-21.484,-29.297,-28.809,-30.273,0.000
1673805943.833,-20.996,-21.973,-25.391,-33.203,0.000
1673805943.837,-12.695,-25.391,-28.809,-20.508,0.000
1673805943.841,-11.230,-31.738,-31.250,-14.648,0.000
1673805943.845,-17.578,-28.320,-28.320,-26.855,0.000
1673805943.849,-30.762,-21.973,-28.809,-33.203,0.000
1673805943.853,-44.434,-25.391,-31.738,-25.391,0.000
1673805943.857,-45.410,-26.855,-36.133,-13.672,0.000
1673805943.861,-36.621,-18.555,-38.086,-11.230,0.000
1673805943.865,-28.320,-25.879,-28.320,-18.555,0.000
1673805943.868,-21.973,-36.133,-29.785,-29.297,0.000
1673805943.872,-23.926,-27.832,-41.504,-25.391,0.000
1673805943.876,-28.320,-23.438,-42.480,-12.695,0.000
1673805943.880,-20.020,-23.438,-36.621,-21.484,0.000
1673805943.884,-18.555,-18.555,-31.250,-17.578,0.000
1673805943.888,-28.320,-25.391,-32.715,-18.555,0.000
1673805943.892,-29.785,-36.621,-36.621,-25.879,0.000
1673805943.896,-21.973,-21.973,-29.297,-13.672,0.000
1673805943.900,-24.902,-15.625,-26.855,-17.578,0.000
1673805943.904,-22.461,-26.367,-30.762,-18.555,0.000
1673805943.907,-11.719,-27.832,-33.203,-15.137,0.000
1673805943.911,-10.742,-20.020,-39.551,-15.137,0.000
1673805943.915,-10.742,-8.789,-38.574,-11.719,0.000
1673805943.919,-17.578,-17.578,-29.297,-12.207,0.000
1673805943.923,-20.020,-32.715,-26.855,-8.789,0.000
1673805943.927,-13.672,-19.043,-26.855,4.883,0.000
1673805943.931,-10.742,-4.883,-27.344,0.977,0.000
1673805943.935,-9.766,-12.695,-34.180,-17.090,0.000
1673805943.939,0.000,-16.602,-34.668,-18.555,0.000
1673805943.943,5.371,-11.719,-29.297,-10.254,0.000
1673805943.947,-6.348,-19.043,-34.668,-7.812,0.000
1673805943.950,-25.879,-28.320,-39.551,-21.484,0.000
1673805943.954,-40.039,-26.367,-29.297,-20.508,0.000
1673805943.958,-44.922,-22.461,-22.461,-9.277,0.000
1673805943.962,-47.852,-21.973,-31.250,-15.137,0.000
1673805943.966,-35.156,-19.043,-41.016,-22.461,0.000
1673805943.970,-24.902,-14.160,-36.621,-20.996,0.000
1673805943.974,-15.137,-19.043,-22.461,-8.301,0.000
1673805943.978,-4.883,-29.785,-17.090,-9.766,0.000
1673805943.982,-17.578,-32.715,-26.855,-25.879,0.000
1673805943.986,-14.648,-26.855,-29.785,-24.902,0.000
1673805943.989,-15.137,-30.273,-28.320,-13.184,0.000
1673805943.993,-22.949,-36.133,-35.156,-17.578,0.000
1673805943.997,-24.902,-24.902,-40.527,-26.855,0.000
1673805944.001,-20.996,-23.438,-33.691,-20.996,0.000
1673805944.005,-30.762,-30.762,-31.738,-12.207,0.000
1673805944.009,-41.504,-25.391,-37.598,-14.160,0.000
1673805944.013,-44.922,-19.531,-38.086,-17.090,0.000
1673805944.017,-38.574,-25.879,-31.250,-15.137,0.000
1673805944.021,-14.160,-34.180,-29.297,-9.277,0.000
1673805944.025,-11.230,-29.785,-40.039,-8.789,0.000
1673805944.029,-9.766,-15.137,-34.668,-9.277,0.000
1673805944.032,-1.465,-12.695,-32.715,-7.812,0.000
1673805944.036,-5.859,-14.160,-33.691,-9.277,0.000
1673805944.040,-17.578,-17.090,-28.809,-6.348,0.000
1673805944.044,-18.066,-25.391,-30.273,-3.418,0.000
1673805944.048,-14.160,-32.715,-36.621,-16.113,0.000
1673805944.052,-15.625,-19.531,-37.109,-20.020,0.000
1673805944.056,-13.184,-17.578,-27.832,-9.766,0.000
1673805944.060,-21.973,-27.344,-23.926,-11.230,0.000
1673805944.064,-18.555,-18.066,-18.555,-15.625,0.000
1673805944.068,-9.277,-21.484,-20.996,-22.949,0.000
1673805944.072,-16.113,-21.973,-31.738,-20.508,0.000
1673805944.075,-20.020,-15.625,-32.227,-3.906,0.000
1673805944.079,-20.996,-22.949,-30.762,-0.488,0.000
1673805944.083,-24.414,-31.738,-31.250,-21.973,0.000
1673805944.087,-30.762,-25.391,-22.949,-27.344,0.000
1673805944.091,-41.016,-20.996,-23.438,-7.324,0.000
1673805944.095,-45.410,-26.855,-33.691,-10.254,0.000
1673805944.099,-41.016,-30.273,-31.738,-22.949,0.000
1673805944.103,-33.691,-31.738,-25.879,-26.367,0.000
1673805944.107,-32.227,-29.785,-20.020,-20.020,0.000
1673805944.111,-42.480,-29.785,-18.555,-11.230,0.000
1673805944.114,-55.664,-28.320,-22.949,-12.207,0.000
1673805944.118,-54.688,-29.297,-28.809,-18.555,0.000
1673805944.122,-42.480,-27.344,-28.809,-6.348,0.000
1673805944.126,-35.156,-30.273,-22.461,-0.488,0.000
1673805944.130,-45.410,-34.668,-28.320,-19.531,0.000
1673805944.134,-48.340,-29.297,-33.691,-24.902,0.000
1673805944.138,-39.551,-26.855,-31.738,-16.113,0.000
1673805944.142,-39.551,-24.902,-32.227,-15.137,0.000
1673805944.146,-40.039,-34.668,-33.203,-21.484,0.000
1673805944.150,-37.598,-33.691,-24.902,-22.461,0.000
1673805944.154,-40.039,-18.555,-21.484,-15.137,0.000
1673805944.157,-39.551,-21.973,-25.391,-3.906,0.000
1673805944.161,-36.621,-27.832,-31.250,-7.812,0.000
1673805944.165,-43.945,-24.902,-32.715,-20.508,0.000
1673805944.169,-46.875,-22.949,-28.320,-13.672,0.000
1673805944.173,-52.246,-26.855,-34.180,-20.508,0.000
1673805944.177,-55.664,-29.785,-48.828,-31.738,0.000
1673805944.181,-43.457,-24.414,-39.551,-33.691,0.000
1673805944.185,-41.504,-27.344,-28.320,-28.809,0.000
1673805944.189,-41.992,-26.855,-35.645,-21.973,0.000
1673805944.193,-40.527,-13.672,-33.691,-26.367,0.000
1673805944.197,-42.969,-12.695,-28.809,-28.320,0.000
1673805944.200,-34.180,-21.973,-25.879,-27.344,0.000
1673805944.204,-22.461,-13.184,-22.949,-27.344,0.000
1673805944.208,-31.250,-17.578,-27.832,-25.879,0.000
1673805944.212,-44.434,-28.320,-30.273,-19.043,0.000
1673805944.216,-54.199,-30.762,-29.297,-12.695,0.000
1673805944.220,-52.246,-29.297,-31.250,-17.578,0.000
1673805944.224,-43.457,-22.461,-31.738,-16.602,0.000
1673805944.228,-41.504,-27.344,-29.785,-9.766,0.000
1673805944.232,-39.062,-22.461,-32.715,-18.555,0.000
1673805944.236,-38.574,-16.113,-28.809,-21.484,0.000
1673805944.240,-36.133,-20.996,-21.973,-1.953,0.000
1673805944.243,-35.156,-24.902,-24.414,0.000,0.000
1673805944.247,-40.527,-23.438,-26.367,-6.836,0.000
1673805944.251,-42.480,-24.414,-27.344,-8.789,0.000
1673805944.255,-41.504,-17.578,-26.855,-4.883,0.000
1673805944.259,-41.504,-17.578,-26.367,-6.348,0.000
1673805944.263,-38.574,-20.996,-32.715,-13.672,0.000
1673805944.267,-36.621,-20.508,-34.180,-15.625,0.000
1673805944.271,-29.785,-10.254,-27.344,-12.207,0.000
1673805944.275,-25.391,-8.301,-25.391,-9.277,0.000
1673805944.279,-30.273,-18.066,-24.414,-12.207,0.000
1673805944.283,-32.715,-15.137,-19.043,-17.578,0.000
1673805944.286,-33.203,-12.695,-9.277,-17.090,0.000
1673805944.290,-32.715,-11.230,-14.160,-14.160,0.000
1673805944.294,-27.344,-13.672,-18.066,-12.695,0.000
1673805944.298,-24.414,-14.648,-19.043,-4.883,0.000
1673805944.302,-19.043,-11.719,-22.949,-7.324,0.000
1673805944.306,-14.160,-7.812,-11.719,-2.441,0.000
1673805944.310,-18.555,-11.230,-1.953,1.465,0.000
1673805944.314,-21.484,-18.555,-7.324,-4.883,0.000
1673805944.318,-17.578,-20.508,-9.277,-1.465,0.000
1673805944.322,-13.672,-27.344,-9.766,4.883,0.000
1673805944.325,-19.531,-33.203,-11.719,18.555,0.000
1673805944.329,-17.090,-16.113,-8.301,14.648,0.000
1673805944.333,-11.719,-6.836,-12.695,0.000,0.000
1673805944.337,-12.695,-21.973,-21.484,4.883,0.000
1673805944.341,-11.719,-25.879,-32.715,12.695,0.000
1673805944.345,-8.301,-11.719,-28.809,14.160,0.000
1673805944.349,-14.160,-13.184,-13.184,16.602,0.000
1673805944.353,-27.344,-23.438,-13.184,14.160,0.000
1673805944.357,-42.969,-22.461,-15.625,2.441,0.000
1673805944.361,-35.156,-13.672,-14.648,0.977,0.000
1673805944.364,-31.738,-11.230,-16.602,-5.371,0.000
1673805944.368,-36.621,-18.555,-20.020,-16.113,0.000
1673805944.372,-26.855,-25.879,-18.066,-18.555,0.000
1673805944.376,-26.855,-17.578,-12.207,-10.254,0.000
1673805944.380,-35.156,-5.371,-11.230,-13.672,0.000
1673805944.384,-20.020,-15.137,-23.438,-23.926,0.000
1673805944.388,-19.043,-25.879,-28.809,-25.391,0.000
1673805944.392,-31.738,-21.484,-25.879,-18.066,0.000
1673805944.396,-31.250,-15.137,-22.461,-3.906,0.000
1673805944.400,-36.133,-19.531,-21.484,-23.438,0.000
1673805944.404,-25.879,-24.414,-24.414,-32.227,0.000
1673805944.407,-20.996,-26.367,-21.484,-20.020,0.000
1673805944.411,-30.762,-34.180,-20.508,-21.484,0.000
1673805944.415,-33.203,-27.344,-27.832,-29.785,0.000
1673805944.419,-21.484,-20.020,-29.297,-26.855,0.000
1673805944.423,-13.672,-31.250,-30.273,-5.371,0.000
1673805944.427,-20.020,-39.551,-41.992,0.488,0.000
1673805944.431,-32.715,-35.645,-43.457,-9.277,0.000
1673805944.435,-29.785,-30.762,-34.180,-12.207,0.000
1673805944.439,-19.531,-27.344,-32.227,0.488,0.000
1673805944.443,-22.949,-24.414,-32.715,1.465,0.000
1673805944.447,-29.297,-29.297,-32.227,-5.371,0.000
1673805944.450,-25.391,-31.250,-29.297,-4.395,0.000
1673805944.454,-13.672,-23.438,-22.461,3.418,0.000
1673805944.458,-20.020,-32.715,-29.785,1.953,0.000
1673805944.462,-25.391,-34.180,-30.762,-12.207,0.000
1673805944.466,-11.719,-23.926,-21.973,-17.578,0.000
1673805944.470,-19.043,-26.855,-22.461,-12.207,0.000
1673805944.474,-34.668,-26.855,-25.879,-8.301,0.000
1673805944.478,-35.645,-21.973,-20.508,-13.672,0.000
1673805944.482,-37.109,-25.879,-22.949,-25.391,0.000
1673805944.486,-31.738,-24.414,-33.691,-23.926,0.000
1673805944.490,-20.996,-24.902,-31.738,-20.996,0.000
1673805944.493,-28.809,-36.621,-29.297,-24.414,0.000
1673805944.497,-28.320,-32.227,-27.832,-20.508,0.000
1673805944.501,-18.555,-18.555,-26.367,-15.625,0.000
1673805944.505,-20.508,-22.461,-28.320,-18.066,0.000
1673805944.509,-20.996,-23.438,-33.203,-20.508,0.000
1673805944.513,-16.602,-16.113,-29.785,-16.113,0.000
1673805944.517,-12.695,-13.184,-20.996,-10.254,0.000
1673805944.521,-16.602,-21.484,-24.902,-15.625,0.000
1673805944.525,-0.977,-26.855,-30.762,-7.812,0.000
1673805944.529,-6.836,-16.113,-24.414,12.207,0.000
1673805944.532,-22.949,-13.672,-20.996,0.000,0.000
1673805944.536,-31.250,-21.484,-35.645,-14.648,0.000
1673805944.540,-33.691,-18.066,-35.156,-1.465,0.000
1673805944.544,-25.879,-14.648,-19.043,1.953,0.000
1673805944.548,-41.504,-19.043,-12.207,-11.230,0.000
1673805944.552,-45.410,-28.809,-15.137,-19.531,0.000
1673805944.556,-33.691,-28.320,-16.602,-14.160,0.000
1673805944.560,-20.996,-24.902,-19.043,-1.953,0.000
1673805944.564,-18.066,-24.414,-24.414,-8.789,0.000
1673805944.568,-23.926,-23.926,-25.391,-32.715,0.000
1673805944.572,-27.832,-27.344,-21.973,-26.855,0.000
1673805944.575,-29.785,-23.438,-23.926,-7.324,0.000
1673805944.579,-27.344,-12.207,-28.809,-19.043,0.000
1673805944.583,-26.367,-15.137,-28.809,-30.762,0.000
1673805944.587,-26.855,-22.461,-28.809,-20.020,0.000
1673805944.591,-36.133,-26.367,-28.320,-15.137,0.000
1673805944.595,-38.574,-31.250,-31.738,-23.438,0.000
1673805944.599,-26.367,-32.227,-29.785,-22.461,0.000
1673805944.603,-14.160,-27.832,-28.320,-9.277,0.000
1673805944.607,-20.996,-26.367,-31.738,-4.395,0.000
1673805944.611,-33.203,-24.414,-32.227,-13.672,0.000
1673805944.615,-22.949,-19.531,-30.273,-20.508,0.000
1673805944.618,-20.020,-27.344,-27.832,-16.602,0.000
1673805944.622,-31.250,-31.250,-31.250,-2.441,0.000
1673805944.626,-43.945,-26.367,-40.527,3.906,0.000
1673805944.630,-36.133,-25.391,-31.738,-2.930,0.000
1673805944.634,-26.367,-14.648,-18.066,-7.812,0.000
1673805944.638,-19.531,-16.113,-25.879,-5.371,0.000
1673805944.642,-18.066,-31.250,-22.949,-2.441,0.000
1673805944.646,-39.551,-33.203,-17.578,-9.766,0.000
1673805944.650,-38.574,-31.250,-26.367,-11.230,0.000
1673805944.654,-40.039,-36.621,-30.273,-15.625,0.000
1673805944.658,-51.270,-37.109,-25.879,-15.137,0.000
1673805944.661,-47.852,-32.715,-21.973,-7.324,0.000
1673805944.665,-41.504,-34.668,-23.926,-17.578,0.000
1673805944.669,-38.574,-38.086,-30.762,-27.344,0.000
1673805944.673,-33.203,-34.180,-29.785,-14.160,0.000
1673805944.677,-20.020,-28.809,-28.809,-4.883,0.000
1673805944.681,-29.297,-35.645,-39.551,-15.137,0.000
1673805944.685,-50.293,-38.086,-35.645,-17.090,0.000
1673805944.689,-50.781,-34.180,-31.738,-7.324,0.000
1673805944.693,-39.551,-22.461,-30.762,1.953,0.000
1673805944.697,-32.715,-22.949,-21.973,1.465,0.000
1673805944.700,-29.297,-34.180,-26.367,-4.883,0.000
1673805944.704,-29.785,-29.297,-20.508,6.348,0.000
1673805944.708,-27.832,-26.367,-14.160,11.719,0.000
1673805944.712,-19.531,-35.156,-18.555,0.000,0.000
1673805944.716,-31.250,-29.297,-21.484,-11.230,0.000
1673805944.720,-43.457,-20.508,-21.973,-11.719,0.000
1673805944.724,-48.828,-20.996,-30.762,-6.836,0.000
1673805944.728,-47.363,-16.113,-34.180,-7.812,0.000
1673805944.732,-42.969,-18.066,-28.320,-23.926,0.000
1673805944.736,-45.410,-28.320,-36.621,-32.715,0.000
1673805944.739,-40.039,-26.367,-39.062,-16.602,0.000
1673805944.743,-37.109,-21.484,-40.039,-15.625,0.000
