timestamp,TP9,AF7,AF8,TP10,Right AUX
0.000,36.621,-6.348,-3.418,31.738,0.000
4.000,21.484,-6.348,-8.789,20.508,0.000
8.000,26.367,-11.230,-11.719,19.531,0.000
12.000,68.848,-6.836,-2.930,43.945,0.000
16.000,51.270,-20.508,3.418,38.086,0.000
20.000,2.441,-31.250,-4.395,-6.836,0.000
23.000,4.395,-26.855,-2.930,-7.324,0.000
27.000,11.230,-31.250,-7.812,-1.465,0.000
31.000,-3.418,-43.457,-11.230,-10.742,0.000
35.000,0.977,-49.316,12.207,-13.184,0.000
39.000,-23.926,-39.062,10.254,-24.902,0.000
43.000,-53.223,-40.527,-9.277,-27.832,0.000
47.000,-41.992,-76.660,-4.395,-34.180,0.000
51.000,-42.480,-84.961,-18.066,-37.109,0.000
55.000,-41.992,-40.039,-38.574,-28.809,0.000
59.000,-41.992,-48.828,-41.016,-44.922,0.000
62.000,-52.734,-50.781,-6.836,-61.523,0.000
66.000,-46.875,-25.879,42.480,-56.641,0.000
70.000,-53.223,-42.480,42.969,-58.105,0.000
74.000,-73.242,-24.414,19.043,-70.801,0.000
78.000,-70.801,-48.340,20.508,-65.430,0.000
82.000,-57.129,-62.988,21.484,-53.711,0.000
86.000,-54.688,-25.879,3.418,-39.062,0.000
90.000,-59.082,2.930,4.395,-30.273,0.000
94.000,-62.988,1.953,-16.602,-52.734,0.000
98.000,-66.406,-35.156,-29.785,-66.895,0.000
102.000,-54.199,-33.203,-6.348,-55.664,0.000
105.000,-46.875,-5.859,3.906,-45.898,0.000
109.000,-47.363,-12.695,-5.859,-42.480,0.000
113.000,-40.039,-17.090,-10.254,-39.062,0.000
117.000,-19.043,-3.906,-2.930,-25.879,0.000
121.000,-23.926,-3.418,-1.465,-22.949,0.000
125.000,-32.715,-10.742,-4.883,-34.180,0.000
129.000,0.977,-11.719,-1.465,-24.902,0.000
133.000,22.461,-4.395,0.977,-6.348,0.000
137.000,-16.113,-7.324,-0.977,-8.301,0.000
141.000,-49.316,-12.207,0.488,-12.207,0.000
145.000,-38.574,-7.324,2.930,0.000,0.000
148.000,-22.949,-5.859,5.859,5.859,0.000
152.000,-26.367,-8.301,2.930,-0.977,0.000
156.000,-23.926,-9.277,-0.488,-3.418,0.000
160.000,-1.953,-9.766,-0.488,-3.906,0.000
164.000,22.949,-5.371,-2.441,-2.930,0.000
168.000,27.832,0.000,-7.812,-0.488,0.000
172.000,0.000,3.418,-7.324,-1.953,0.000
176.000,-20.996,6.836,-2.930,2.441,0.000
180.000,-0.977,13.672,-1.953,12.695,0.000
184.000,7.324,2.930,-1.465,7.324,0.000
187.000,-1.953,5.859,7.812,13.184,0.000
191.000,0.488,15.625,9.277,15.137,0.000
195.000,16.602,6.836,5.371,11.719,0.000
199.000,33.691,8.301,4.883,7.324,0.000
203.000,30.273,12.695,6.348,-1.465,0.000
207.000,27.832,20.020,8.789,-2.930,0.000
211.000,33.691,20.996,8.789,-4.395,0.000
215.000,19.531,12.207,6.836,-7.324,0.000
219.000,6.348,11.719,6.836,-6.836,0.000
223.000,-4.395,4.883,6.348,-5.859,0.000
227.000,-8.789,-3.906,3.906,-5.371,0.000
230.000,9.766,-1.953,6.836,-0.488,0.000
234.000,8.301,4.883,11.719,0.977,0.000
238.000,-2.930,2.441,11.230,-7.812,0.000
242.000,4.883,1.465,4.883,-12.695,0.000
246.000,18.555,6.348,7.812,-8.301,0.000
250.000,7.324,7.324,5.371,-14.160,0.000
254.000,1.953,14.160,9.277,-18.066,0.000
258.000,-0.488,7.324,13.672,-18.555,0.000
262.000,-0.488,-2.930,-2.441,-23.926,0.000
266.000,-8.789,-4.395,-6.348,-22.461,0.000
270.000,-22.949,-0.977,1.953,-16.113,0.000
273.000,-27.832,5.371,9.277,-17.090,0.000
277.000,-17.090,1.953,14.648,-20.508,0.000
281.000,2.441,0.488,11.719,-20.020,0.000
285.000,11.719,10.742,12.695,-23.926,0.000
289.000,3.906,9.766,14.160,-31.250,0.000
293.000,1.465,4.883,10.254,-24.902,0.000
297.000,24.902,9.277,5.371,-13.184,0.000
301.000,52.734,10.742,4.883,-2.441,0.000
305.000,35.156,10.742,10.742,-1.465,0.000
309.000,-6.836,-1.953,12.207,-20.508,0.000
312.000,6.836,-9.277,11.719,-13.672,0.000
316.000,33.691,-9.766,5.859,-13.672,0.000
320.000,22.949,-12.207,-1.465,-28.320,0.000
324.000,5.371,-14.648,0.000,-26.855,0.000
328.000,20.508,-16.113,2.441,-14.648,0.000
332.000,36.621,-11.719,-3.906,-10.254,0.000
336.000,11.230,-10.254,-8.789,-14.648,0.000
340.000,-0.488,-13.184,-7.812,-21.484,0.000
344.000,8.301,-9.766,-4.883,-16.602,0.000
348.000,-7.324,-4.395,-3.418,-13.672,0.000
352.000,-16.113,-2.930,-7.324,-18.066,0.000
355.000,-9.277,-5.371,-6.836,-10.742,0.000
359.000,-0.977,-2.930,3.418,-0.977,0.000
363.000,-3.418,-5.859,0.977,-3.906,0.000
367.000,4.883,-7.812,-4.395,-0.977,0.000
371.000,5.371,-5.859,-0.488,-3.906,0.000
375.000,0.488,-0.977,3.418,-17.090,0.000
379.000,-1.465,-2.441,-2.930,-20.508,0.000
383.000,-9.277,-9.277,-5.859,-18.555,0.000
387.000,-18.066,-12.695,-3.906,-24.902,0.000
391.000,-20.508,-8.301,-1.953,-26.367,0.000
395.000,-4.883,-5.859,0.977,-21.484,0.000
398.000,13.184,-4.883,1.465,-14.160,0.000
402.000,14.160,-4.395,7.812,-1.953,0.000
406.000,9.766,-7.812,4.395,-5.859,0.000
410.000,19.043,-8.789,-1.465,-16.113,0.000
414.000,20.508,-7.812,6.836,-18.066,0.000
418.000,2.930,-8.789,12.695,-5.859,0.000
422.000,4.883,-5.371,8.301,12.207,0.000
426.000,14.160,-1.953,2.441,9.766,0.000
430.000,27.344,-0.488,1.953,4.883,0.000
434.000,37.598,0.488,1.953,5.859,0.000
437.000,29.297,0.000,7.812,-6.348,0.000
441.000,28.320,1.953,11.719,-8.789,0.000
445.000,34.668,-1.953,10.742,0.977,0.000
449.000,18.066,-3.418,10.742,7.812,0.000
453.000,13.672,3.418,10.742,10.254,0.000
457.000,21.973,11.230,8.301,6.836,0.000
461.000,5.859,4.883,7.812,-1.465,0.000
465.000,5.371,-3.418,8.789,0.977,0.000
469.000,-9.277,0.000,7.812,-1.465,0.000
473.000,-26.855,3.418,6.836,-4.395,0.000
477.000,-13.672,4.395,7.812,-1.953,0.000
480.000,0.000,3.906,4.395,-9.766,0.000
484.000,0.488,0.977,5.859,-23.926,0.000
488.000,-2.441,2.441,7.324,-30.762,0.000
492.000,-18.555,1.465,6.348,-22.949,0.000
496.000,-13.184,-1.465,3.418,-22.949,0.000
500.000,-17.090,-10.254,0.000,-34.668,0.000
504.000,-42.480,-18.066,-6.348,-41.016,0.000
508.000,-38.086,-16.113,-8.301,-39.551,0.000
512.000,-15.625,-10.742,-6.836,-28.809,0.000
516.000,4.883,-5.371,-3.906,-29.785,0.000
520.000,3.418,-3.906,3.906,-30.273,0.000
523.000,-13.184,-8.789,-0.488,-22.461,0.000
527.000,-8.789,-8.301,-2.441,-19.043,0.000
531.000,1.953,-5.859,0.488,-19.043,0.000
535.000,5.371,-4.883,-0.977,-16.113,0.000
539.000,-6.836,-4.883,-0.977,-13.672,0.000
543.000,-8.301,-8.789,-1.465,-17.578,0.000
547.000,11.719,-10.254,-2.441,-17.090,0.000
551.000,7.812,-12.695,-5.859,-16.602,0.000
555.000,-8.789,-15.625,-6.836,-16.602,0.000
559.000,-8.789,-20.020,-6.348,-19.043,0.000
562.000,7.324,-17.578,-7.324,-15.137,0.000
566.000,17.090,-15.625,-8.789,-15.625,0.000
570.000,-10.254,-20.508,-11.719,-19.043,0.000
574.000,-37.598,-17.090,-9.766,-11.230,0.000
578.000,-24.414,-15.625,-8.301,-9.277,0.000
582.000,0.488,-16.113,-7.324,-10.742,0.000
586.000,-0.488,-14.160,-10.742,-7.324,0.000
590.000,-16.113,-14.160,-13.184,-13.184,0.000
594.000,-22.949,-18.066,-11.719,-7.324,0.000
598.000,-8.301,-17.090,-6.348,10.254,0.000
602.000,1.953,-13.672,-5.371,8.789,0.000
605.000,-10.254,-19.531,-6.348,0.488,0.000
609.000,-16.602,-23.926,-10.254,-2.930,0.000
613.000,2.930,-20.996,-14.648,-1.465,0.000
617.000,8.789,-20.996,-14.160,-5.859,0.000
621.000,-0.488,-16.113,-6.348,-9.277,0.000
625.000,3.906,-7.324,-0.977,-5.859,0.000
629.000,12.695,-9.766,0.488,0.000,0.000
633.000,30.273,-11.230,-0.977,0.977,0.000
637.000,20.508,-13.672,-9.277,-13.672,0.000
641.000,0.000,-16.113,-7.812,-17.578,0.000
645.000,5.371,-11.230,-2.930,-0.488,0.000
648.000,14.648,-11.719,-1.465,-0.488,0.000
652.000,15.137,-9.766,0.000,-7.324,0.000
656.000,0.488,-9.766,3.906,-2.930,0.000
660.000,-8.301,-15.625,2.441,1.465,0.000
664.000,10.742,-13.672,-5.371,-0.488,0.000
668.000,19.531,-7.324,-6.348,1.465,0.000
672.000,6.836,-9.277,-5.371,-0.488,0.000
676.000,2.441,-11.230,-12.695,-1.465,0.000
680.000,7.812,-16.113,-14.648,-5.371,0.000
684.000,11.719,-21.484,-9.766,4.395,0.000
687.000,9.766,-20.508,-5.859,9.766,0.000
691.000,10.254,-20.508,-7.324,4.395,0.000
695.000,32.715,-20.020,-9.766,8.789,0.000
699.000,53.223,-17.578,-4.395,25.391,0.000
703.000,39.551,-18.555,0.000,13.672,0.000
707.000,0.977,-17.578,-5.371,-14.648,0.000
711.000,1.465,-14.648,-12.695,-8.789,0.000
715.000,20.508,-25.391,-9.277,-4.883,0.000
719.000,-3.906,-27.344,-7.324,-9.277,0.000
723.000,-20.020,-31.738,-0.488,-8.301,0.000
727.000,-0.977,-25.879,1.953,-18.555,0.000
730.000,12.695,-0.977,-3.906,-31.738,0.000
734.000,-2.930,7.812,-6.836,-33.203,0.000
738.000,-20.996,5.859,-9.766,-37.109,0.000
742.000,-30.273,3.906,-4.883,-31.738,0.000
746.000,-30.273,7.812,4.395,-16.602,0.000
750.000,-27.344,-7.812,-2.441,-22.949,0.000
754.000,-34.668,-23.438,-10.742,-33.203,0.000
758.000,-41.992,-11.230,-9.277,-27.832,0.000
762.000,-27.344,-1.465,-11.230,-33.691,0.000
766.000,-10.742,-15.137,-15.625,-41.016,0.000
770.000,-29.297,-18.555,-4.395,-27.344,0.000
773.000,-39.062,-5.859,7.812,-17.578,0.000
777.000,-29.297,0.977,2.441,-16.113,0.000
781.000,-20.020,1.465,-2.441,-26.855,0.000
785.000,-12.207,-0.488,0.977,-35.645,0.000
789.000,-18.555,7.812,1.465,-26.367,0.000
793.000,0.000,0.977,3.418,-12.207,0.000
797.000,13.672,-15.137,4.883,-12.207,0.000
801.000,-0.977,-5.859,0.000,-12.695,0.000
805.000,-0.977,-2.441,-6.836,-7.324,0.000
809.000,-0.488,-7.812,-7.812,-16.113,0.000
812.000,-16.113,2.930,-4.883,-12.695,0.000
816.000,-6.836,8.301,3.418,-6.348,0.000
820.000,-0.488,11.719,6.836,-18.066,0.000
824.000,-13.184,7.324,-3.418,-25.879,0.000
828.000,-22.461,-5.371,-6.836,-25.391,0.000
832.000,-18.555,-11.719,0.488,-14.160,0.000
836.000,-5.859,-3.906,7.324,-7.812,0.000
840.000,-1.465,4.395,5.371,-11.230,0.000
844.000,6.348,2.930,-1.465,-9.277,0.000
848.000,20.508,-3.418,-4.395,-0.977,0.000
852.000,24.902,0.000,-8.301,-1.953,0.000
855.000,4.883,0.977,-3.418,-11.230,0.000
859.000,-10.742,-4.883,4.395,-6.836,0.000
863.000,1.953,-7.812,1.953,4.883,0.000
867.000,17.090,-3.418,5.371,8.789,0.000
871.000,13.184,3.418,10.254,4.883,0.000
875.000,-3.906,-1.465,5.371,-2.441,0.000
879.000,7.324,-5.859,0.488,-0.488,0.000
883.000,12.695,-14.160,-2.441,6.836,0.000
887.000,-5.859,-19.043,-6.836,4.883,0.000
891.000,4.395,-8.301,-4.395,2.441,0.000
895.000,28.809,-1.953,2.441,7.324,0.000
898.000,38.086,-6.348,0.488,2.441,0.000
902.000,15.625,-9.766,-4.883,2.441,0.000
906.000,-8.789,-9.766,-3.418,5.859,0.000
910.000,0.488,-8.789,-2.930,6.348,0.000
914.000,9.277,-11.719,-4.395,15.625,0.000
918.000,2.441,-11.230,-6.348,13.184,0.000
922.000,-1.465,-6.836,-4.395,12.695,0.000
926.000,7.812,-5.371,-0.488,16.113,0.000
930.000,35.645,-12.695,-3.418,11.230,0.000
934.000,34.180,-14.648,-1.953,7.812,0.000
937.000,10.742,-12.207,0.000,7.812,0.000
941.000,13.184,-2.441,1.465,11.230,0.000
945.000,14.160,2.441,3.906,18.555,0.000
949.000,15.137,-9.277,1.465,13.184,0.000
953.000,10.254,-6.836,1.465,8.789,0.000
957.000,-0.488,-7.324,-1.465,12.207,0.000
961.000,1.953,-14.160,-9.766,16.602,0.000
965.000,3.906,-12.695,-10.742,18.555,0.000
969.000,0.977,-10.742,-11.719,15.137,0.000
973.000,-4.395,-7.324,-11.230,10.742,0.000
977.000,-11.230,-6.348,-10.742,7.324,0.000
980.000,13.184,-3.906,-11.719,12.207,0.000
984.000,29.297,-4.883,-14.160,10.254,0.000
988.000,22.461,-4.395,-11.230,12.695,0.000
992.000,15.625,-5.859,-10.742,7.812,0.000
996.000,0.488,-15.625,-14.648,-9.277,0.000
1000.000,-20.508,-22.461,-17.578,-20.020,0.000
1004.000,-20.020,-16.602,-17.090,-16.602,0.000
1008.000,-8.301,-9.766,-20.996,-15.137,0.000
1012.000,1.465,-11.719,-23.926,-18.555,0.000
1016.000,9.766,-11.719,-21.973,2.441,0.000
1020.000,2.441,-9.277,-20.508,1.465,0.000
1023.000,-1.953,-15.137,-23.438,-16.602,0.000
1027.000,6.836,-13.672,-21.973,-9.766,0.000
1031.000,29.785,-7.812,-20.996,-2.441,0.000
1035.000,26.367,-6.348,-22.461,-8.789,0.000
1039.000,0.000,-4.883,-21.484,-9.766,0.000
1043.000,0.977,-6.836,-18.066,3.906,0.000
1047.000,0.488,-4.395,-15.625,13.184,0.000
1051.000,-9.277,-11.230,-15.137,6.348,0.000
1055.000,-6.836,-15.625,-18.066,12.695,0.000
1059.000,-3.418,-10.742,-20.508,14.160,0.000
1062.000,15.625,-10.742,-18.555,16.602,0.000
1066.000,20.508,-12.207,-18.555,14.160,0.000
1070.000,-0.977,-14.648,-15.625,-2.930,0.000
1074.000,-0.488,-17.090,-9.277,4.883,0.000
1078.000,0.000,-17.090,-13.672,11.230,0.000
1082.000,-5.371,-16.602,-11.230,6.836,0.000
1086.000,-14.160,-20.508,-6.836,4.395,0.000
1090.000,-14.648,-17.090,-10.742,-2.441,0.000
1094.000,-0.488,-14.648,-12.207,5.859,0.000
1098.000,6.348,-15.137,-15.625,10.254,0.000
1102.000,11.230,-12.695,-15.625,7.324,0.000
1105.000,10.742,-9.766,-9.766,6.348,0.000
1109.000,13.184,-12.695,-14.648,-2.930,0.000
1113.000,29.785,-16.602,-20.508,-4.395,0.000
1117.000,28.809,-17.090,-19.531,-12.695,0.000
1121.000,8.301,-14.160,-15.625,-8.789,0.000
1125.000,-3.906,-13.184,-14.160,-1.953,0.000
1129.000,5.371,-11.719,-17.090,-8.789,0.000
1133.000,7.812,-9.766,-12.207,-6.348,0.000
1137.000,5.371,-4.883,-8.301,6.836,0.000
1141.000,-4.395,-4.395,-10.254,18.066,0.000
1145.000,-11.719,-8.789,-10.254,15.137,0.000
1148.000,-9.766,-7.324,-7.812,18.066,0.000
1152.000,-12.207,-5.371,-3.906,20.020,0.000
1156.000,-19.043,-9.766,-7.324,17.090,0.000
1160.000,-9.766,-14.160,-6.836,15.625,0.000
1164.000,4.883,-13.184,-5.859,5.859,0.000
1168.000,3.418,-10.254,-7.812,1.465,0.000
1172.000,-1.465,-13.672,-8.301,-4.883,0.000
1176.000,2.930,-14.648,-6.836,-5.859,0.000
1180.000,11.719,-9.766,-2.441,1.465,0.000
1184.000,8.789,-11.719,0.000,3.906,0.000
1187.000,-2.930,-14.648,-6.836,-9.277,0.000
1191.000,-4.883,-8.301,-6.348,-11.230,0.000
1195.000,12.207,-10.254,-4.883,-2.930,0.000
1199.000,18.066,-15.137,-3.906,0.488,0.000
1203.000,12.695,-14.160,-7.812,-12.695,0.000
1207.000,-10.254,-15.625,-9.766,-20.020,0.000
1211.000,-15.625,-17.090,-7.324,-7.812,0.000
1215.000,6.348,-11.719,-0.977,-10.742,0.000
1219.000,4.395,-14.160,-0.488,-18.555,0.000
1223.000,-2.441,-16.113,-0.977,-14.160,0.000
1227.000,9.277,-7.812,2.441,-3.906,0.000
1230.000,11.719,-5.859,-0.488,-2.930,0.000
1234.000,8.789,-12.207,-2.441,-8.789,0.000
1238.000,1.953,-15.625,-2.930,-11.719,0.000
1242.000,-6.348,-19.043,-6.348,-6.348,0.000
1246.000,1.953,-13.184,-3.906,8.789,0.000
1250.000,6.348,-11.719,-5.859,13.184,0.000
1254.000,-5.859,-10.254,-6.348,9.766,0.000
1258.000,-4.395,-5.371,-3.906,11.719,0.000
1262.000,12.207,-8.301,-6.348,2.441,0.000
1266.000,2.930,-9.766,-4.883,-5.859,0.000
1270.000,-0.977,-2.930,0.000,-6.836,0.000
1273.000,0.977,-4.883,3.418,-9.277,0.000
1277.000,-3.906,-11.719,-1.465,-10.742,0.000
1281.000,17.090,-7.812,-0.977,-7.812,0.000
1285.000,29.297,0.000,0.000,-12.207,0.000
1289.000,10.742,3.906,-3.906,-11.230,0.000
1293.000,-2.441,0.488,-6.836,-7.324,0.000
1297.000,6.348,-1.465,-6.348,-8.301,0.000
1301.000,13.672,-0.977,-2.441,-2.441,0.000
1305.000,5.859,-3.418,-2.441,0.488,0.000
1309.000,4.883,-4.395,-1.953,-3.906,0.000
1312.000,19.043,-1.465,-0.488,-2.441,0.000
1316.000,30.762,-0.977,0.488,-0.977,0.000
1320.000,19.531,-5.371,-5.859,-1.465,0.000
1324.000,-7.324,-9.766,-16.602,-4.883,0.000
1328.000,-2.441,-10.254,-14.648,-2.441,0.000
1332.000,20.020,-7.324,-9.766,-6.836,0.000
1336.000,24.902,-5.859,-18.066,-19.043,0.000
1340.000,8.301,-7.812,-20.996,-23.926,0.000
1344.000,-16.113,-10.742,-15.137,-15.625,0.000
1348.000,-8.301,-11.719,-8.301,-5.859,0.000
1352.000,-2.930,-14.160,-11.230,-5.371,0.000
1355.000,-9.277,-19.043,-15.137,-12.695,0.000
1359.000,3.906,-14.648,-11.719,-13.672,0.000
1363.000,22.949,-8.789,-12.695,-15.137,0.000
1367.000,33.203,-12.695,-14.160,-13.672,0.000
1371.000,22.461,-12.695,-12.207,-9.766,0.000
1375.000,8.789,-7.324,-8.301,-2.930,0.000
1379.000,31.250,-6.348,-5.859,19.531,0.000
1383.000,47.852,-9.766,-1.465,24.902,0.000
1387.000,9.766,-17.578,-0.977,-3.906,0.000
1391.000,-18.555,-20.508,-1.465,-27.344,0.000
1395.000,-12.207,-18.555,2.441,-17.090,0.000
1398.000,-13.672,-21.973,2.441,-12.695,0.000
1402.000,-16.602,-31.250,2.441,-25.391,0.000
1406.000,-28.320,-31.738,0.000,-30.762,0.000
1410.000,-37.109,-36.621,-1.953,-29.297,0.000
1414.000,-48.828,-52.246,-2.441,-35.156,0.000
1418.000,-57.129,-39.551,-1.465,-48.340,0.000
1422.000,-49.316,-12.207,6.836,-48.828,0.000
1426.000,-42.969,-7.324,7.812,-40.527,0.000
1430.000,-57.129,-12.207,1.465,-54.199,0.000
1434.000,-53.711,-14.648,-3.906,-62.012,0.000
1437.000,-51.758,-34.180,-11.719,-55.664,0.000
1441.000,-60.059,-43.457,-11.719,-60.547,0.000
1445.000,-50.781,-32.227,-12.207,-58.594,0.000
1449.000,-41.016,-16.113,-13.672,-50.781,0.000
1453.000,-39.551,-9.766,-9.277,-47.852,0.000
1457.000,-45.898,-22.461,-2.441,-44.922,0.000
1461.000,-46.875,-15.625,1.953,-39.551,0.000
1465.000,-25.391,-4.883,-4.883,-38.086,0.000
1469.000,-10.254,-2.930,-8.301,-40.039,0.000
1473.000,-20.020,-0.977,-4.395,-40.039,0.000
1477.000,-27.832,-1.953,-8.301,-30.762,0.000
1480.000,-33.691,-13.672,-5.371,-15.137,0.000
1484.000,-29.785,-8.789,2.441,-10.254,0.000
1488.000,-30.762,-9.277,-5.859,-23.926,0.000
1492.000,-30.273,-15.137,-12.695,-24.902,0.000
1496.000,-13.184,-4.883,-10.742,-28.809,0.000
1500.000,4.883,-3.418,-12.695,-36.133,0.000
1504.000,-10.742,-6.836,-14.160,-20.996,0.000
1508.000,-31.738,-1.953,-5.859,-2.441,0.000
1512.000,-28.809,4.883,1.465,0.488,0.000
1516.000,-16.602,0.977,-8.301,-11.719,0.000
1520.000,-14.160,-1.465,-12.207,-13.672,0.000
1523.000,-12.207,6.836,-6.348,-8.301,0.000
1527.000,3.906,8.789,-4.395,1.953,0.000
1531.000,18.066,9.766,-3.418,-0.977,0.000
1535.000,14.648,10.742,4.883,-5.371,0.000
1539.000,-1.953,8.789,6.348,-5.371,0.000
1543.000,5.371,6.348,7.324,-10.254,0.000
1547.000,28.809,6.836,5.371,-8.789,0.000
1551.000,34.668,7.812,2.441,-13.184,0.000
1555.000,20.996,6.348,6.348,-19.531,0.000
1559.000,0.977,10.254,8.301,-18.555,0.000
1562.000,5.859,11.719,5.371,-13.672,0.000
1566.000,20.508,10.742,-2.441,-16.602,0.000
1570.000,22.949,11.230,0.000,-27.344,0.000
1574.000,24.902,1.465,2.930,-23.438,0.000
1578.000,23.926,0.488,-1.953,-11.230,0.000
1582.000,19.531,4.395,0.977,-10.254,0.000
1586.000,10.742,-3.418,1.465,-16.113,0.000
1590.000,-6.836,-2.930,0.977,-17.578,0.000
1594.000,-0.488,1.465,6.836,-17.090,0.000
1598.000,26.855,2.441,2.441,-16.113,0.000
1602.000,36.621,6.348,2.441,-16.602,0.000
1605.000,2.441,-0.488,10.254,-17.578,0.000
1609.000,-20.508,-5.371,8.301,-15.137,0.000
1613.000,-10.742,-3.906,-0.488,-15.625,0.000
1617.000,-4.395,-3.906,-1.953,-6.836,0.000
1621.000,-5.371,-3.418,1.953,-2.930,0.000
1625.000,-10.254,-1.465,1.465,-10.742,0.000
1629.000,6.836,2.930,1.465,0.000,0.000
1633.000,17.090,1.953,-0.977,-4.883,0.000
1637.000,5.371,0.977,-2.441,-20.996,0.000
1641.000,6.348,-0.977,1.465,-23.926,0.000
1645.000,22.949,-1.465,-2.441,-23.438,0.000
1648.000,36.621,-2.930,-3.906,-25.879,0.000
1652.000,31.250,-5.859,-5.371,-23.438,0.000
1656.000,8.789,-5.859,-1.465,-14.160,0.000
1660.000,-3.906,-7.324,0.000,-9.766,0.000
1664.000,-8.301,-7.812,-5.371,-1.465,0.000
1668.000,-11.230,-11.230,-8.789,9.766,0.000
1672.000,2.441,-7.812,-6.348,16.113,0.000
1676.000,1.953,-1.953,-1.953,0.000,0.000
1680.000,-5.371,-8.301,-4.883,-21.973,0.000
1684.000,-1.953,-10.742,-8.301,-34.180,0.000
1687.000,-5.371,-12.207,-6.348,-30.273,0.000
1691.000,-5.859,-20.508,-8.301,-29.785,0.000
1695.000,7.324,-24.902,-19.531,-36.133,0.000
1699.000,5.859,-19.531,-26.855,-28.809,0.000
1703.000,-9.277,-14.160,-19.043,-27.344,0.000
1707.000,-12.207,-12.695,-13.672,-30.273,0.000
1711.000,-17.090,-10.254,-14.160,-22.461,0.000
1715.000,-1.953,-9.766,-13.672,-16.113,0.000
1719.000,8.789,-9.277,-14.648,-14.648,0.000
1723.000,9.766,-6.836,-7.324,-3.906,0.000
1727.000,22.949,-2.441,-4.883,-7.812,0.000
1730.000,41.992,-2.441,-8.789,-14.648,0.000
1734.000,51.758,-1.465,-8.301,-7.324,0.000
1738.000,33.203,6.348,-0.977,-5.371,0.000
1742.000,23.926,7.812,6.836,-3.906,0.000
1746.000,35.156,7.812,7.324,-3.906,0.000
1750.000,24.414,1.953,2.930,-11.230,0.000
1754.000,6.836,-8.301,4.883,-5.371,0.000
1758.000,13.184,4.395,8.789,3.418,0.000
1762.000,13.184,7.324,3.418,-7.812,0.000
1766.000,9.766,-0.977,1.465,-10.742,0.000
1770.000,7.324,0.977,-3.906,-9.766,0.000
1773.000,-5.371,-5.371,-10.254,-16.602,0.000
1777.000,-0.977,-10.254,-8.789,-17.090,0.000
1781.000,17.578,-6.348,-6.348,-11.719,0.000
1785.000,14.648,-4.395,-3.906,-29.297,0.000
1789.000,-4.883,-9.277,-9.766,-43.945,0.000
1793.000,-1.953,-11.230,-6.348,-38.086,0.000
1797.000,16.113,-8.301,-0.488,-29.297,0.000
1801.000,17.578,-6.836,-3.906,-26.855,0.000
1805.000,3.418,-5.371,-2.441,-30.273,0.000
1809.000,12.695,-4.883,-4.883,-32.227,0.000
1812.000,24.414,-5.371,-7.324,-21.973,0.000
1816.000,5.859,-6.836,-6.836,-12.695,0.000
1820.000,-19.043,-8.789,-5.859,-17.578,0.000
1824.000,-31.250,-8.789,-6.348,-21.484,0.000
1828.000,-31.738,-5.859,-7.324,-24.902,0.000
1832.000,-13.184,0.977,-3.418,-17.090,0.000
1836.000,-5.371,4.395,-8.301,-15.137,0.000
1840.000,-9.766,1.465,-9.277,-32.227,0.000
1844.000,-11.230,-6.348,-5.859,-39.062,0.000
1848.000,-18.555,-15.625,-5.371,-31.738,0.000
1852.000,-25.391,-16.113,-7.324,-34.668,0.000
1855.000,-33.203,-17.578,-9.277,-43.457,0.000
1859.000,-28.809,-20.996,-8.789,-38.086,0.000
1863.000,-3.418,-17.578,-8.789,-27.344,0.000
1867.000,7.812,-9.766,-0.488,-22.461,0.000
1871.000,-18.066,-8.301,8.301,-32.227,0.000
1875.000,-40.039,-6.348,8.301,-37.109,0.000
1879.000,-20.996,-14.648,0.488,-32.227,0.000
1883.000,-9.766,-16.113,-2.441,-26.855,0.000
1887.000,-31.738,-8.301,2.930,-20.996,0.000
1891.000,-37.109,-9.766,3.906,-20.996,0.000
1895.000,-20.508,-12.207,-1.465,-34.668,0.000
1898.000,1.953,-12.695,-7.812,-35.156,0.000
1902.000,-1.465,-15.625,-2.930,-20.020,0.000
1906.000,-10.254,-14.648,7.812,-23.438,0.000
1910.000,0.977,-14.160,5.859,-30.762,0.000
1914.000,0.488,-17.090,2.930,-20.020,0.000
1918.000,-11.719,-15.137,2.930,-10.742,0.000
1922.000,-48.828,-20.020,-0.488,-11.719,0.000
1926.000,-56.152,-27.344,0.488,-10.254,0.000
1930.000,-27.832,-21.973,-0.977,-2.930,0.000
1934.000,-7.812,-14.160,-2.930,-3.418,0.000
1937.000,-6.836,-17.578,-3.418,-16.113,0.000
1941.000,-15.137,-19.043,-5.859,-24.902,0.000
1945.000,-21.973,-15.625,-3.906,-17.578,0.000
1949.000,-7.324,-12.207,-0.977,-0.977,0.000
1953.000,0.000,-8.789,-0.488,1.465,0.000
1957.000,-11.719,-8.789,0.000,-6.348,0.000
1961.000,-5.859,-9.766,1.953,-4.883,0.000
1965.000,6.348,-9.766,-1.465,2.441,0.000
1969.000,7.324,-10.254,-4.883,-2.930,0.000
1973.000,-4.883,-12.207,-7.812,-8.789,0.000
1977.000,-5.371,-13.184,-4.883,-6.348,0.000
1980.000,14.648,-6.836,-3.906,0.488,0.000
1984.000,5.859,-7.324,-5.859,0.977,0.000
1988.000,-9.766,-9.277,-1.953,-6.836,0.000
1992.000,-4.395,-6.836,0.000,-8.301,0.000
1996.000,12.695,-4.883,-2.930,-1.953,0.000
2000.000,22.461,-2.930,-4.395,-6.348,0.000
2004.000,14.648,-0.977,-2.930,-4.883,0.000
2008.000,6.348,5.859,0.000,1.953,0.000
2012.000,-4.395,4.883,-1.953,6.836,0.000
2016.000,0.488,1.953,-4.395,14.648,0.000
2020.000,7.812,-0.488,-5.859,8.301,0.000
2023.000,1.953,-3.906,-6.836,-6.836,0.000
2027.000,4.883,0.977,-2.930,-10.254,0.000
2031.000,16.602,2.441,1.465,-10.742,0.000
2035.000,16.113,0.977,1.953,-8.301,0.000
2039.000,5.371,-0.977,3.418,-5.859,0.000
2043.000,7.324,-6.836,-0.977,-8.789,0.000
2047.000,17.578,-6.348,-4.395,-2.441,0.000
2051.000,1.465,-8.301,-13.184,-3.906,0.000
2055.000,-23.926,-11.230,-19.531,-15.137,0.000
2059.000,-19.043,-10.254,-6.836,-8.789,0.000
2063.000,4.883,-9.277,-1.953,2.930,0.000
2066.000,25.391,-6.348,-2.930,5.371,0.000
2070.000,9.277,-7.812,-4.395,1.465,0.000
2074.000,-12.207,-9.766,-3.906,-0.977,0.000
2078.000,-2.441,-9.766,-4.395,1.953,0.000
2082.000,10.254,-8.301,-3.906,3.418,0.000
2086.000,22.461,-9.277,2.441,-1.465,0.000
2090.000,26.855,-4.883,0.977,-0.977,0.000
2094.000,14.160,-3.418,-2.930,-2.441,0.000
2098.000,16.113,-2.441,0.000,7.812,0.000
2102.000,15.625,-4.395,-0.488,3.418,0.000
2105.000,5.371,-8.789,-2.930,-7.812,0.000
2109.000,10.254,-13.672,1.465,15.625,0.000
2113.000,41.016,-10.742,7.812,41.504,0.000
2117.000,29.785,-22.949,2.930,3.906,0.000
2121.000,2.441,-32.715,-3.906,-27.344,0.000
2125.000,-2.441,-27.344,-2.930,-15.137,0.000
2129.000,-11.719,-27.832,1.953,-11.719,0.000
2133.000,-5.371,-30.273,6.836,-14.160,0.000
2137.000,-6.836,-14.160,9.277,-17.090,0.000
2141.000,-45.898,1.465,7.812,-28.320,0.000
2145.000,-55.176,-13.672,-0.488,-36.621,0.000
2148.000,-42.480,-23.926,-9.277,-41.016,0.000
2152.000,-27.832,-29.297,-9.277,-43.457,0.000
2156.000,-15.137,-39.551,-2.930,-46.387,0.000
2160.000,-48.340,-27.832,-16.602,-49.316,0.000
2164.000,-74.707,-25.391,-18.555,-49.316,0.000
2168.000,-46.387,-50.293,6.836,-41.992,0.000
2172.000,-44.922,-25.391,-0.488,-42.480,0.000
2176.000,-72.266,4.883,-17.578,-64.453,0.000
2180.000,-66.406,-5.371,-10.742,-73.242,0.000
2184.000,-49.316,-7.812,-9.766,-66.895,0.000
2187.000,-54.688,-9.277,-14.160,-67.383,0.000
2191.000,-58.594,-10.742,-13.184,-69.336,0.000
2195.000,-47.852,-16.113,-11.719,-74.707,0.000
2199.000,-32.715,-13.672,-9.277,-65.430,0.000
2203.000,-52.734,-11.719,-7.812,-55.176,0.000
2207.000,-69.336,-11.719,-12.695,-63.965,0.000
2211.000,-39.551,-10.742,-11.230,-53.711,0.000
2215.000,-15.625,-6.348,-13.184,-32.227,0.000
2219.000,-19.531,2.441,-17.090,-38.574,0.000
2223.000,-32.227,0.488,-12.207,-43.457,0.000
2227.000,-32.715,-11.719,-12.695,-39.062,0.000
2230.000,-14.160,-1.953,-9.277,-33.203,0.000
2234.000,-14.648,3.906,-8.301,-27.832,0.000
2238.000,-36.621,3.418,-16.602,-32.227,0.000
2242.000,-31.738,9.277,-18.555,-28.320,0.000
2246.000,-9.277,10.742,-18.066,-21.484,0.000
2250.000,5.371,8.789,-17.578,-13.672,0.000
2254.000,10.254,7.812,-18.066,-14.160,0.000
2258.000,-7.324,13.184,-14.160,-15.137,0.000
2262.000,-14.648,13.672,-8.301,-4.395,0.000
2266.000,3.906,11.230,-5.371,2.441,0.000
2270.000,-0.488,14.160,-1.465,2.930,0.000
2273.000,-11.230,10.742,0.488,6.836,0.000
2277.000,-0.488,3.906,-0.977,9.277,0.000
2281.000,18.066,6.348,-0.977,14.160,0.000
2285.000,12.695,4.883,-6.836,1.465,0.000
2289.000,-7.324,0.000,-9.277,-10.742,0.000
2293.000,-10.742,1.465,-8.301,0.000,0.000
2297.000,-9.766,-1.953,-13.184,-7.324,0.000
2301.000,0.000,-0.977,-11.230,-16.113,0.000
2305.000,-20.020,-3.418,-13.184,-17.090,0.000
2309.000,-38.086,-10.254,-19.043,-22.461,0.000
2313.000,-12.695,-7.324,-12.695,-21.484,0.000
2316.000,-0.977,-2.441,-6.836,-14.648,0.000
2320.000,-10.254,-3.906,-8.789,-21.484,0.000
2324.000,-22.461,-5.859,-11.230,-27.832,0.000
2328.000,-18.066,3.418,-16.113,-23.926,0.000
2332.000,5.859,3.418,-15.625,-20.996,0.000
2336.000,3.906,-8.301,-11.230,-19.531,0.000
2340.000,-12.207,-9.277,-10.742,-24.902,0.000
2344.000,-13.672,-5.859,-4.395,-20.508,0.000
2348.000,-8.301,-3.418,-4.883,-5.371,0.000
2352.000,-5.859,0.977,-6.836,-3.418,0.000
2355.000,-9.766,-5.371,-1.465,-5.859,0.000
2359.000,-8.789,-9.277,-2.930,-4.883,0.000
2363.000,9.766,0.977,-3.906,-2.930,0.000
2367.000,21.484,-0.488,-4.883,-5.859,0.000
2371.000,-7.812,-0.488,0.000,-0.977,0.000
2375.000,-22.461,0.977,8.301,3.418,0.000
2379.000,-4.883,-3.906,10.254,6.836,0.000
2383.000,20.020,3.418,13.184,20.508,0.000
2387.000,20.996,2.441,9.766,14.160,0.000
2391.000,13.184,0.488,4.395,-3.418,0.000
2395.000,22.949,5.371,2.930,-0.977,0.000
2398.000,37.109,1.465,3.418,3.906,0.000
2402.000,40.039,5.371,5.859,5.859,0.000
2406.000,27.344,10.742,7.812,9.277,0.000
2410.000,12.207,2.441,1.465,8.789,0.000
2414.000,5.859,-0.488,-1.953,8.301,0.000
2418.000,11.719,0.977,-3.906,1.465,0.000
2422.000,7.812,1.953,-1.465,-4.395,0.000
2426.000,13.672,1.465,2.441,1.465,0.000
2430.000,27.832,2.441,0.977,20.508,0.000
2434.000,32.715,4.395,5.859,34.668,0.000
2438.000,16.113,7.812,7.812,18.066,0.000
2441.000,-14.160,5.859,0.977,-20.020,0.000
2445.000,-2.930,1.953,-4.883,-18.555,0.000
2449.000,6.836,0.000,-5.371,10.742,0.000
2453.000,-16.602,0.488,-3.906,4.883,0.000
2457.000,-28.809,6.348,-1.953,-8.789,0.000
2461.000,-7.812,5.859,-7.812,5.371,0.000
2465.000,17.578,2.930,-4.883,12.207,0.000
2469.000,12.695,3.906,1.465,0.977,0.000
2473.000,-2.930,1.465,-3.906,-6.836,0.000
2477.000,-0.488,-0.488,-4.883,-1.953,0.000
2480.000,7.324,0.000,-1.465,-1.465,0.000
2484.000,2.930,-2.441,-0.977,-7.324,0.000
2488.000,-18.066,-6.348,-7.324,-14.160,0.000
2492.000,-31.738,-12.207,-12.695,-27.832,0.000
2496.000,-12.207,-8.301,-14.160,-27.344,0.000
2500.000,-10.742,-6.348,-12.695,-30.762,0.000
2504.000,-34.180,-8.301,-8.301,-40.527,0.000
2508.000,-57.129,-9.766,-8.301,-44.434,0.000
2512.000,-50.781,-7.324,-7.324,-40.527,0.000
2516.000,-21.973,-8.301,0.977,-25.879,0.000
2520.000,-19.043,-7.812,-1.953,-20.508,0.000
2523.000,-16.113,-3.418,-6.348,-32.227,0.000
2527.000,-5.859,0.000,-4.883,-31.738,0.000
2531.000,-6.836,-0.977,-5.859,-28.809,0.000
2535.000,-20.020,-3.906,-0.977,-25.879,0.000
2539.000,-36.621,2.930,8.301,-20.020,0.000
2543.000,-33.203,-0.977,6.836,-21.973,0.000
2547.000,-20.020,-2.441,-0.488,-14.648,0.000
2551.000,-2.441,6.836,-0.977,-9.277,0.000
2555.000,1.953,4.883,-0.977,-10.742,0.000
2559.000,-15.137,-3.418,-1.465,-10.742,0.000
2562.000,-0.488,-4.395,-2.930,1.465,0.000
2566.000,18.066,-1.465,-3.906,8.301,0.000
2570.000,19.043,-4.883,-7.324,4.395,0.000
2574.000,18.555,-4.395,-6.836,4.395,0.000
2578.000,20.996,1.953,-1.465,7.324,0.000
2582.000,28.320,0.488,0.977,19.531,0.000
2586.000,21.973,-2.930,0.977,18.555,0.000
2590.000,23.438,-0.488,3.418,14.648,0.000
2594.000,39.551,2.930,2.930,19.043,0.000
2598.000,48.340,4.395,3.906,9.277,0.000
2602.000,35.645,-1.953,5.371,5.371,0.000
2605.000,18.555,-1.953,6.348,15.625,0.000
2609.000,9.277,0.977,8.301,19.531,0.000
2613.000,2.930,-5.371,6.836,16.602,0.000
2617.000,25.391,-10.254,5.371,21.484,0.000
2621.000,29.785,-12.207,5.859,21.973,0.000
2625.000,6.348,-16.113,5.859,14.648,0.000
2629.000,0.488,-16.113,2.930,14.160,0.000
2633.000,4.395,-15.137,5.371,9.277,0.000
2637.000,-3.906,-12.695,10.254,12.207,0.000
2641.000,-12.695,-8.301,5.371,14.160,0.000
2645.000,11.719,-8.789,4.395,4.883,0.000
2648.000,42.969,-14.648,2.930,8.301,0.000
2652.000,51.270,-13.184,1.465,15.625,0.000
2656.000,26.367,-3.906,4.883,17.578,0.000
2660.000,15.625,-0.977,7.324,26.855,0.000
2664.000,34.668,-4.395,12.695,33.691,0.000
2668.000,30.273,-18.066,9.277,25.391,0.000
2672.000,15.625,-30.273,4.395,20.508,0.000
2676.000,19.043,-19.531,6.348,20.508,0.000
2680.000,33.691,-4.883,4.395,18.555,0.000
2684.000,43.457,-5.371,1.953,18.066,0.000
2688.000,39.062,-3.418,2.930,16.602,0.000
2691.000,29.297,-5.859,2.930,16.602,0.000
2695.000,23.926,-11.230,0.488,23.438,0.000
2699.000,35.156,0.488,0.977,32.227,0.000
2703.000,31.250,-0.488,2.441,33.691,0.000
2707.000,-7.812,-11.230,3.906,33.691,0.000
2711.000,-6.348,-9.277,4.395,31.250,0.000
2715.000,13.672,-9.766,-2.441,35.156,0.000
2719.000,1.465,-15.137,-8.789,34.180,0.000
2723.000,-5.371,-16.602,-10.742,17.578,0.000
2727.000,7.812,-14.648,-11.230,14.648,0.000
2730.000,16.602,-13.184,-6.836,22.949,0.000
2734.000,9.277,-14.648,-8.789,15.137,0.000
2738.000,11.719,-11.719,-7.324,8.301,0.000
2742.000,7.324,-9.766,-3.906,5.371,0.000
2746.000,5.859,-10.742,-7.812,8.301,0.000
2750.000,8.789,-13.672,-4.883,14.160,0.000
2754.000,6.836,-13.184,-3.906,13.184,0.000
2758.000,5.371,-9.766,-6.836,10.254,0.000
2762.000,21.973,-11.230,-10.254,1.465,0.000
2766.000,46.387,-9.766,-11.719,1.953,0.000
2770.000,42.969,-5.371,-10.254,8.301,0.000
2773.000,17.578,-8.301,-11.230,4.883,0.000
2777.000,6.836,-10.742,-9.277,1.465,0.000
2781.000,20.508,-8.789,-4.395,12.695,0.000
2785.000,21.973,-13.672,1.953,19.043,0.000
2789.000,5.859,-10.254,-1.953,15.625,0.000
2793.000,3.906,-11.230,-5.859,11.719,0.000
2797.000,22.949,-9.277,-3.906,10.254,0.000
2801.000,20.508,-10.254,-1.953,11.230,0.000
2805.000,14.648,-19.531,3.418,5.371,0.000
2809.000,32.227,-23.926,2.930,9.277,0.000
2813.000,50.293,-19.043,2.930,22.461,0.000
2816.000,30.273,-12.695,1.953,9.277,0.000
2820.000,-0.488,-18.555,-3.906,-14.648,0.000
2824.000,-19.043,-20.996,-5.371,-26.855,0.000
2828.000,-28.320,-16.602,-6.836,-17.090,0.000
2832.000,-18.555,-14.648,-5.371,-16.602,0.000
2836.000,-16.602,-23.926,2.441,-34.668,0.000
2840.000,-38.086,-51.270,5.859,-34.180,0.000
2844.000,-44.922,-63.477,2.930,-44.434,0.000
2848.000,-41.016,-40.527,-9.277,-63.965,0.000
2852.000,-48.828,-39.551,-24.414,-76.172,0.000
2855.000,-53.223,-30.273,-11.719,-80.566,0.000
2859.000,-49.316,-18.555,2.441,-74.219,0.000
2863.000,-48.340,-25.879,3.906,-67.383,0.000
2867.000,-67.871,-31.250,-14.160,-76.172,0.000
2871.000,-75.195,-39.551,-35.645,-73.242,0.000
2875.000,-53.223,-41.016,-13.672,-61.523,0.000
2879.000,-45.898,-25.879,20.020,-59.570,0.000
2883.000,-61.523,-25.879,5.859,-74.219,0.000
2887.000,-78.125,-26.855,-7.812,-96.680,0.000
2891.000,-69.336,0.977,-8.301,-80.566,0.000
2895.000,-39.551,0.000,-32.227,-38.574,0.000
2898.000,-37.109,-25.879,-30.762,-48.828,0.000
2902.000,-48.340,-12.207,10.254,-73.730,0.000
2906.000,-61.035,-9.766,20.020,-73.242,0.000
2910.000,-71.777,-11.719,8.301,-82.031,0.000
2914.000,-53.223,-7.324,2.441,-75.684,0.000
2918.000,-40.527,-6.348,-1.465,-61.523,0.000
2922.000,-61.523,-10.742,-5.859,-68.359,0.000
2926.000,-59.570,-11.230,-1.953,-54.688,0.000
2930.000,-38.086,-10.254,-10.254,-39.062,0.000
2934.000,-35.645,-11.719,-22.461,-45.898,0.000
2937.000,-25.391,-10.254,-13.184,-37.598,0.000
2941.000,-26.855,-15.137,-9.766,-31.738,0.000
2945.000,-18.555,-9.766,-9.766,-33.691,0.000
2949.000,-13.672,-3.418,-3.418,-19.043,0.000
2953.000,-27.344,-7.812,3.906,-11.230,0.000
2957.000,-36.621,-9.277,-3.418,-17.578,0.000
2961.000,-43.457,-12.207,-22.949,-32.227,0.000
2965.000,-25.391,-5.859,-27.344,-24.902,0.000
2969.000,0.000,10.742,-20.508,-15.137,0.000
2973.000,-1.465,8.789,-17.090,-24.902,0.000
2977.000,3.906,-3.418,-19.043,-29.297,0.000
2980.000,11.230,-7.812,-15.625,-23.926,0.000
2984.000,-4.395,-7.324,-10.254,-12.695,0.000
2988.000,-21.973,-8.301,-15.137,-22.461,0.000
2992.000,-34.180,-13.672,-21.973,-27.344,0.000
2996.000,-37.109,-7.324,-28.809,-24.902,0.000
3000.000,-21.484,-1.953,-26.367,-19.043,0.000
3004.000,-10.254,-8.301,-25.879,-25.879,0.000
3008.000,-12.695,-2.930,-23.926,-29.297,0.000
3012.000,2.441,7.324,-17.578,-20.020,0.000
3016.000,11.230,0.977,-22.461,-21.484,0.000
3020.000,1.953,-11.719,-20.020,-21.973,0.000
3023.000,0.977,-9.766,-14.648,-22.461,0.000
3027.000,-5.371,-4.883,-17.090,-8.301,0.000
3031.000,12.207,6.348,-7.812,-3.418,0.000
3035.000,27.344,6.348,-2.930,-18.555,0.000
3039.000,3.906,-6.348,-13.672,-29.297,0.000
3043.000,-6.348,0.000,-19.531,-35.156,0.000
3047.000,3.418,1.465,-12.207,-20.508,0.000
3051.000,9.766,-4.883,-5.859,-20.996,0.000
3055.000,13.184,2.930,-5.371,-29.785,0.000
3059.000,8.789,5.859,-4.395,-21.973,0.000
3063.000,0.000,3.418,-2.930,-13.184,0.000
3066.000,5.371,3.906,-2.441,-7.324,0.000
3070.000,3.906,5.371,-1.953,-2.930,0.000
3074.000,-5.859,7.812,-1.465,5.371,0.000
3078.000,5.859,12.695,-0.977,-0.977,0.000
3082.000,33.691,14.648,2.930,0.977,0.000
3086.000,50.781,14.160,6.348,15.625,0.000
3090.000,30.762,13.184,1.465,2.441,0.000
3094.000,4.883,10.254,-2.441,-18.555,0.000
3098.000,19.043,3.906,1.465,-12.695,0.000
3102.000,39.062,1.465,3.906,-4.883,0.000
3105.000,25.391,4.883,2.930,-6.836,0.000
3109.000,-3.418,6.348,2.930,-4.395,0.000
3113.000,-6.348,1.465,-3.418,-8.789,0.000
3117.000,5.371,-4.395,2.441,-8.301,0.000
3121.000,10.742,1.953,1.953,-3.418,0.000
3125.000,6.348,1.953,-3.418,-7.324,0.000
3129.000,21.484,-1.953,0.000,2.441,0.000
3133.000,34.668,0.977,-4.395,-2.441,0.000
3137.000,31.738,3.418,-4.395,-10.254,0.000
3141.000,12.207,0.488,-2.930,-3.906,0.000
3145.000,18.066,1.465,0.000,6.836,0.000
3148.000,32.227,3.906,5.371,11.230,0.000
3152.000,32.227,1.953,4.883,3.418,0.000
3156.000,39.551,-1.465,6.836,3.906,0.000
3160.000,51.270,-4.883,6.348,2.441,0.000
3164.000,46.387,-5.371,5.371,0.488,0.000
3168.000,23.926,-5.859,5.371,4.883,0.000
3172.000,6.348,-2.930,5.859,8.789,0.000
3176.000,3.418,2.441,15.137,15.137,0.000
3180.000,13.672,2.930,16.602,8.301,0.000
3184.000,29.297,3.906,6.836,-9.277,0.000
3188.000,23.926,4.883,7.812,-11.719,0.000
3191.000,11.719,5.859,11.719,-12.695,0.000
3195.000,-5.371,2.930,6.348,-15.137,0.000
3199.000,-14.160,-0.977,8.301,-9.277,0.000
3203.000,-7.812,3.418,7.812,-8.301,0.000
3207.000,-12.695,3.906,8.789,-10.742,0.000
3211.000,-2.930,0.000,12.695,-6.348,0.000
3215.000,11.719,1.465,7.812,-6.348,0.000
3219.000,19.043,8.301,11.719,-4.883,0.000
3223.000,14.160,9.766,18.066,-4.395,0.000
3227.000,8.789,11.230,15.137,0.000,0.000
3230.000,11.719,9.277,12.207,7.812,0.000
3234.000,14.160,7.324,7.324,12.207,0.000
3238.000,9.277,11.719,6.348,18.555,0.000
3242.000,22.949,13.184,7.812,20.996,0.000
3246.000,29.785,9.766,5.371,17.578,0.000
3250.000,33.691,20.020,4.395,14.160,0.000
3254.000,23.438,22.461,0.000,14.648,0.000
3258.000,9.766,19.043,-1.953,19.531,0.000
3262.000,26.855,20.508,-1.953,20.508,0.000
3266.000,25.391,11.230,-8.301,19.531,0.000
3270.000,18.555,1.465,-8.789,18.555,0.000
3273.000,14.160,2.930,0.000,18.555,0.000
3277.000,11.230,5.371,-0.977,13.672,0.000
3281.000,30.273,8.301,-2.930,20.508,0.000
3285.000,34.180,6.348,-0.977,21.973,0.000
3289.000,20.996,2.441,-4.883,14.648,0.000
3293.000,19.043,2.441,-1.953,20.020,0.000
3297.000,36.621,3.906,6.348,34.180,0.000
3301.000,45.898,3.906,0.488,32.227,0.000
3305.000,23.438,6.348,1.465,15.625,0.000
3309.000,14.160,3.906,5.371,16.602,0.000
3312.000,16.602,-1.465,-1.465,16.602,0.000
3316.000,25.879,4.395,-0.977,3.418,0.000
3320.000,24.414,9.766,3.418,7.812,0.000
3324.000,12.695,11.719,4.883,13.672,0.000
3328.000,14.648,6.348,4.883,8.301,0.000
3332.000,28.320,5.859,7.324,3.418,0.000
3336.000,30.762,6.836,9.766,-2.441,0.000
3340.000,9.277,4.883,7.812,-1.953,0.000
3344.000,-5.371,1.953,7.324,11.230,0.000
3348.000,14.160,7.324,11.230,17.090,0.000
3352.000,26.367,13.184,11.230,10.742,0.000
3355.000,8.301,9.766,7.812,13.184,0.000
3359.000,-0.488,5.859,8.301,17.090,0.000
3363.000,7.812,5.371,7.324,21.484,0.000
3367.000,20.996,10.254,6.836,17.090,0.000
3371.000,23.926,12.695,5.371,8.301,0.000
