timestamp,TP9,AF7,AF8,TP10,Right AUX
0.000,14.160,4.395,16.113,4.883,0.000
4.000,5.859,2.930,16.602,21.973,0.000
8.000,15.625,5.859,19.043,34.180,0.000
12.000,16.602,0.488,24.902,26.367,0.000
16.000,-3.418,-7.324,24.414,11.719,0.000
20.000,-11.719,-8.301,17.090,5.859,0.000
23.000,-5.859,-8.301,9.766,4.883,0.000
27.000,-6.348,-13.184,12.695,17.578,0.000
31.000,-1.953,-13.184,15.625,18.555,0.000
35.000,-5.859,-15.137,10.742,-1.465,0.000
39.000,-8.301,-18.555,6.836,-4.883,0.000
43.000,1.953,-10.742,9.277,3.906,0.000
47.000,-8.301,-14.648,7.812,-2.930,0.000
51.000,-19.531,-22.949,1.953,-5.371,0.000
55.000,-25.391,-19.531,-0.488,-8.301,0.000
59.000,-27.832,-21.973,-5.859,-14.648,0.000
62.000,-20.020,-21.484,-5.859,-9.277,0.000
66.000,-14.160,-15.137,0.000,-2.441,0.000
70.000,-10.742,-19.531,2.441,7.324,0.000
74.000,2.441,-18.555,2.441,18.066,0.000
78.000,-5.859,-18.555,2.930,9.277,0.000
82.000,-18.555,-21.484,5.371,2.930,0.000
86.000,-8.789,-20.020,6.348,9.277,0.000
90.000,-12.207,-19.531,4.395,15.137,0.000
94.000,-7.324,-21.484,2.441,12.695,0.000
98.000,-0.977,-23.926,0.977,0.000,0.000
102.000,1.953,-18.555,-1.953,5.859,0.000
105.000,-0.977,-18.066,1.465,18.555,0.000
109.000,-1.953,-24.902,3.418,16.113,0.000
113.000,7.324,-26.855,1.953,8.301,0.000
117.000,15.625,-17.578,12.207,28.320,0.000
121.000,11.719,-12.695,14.160,39.062,0.000
125.000,7.812,-10.742,6.836,24.902,0.000
129.000,20.508,-4.883,10.254,10.254,0.000
133.000,20.020,-9.766,10.742,12.207,0.000
137.000,10.742,-13.672,12.207,23.926,0.000
141.000,26.855,-9.277,20.020,25.879,0.000
145.000,31.250,-3.906,20.508,24.902,0.000
148.000,-2.930,-6.836,15.625,-0.488,0.000
152.000,-14.648,-13.184,14.648,-8.789,0.000
156.000,-13.184,-15.137,15.137,2.930,0.000
160.000,-19.531,-19.043,21.973,0.977,0.000
164.000,0.977,-24.414,30.273,4.395,0.000
168.000,-13.184,-36.133,18.555,-3.906,0.000
172.000,-37.598,-58.594,7.324,-17.090,0.000
176.000,-37.109,-54.688,5.371,-20.508,0.000
180.000,-40.527,-32.715,9.766,-22.461,0.000
184.000,-35.156,-26.855,20.996,-23.926,0.000
187.000,-36.621,-22.461,3.906,-14.648,0.000
191.000,-37.109,-10.742,0.977,-18.555,0.000
195.000,-24.414,-8.789,22.461,-25.391,0.000
199.000,-39.551,-25.391,5.371,-38.574,0.000
203.000,-64.453,-29.297,-1.953,-43.945,0.000
207.000,-54.688,-29.297,10.254,-24.414,0.000
211.000,-48.340,-34.668,5.859,-23.438,0.000
215.000,-39.551,-30.273,4.395,-35.645,0.000
219.000,-24.902,-20.996,2.930,-29.297,0.000
223.000,-34.668,-16.602,1.953,-22.949,0.000
227.000,-37.109,-24.414,1.465,-23.438,0.000
230.000,-20.996,-22.461,4.395,-20.020,0.000
234.000,-7.812,-9.766,7.812,-11.719,0.000
238.000,-3.418,-8.789,5.371,6.836,0.000
242.000,2.441,-15.137,0.000,11.230,0.000
246.000,4.395,-10.254,-1.953,1.953,0.000
250.000,3.418,-8.301,3.906,4.395,0.000
254.000,9.766,-6.348,6.836,13.184,0.000
258.000,7.324,-5.371,2.441,17.578,0.000
262.000,-5.371,-15.137,0.000,13.672,0.000
266.000,-9.766,-16.113,3.418,6.348,0.000
270.000,-3.418,-9.766,3.418,20.020,0.000
273.000,4.883,-17.090,0.000,34.668,0.000
277.000,1.953,-24.902,-4.395,20.996,0.000
281.000,-9.277,-26.367,-11.719,8.301,0.000
285.000,-6.348,-22.949,-16.113,10.742,0.000
289.000,-2.930,-20.508,-11.230,14.648,0.000
293.000,-0.977,-26.855,-14.160,5.859,0.000
297.000,12.207,-29.785,-21.973,-0.977,0.000
301.000,0.977,-24.902,-22.461,9.766,0.000
305.000,-10.742,-33.203,-22.949,3.906,0.000
309.000,-16.113,-35.156,-20.996,0.000,0.000
312.000,-23.438,-30.273,-8.789,4.395,0.000
316.000,-16.113,-31.250,-7.812,1.953,0.000
320.000,-18.555,-35.645,-14.648,5.371,0.000
324.000,-20.020,-37.598,-9.766,9.766,0.000
328.000,-17.578,-32.227,-5.859,0.977,0.000
332.000,-10.254,-35.156,-10.742,-8.789,0.000
336.000,-4.883,-29.297,-8.789,9.766,0.000
340.000,-14.648,-22.949,-5.371,14.160,0.000
344.000,-24.414,-29.297,-9.277,-6.836,0.000
348.000,-30.762,-25.879,-8.301,-13.672,0.000
352.000,-27.344,-24.902,-11.719,-15.625,0.000
355.000,-19.531,-26.367,-12.695,-13.672,0.000
359.000,-15.625,-20.996,-7.324,-8.301,0.000
363.000,-17.578,-21.973,-2.930,-6.836,0.000
367.000,-13.672,-21.973,-5.859,-12.695,0.000
371.000,-8.789,-21.973,-1.465,-2.441,0.000
375.000,-20.508,-26.855,6.836,5.371,0.000
379.000,-19.531,-18.555,6.348,-6.348,0.000
383.000,-9.766,-15.137,3.906,-11.719,0.000
387.000,-0.488,-18.555,0.488,-0.488,0.000
391.000,1.465,-16.113,2.441,2.441,0.000
395.000,0.000,-23.438,2.930,-10.742,0.000
398.000,0.000,-30.762,-0.488,-18.066,0.000
402.000,3.906,-23.926,-5.859,-6.836,0.000
406.000,-7.324,-24.414,-4.395,-2.930,0.000
410.000,-16.602,-27.832,0.000,-11.719,0.000
414.000,-2.930,-25.879,-1.953,-8.301,0.000
418.000,-5.371,-23.438,-2.441,-0.488,0.000
422.000,-20.020,-21.484,-0.488,-9.766,0.000
426.000,-36.621,-21.973,-2.441,-19.043,0.000
430.000,-37.109,-18.066,-3.906,-21.484,0.000
434.000,-26.367,-24.902,-2.441,-18.066,0.000
437.000,-26.855,-40.039,-5.371,-7.812,0.000
441.000,-27.344,-32.227,-4.395,0.977,0.000
445.000,-20.020,-19.043,-1.953,-6.836,0.000
449.000,-14.160,-12.695,1.953,-3.906,0.000
453.000,-16.602,-15.137,0.000,5.859,0.000
457.000,-20.508,-22.461,-3.418,-9.277,0.000
461.000,-17.090,-22.949,-0.977,-13.184,0.000
465.000,-18.066,-19.043,-6.348,-15.625,0.000
469.000,-16.602,-19.531,-9.766,-20.996,0.000
473.000,-8.789,-22.461,-7.812,-13.184,0.000
477.000,-11.719,-22.461,-5.859,-8.789,0.000
480.000,-16.113,-19.531,-4.883,-14.160,0.000
484.000,-12.695,-19.043,-5.859,-12.207,0.000
488.000,-17.578,-29.785,-8.301,-15.625,0.000
492.000,-22.461,-28.320,-9.766,-19.531,0.000
496.000,-31.738,-28.809,-8.789,-29.785,0.000
500.000,-28.320,-30.273,-8.301,-34.668,0.000
504.000,-21.973,-20.996,-7.812,-14.160,0.000
508.000,-25.391,-18.555,-2.441,-6.836,0.000
512.000,-24.902,-22.461,-0.977,-20.996,0.000
516.000,-21.973,-21.484,-4.395,-28.320,0.000
520.000,-13.672,-17.578,-0.488,-17.090,0.000
523.000,-12.207,-15.137,0.977,-2.441,0.000
527.000,-10.254,-13.672,0.977,-8.301,0.000
531.000,-16.113,-16.113,2.930,-20.996,0.000
535.000,-17.090,-18.555,-2.441,-9.277,0.000
539.000,-6.836,-21.484,-0.977,-0.488,0.000
543.000,-14.160,-20.996,4.395,-13.672,0.000
547.000,-17.578,-15.625,4.883,-12.695,0.000
551.000,-7.812,-14.648,2.930,3.418,0.000
555.000,-7.324,-20.508,-1.953,12.207,0.000
559.000,1.465,-19.043,4.395,22.461,0.000
562.000,11.230,-11.230,6.348,12.695,0.000
566.000,-8.789,-16.113,7.812,-13.672,0.000
570.000,-15.625,-25.879,8.301,-15.137,0.000
574.000,-6.836,-20.508,3.418,-5.859,0.000
578.000,-11.230,-13.672,6.836,-8.301,0.000
582.000,-14.160,-15.137,6.348,0.000,0.000
586.000,2.930,-14.160,1.465,19.531,0.000
590.000,7.812,-14.160,0.488,10.254,0.000
594.000,-5.859,-19.531,-2.441,-8.789,0.000
598.000,-2.930,-19.531,-5.371,-6.836,0.000
602.000,4.395,-11.719,-1.953,4.395,0.000
605.000,-5.859,-10.742,-4.395,5.371,0.000
609.000,-0.977,-11.719,-7.324,8.301,0.000
613.000,9.766,-12.207,-5.371,12.207,0.000
617.000,2.441,-16.113,-8.789,-2.930,0.000
621.000,3.418,-16.602,-9.277,-7.324,0.000
625.000,12.695,-14.160,-4.395,1.953,0.000
629.000,11.230,-6.836,-3.418,-0.488,0.000
633.000,15.625,0.977,-3.418,0.977,0.000
637.000,10.254,0.977,0.977,5.371,0.000
641.000,5.859,-2.441,7.324,0.000,0.000
645.000,4.395,-1.953,8.789,-10.742,0.000
648.000,-0.977,-2.441,7.812,-2.441,0.000
652.000,3.418,0.488,8.789,10.742,0.000
656.000,5.859,8.301,7.324,14.160,0.000
660.000,7.324,3.906,4.883,4.395,0.000
664.000,11.719,-5.371,3.906,-11.719,0.000
668.000,10.254,0.000,11.230,-3.418,0.000
672.000,1.953,1.465,12.207,6.348,0.000
676.000,0.977,1.465,13.184,0.977,0.000
680.000,10.254,7.812,13.672,-15.137,0.000
684.000,7.324,2.441,12.695,-9.277,0.000
687.000,2.930,0.488,20.020,7.324,0.000
691.000,1.465,0.977,20.020,6.836,0.000
695.000,-8.789,1.465,20.020,-2.930,0.000
699.000,-0.488,-0.488,20.020,-7.324,0.000
703.000,8.789,0.000,22.949,8.301,0.000
707.000,3.418,1.465,24.414,12.695,0.000
711.000,2.441,-0.977,20.996,-4.883,0.000
715.000,12.695,2.441,19.043,3.906,0.000
719.000,18.066,1.465,21.484,17.090,0.000
723.000,14.160,-3.418,19.043,6.348,0.000
727.000,3.906,-7.812,10.742,-5.859,0.000
730.000,7.324,-8.789,13.184,1.465,0.000
734.000,11.230,-1.953,15.625,11.230,0.000
738.000,-2.441,-1.465,13.672,5.859,0.000
742.000,-2.930,-7.324,11.230,4.883,0.000
746.000,-0.488,-10.254,7.812,0.488,0.000
750.000,-16.602,-10.254,9.277,-0.977,0.000
754.000,-15.137,-15.137,7.812,0.977,0.000
758.000,-20.020,-18.555,5.859,-1.465,0.000
762.000,-31.738,-11.719,1.465,-9.277,0.000
766.000,-25.391,-16.113,-0.488,-16.113,0.000
770.000,-20.020,-25.391,-0.488,-5.371,0.000
773.000,-1.953,-15.137,2.930,-2.441,0.000
777.000,2.930,-7.324,5.371,-12.207,0.000
781.000,-1.465,-14.160,2.441,-16.113,0.000
785.000,0.000,-10.742,4.395,-4.883,0.000
789.000,-8.789,-9.766,6.348,4.395,0.000
793.000,-11.230,-10.254,7.812,-2.930,0.000
797.000,-4.395,-3.906,8.301,-15.625,0.000
801.000,2.441,-8.301,10.742,-11.230,0.000
805.000,-11.230,-12.695,11.230,0.488,0.000
809.000,-20.996,-14.160,6.348,-10.254,0.000
812.000,-21.973,-15.625,8.789,-17.090,0.000
816.000,-20.020,-15.137,6.836,-20.508,0.000
820.000,-16.602,-21.973,2.441,-11.719,0.000
824.000,-17.578,-25.391,3.418,-8.301,0.000
828.000,-16.113,-24.902,-0.488,-19.043,0.000
832.000,-12.695,-21.973,0.488,-24.414,0.000
836.000,-2.441,-15.137,7.324,-9.277,0.000
840.000,-2.441,-18.555,8.789,-5.371,0.000
844.000,2.930,-17.578,9.277,-20.508,0.000
848.000,0.977,-17.090,5.371,-22.949,0.000
852.000,1.465,-23.926,2.441,-22.461,0.000
855.000,1.953,-22.461,-0.488,-14.648,0.000
859.000,-19.531,-26.855,-2.930,-11.719,0.000
863.000,-11.719,-25.879,-0.488,-19.043,0.000
867.000,10.254,-15.625,-2.441,-13.184,0.000
871.000,-5.371,-20.996,0.000,-3.418,0.000
875.000,-24.902,-22.949,7.324,-7.812,0.000
879.000,-13.184,-20.508,1.465,-14.648,0.000
883.000,0.977,-17.090,-0.977,-8.789,0.000
887.000,-11.230,-13.184,-2.441,3.906,0.000
891.000,-16.113,-15.137,-2.930,1.953,0.000
895.000,-12.207,-15.137,0.488,-8.789,0.000
898.000,-6.348,-15.625,-4.883,-7.324,0.000
902.000,-10.742,-15.625,-8.789,-4.883,0.000
906.000,-26.855,-18.066,-7.324,-14.160,0.000
910.000,-19.043,-19.043,-5.371,-17.090,0.000
914.000,-15.625,-13.184,-5.371,-16.602,0.000
918.000,-12.207,-6.348,-3.906,-9.766,0.000
922.000,-3.418,-7.324,2.441,1.953,0.000
926.000,-7.324,-17.090,2.441,0.000,0.000
930.000,-2.930,-25.391,-0.977,-5.371,0.000
934.000,-5.371,-23.926,-4.883,-11.230,0.000
937.000,-4.883,-15.137,-0.488,-6.836,0.000
941.000,7.812,-9.277,6.348,1.953,0.000
945.000,4.395,-8.301,3.906,2.441,0.000
949.000,-2.441,-13.672,-0.488,-8.301,0.000
953.000,-7.812,-17.578,-3.418,-16.113,0.000
957.000,2.441,-10.254,-0.488,0.488,0.000
961.000,1.953,-12.695,-2.441,3.906,0.000
965.000,-4.883,-21.973,-5.371,-2.441,0.000
969.000,0.977,-18.066,-3.418,4.883,0.000
973.000,2.930,-17.578,-0.488,15.625,0.000
977.000,8.301,-20.996,-3.906,10.254,0.000
980.000,12.207,-24.902,-5.859,0.000,0.000
984.000,18.066,-24.414,-2.441,17.090,0.000
988.000,2.930,-17.090,-2.930,32.227,0.000
992.000,-7.324,-11.719,1.465,21.484,0.000
996.000,-1.465,-12.695,2.930,10.254,0.000
1000.000,-0.977,-14.160,-3.418,3.418,0.000
1004.000,-4.395,-14.160,0.977,12.695,0.000
1008.000,-9.277,-20.996,1.953,18.066,0.000
1012.000,-3.418,-25.879,-2.930,5.859,0.000
1016.000,4.883,-16.602,4.883,15.137,0.000
1019.000,4.395,-2.930,8.301,14.648,0.000
1023.000,-12.695,-16.602,1.465,-10.254,0.000
1027.000,-16.602,-23.926,0.977,-26.855,0.000
1031.000,-2.930,-24.414,5.859,-25.391,0.000
1035.000,-4.883,-24.902,6.836,-14.648,0.000
1039.000,0.000,-8.301,14.648,0.977,0.000
1043.000,12.207,-10.254,23.926,-1.465,0.000
1047.000,-7.812,-27.344,15.625,-22.461,0.000
1051.000,-29.785,-41.504,-2.930,-37.598,0.000
1055.000,-27.832,-50.293,-6.836,-39.551,0.000
1059.000,-18.066,-43.945,1.953,-17.578,0.000
1062.000,-41.504,-37.598,5.859,-21.973,0.000
1066.000,-50.781,-23.438,13.672,-27.832,0.000
1070.000,-40.527,-2.930,9.766,-25.879,0.000
1074.000,-41.992,-21.973,4.883,-33.691,0.000
1078.000,-15.137,-33.203,22.949,-10.742,0.000
1082.000,1.953,-9.766,27.832,-2.930,0.000
1086.000,-38.574,3.418,-0.488,-38.574,0.000
1090.000,-53.711,-6.348,-11.719,-52.734,0.000
1094.000,-42.969,-30.762,5.371,-52.734,0.000
1098.000,-36.133,-31.250,14.648,-47.363,0.000
1102.000,-29.785,-19.043,10.742,-31.738,0.000
1105.000,-48.340,-18.066,2.930,-32.227,0.000
1109.000,-47.852,-3.906,2.930,-32.227,0.000
1113.000,-32.715,-5.859,8.789,-30.762,0.000
1117.000,-26.367,-13.184,3.906,-31.250,0.000
1121.000,-10.742,-11.230,3.418,-22.461,0.000
1125.000,-21.973,-10.742,3.418,-25.879,0.000
1129.000,-25.391,-12.695,2.930,-25.391,0.000
1133.000,-28.320,-17.090,-2.441,-18.066,0.000
1137.000,-33.691,-23.438,-11.719,-21.973,0.000
1141.000,-21.484,-30.762,-11.719,-30.273,0.000
1145.000,-26.855,-32.715,-12.695,-32.227,0.000
1148.000,-31.250,-36.133,-20.020,-31.250,0.000
1152.000,-28.320,-38.574,-20.508,-24.902,0.000
1156.000,-23.926,-35.156,-20.508,-13.184,0.000
1160.000,-28.809,-42.480,-22.949,-20.996,0.000
1164.000,-25.391,-44.434,-24.414,-27.832,0.000
1168.000,-20.996,-41.504,-22.949,-20.020,0.000
1172.000,-34.668,-47.852,-25.879,-14.648,0.000
1176.000,-28.809,-40.039,-27.832,-9.766,0.000
1180.000,-17.578,-36.133,-27.344,-10.254,0.000
1184.000,-35.156,-46.875,-26.855,-8.789,0.000
1187.000,-39.062,-44.434,-29.785,1.953,0.000
1191.000,-34.180,-34.180,-29.297,1.953,0.000
1195.000,-37.598,-36.621,-27.832,-15.137,0.000
1199.000,-20.508,-39.062,-30.762,-11.719,0.000
1203.000,-15.137,-42.480,-29.297,-9.766,0.000
1207.000,-18.066,-35.645,-24.414,-16.602,0.000
1211.000,-10.742,-25.391,-23.438,-26.367,0.000
1215.000,-20.020,-33.203,-27.344,-38.574,0.000
1219.000,-34.180,-36.133,-32.227,-29.297,0.000
1223.000,-40.039,-24.902,-28.809,-20.996,0.000
1227.000,-39.551,-16.113,-25.391,-25.879,0.000
1230.000,-32.227,-19.531,-26.367,-16.602,0.000
1234.000,-25.391,-20.996,-32.715,-16.113,0.000
1238.000,-23.438,-23.438,-33.203,-24.414,0.000
1242.000,-20.996,-22.461,-25.391,-25.391,0.000
1246.000,-16.113,-16.113,-22.949,-28.809,0.000
1250.000,-20.996,-17.578,-21.484,-26.855,0.000
1254.000,-15.137,-23.438,-20.996,-22.461,0.000
1258.000,-18.066,-28.809,-24.414,-30.273,0.000
1262.000,-24.414,-25.391,-20.996,-25.879,0.000
1266.000,-18.066,-20.996,-18.066,-18.555,0.000
1269.000,-23.438,-23.438,-20.020,-15.137,0.000
1273.000,-24.414,-23.926,-11.719,-6.836,0.000
1277.000,-27.344,-24.902,-10.254,-20.020,0.000
1281.000,-20.996,-29.297,-14.160,-24.414,0.000
1285.000,-11.719,-29.785,-10.742,-18.555,0.000
1289.000,-15.137,-30.273,-9.277,-13.184,0.000
1293.000,-14.648,-34.180,-11.719,-15.137,0.000
1297.000,-31.738,-35.156,-15.137,-33.691,0.000
1301.000,-33.691,-32.227,-14.648,-29.297,0.000
1305.000,-27.344,-35.156,-12.695,-25.391,0.000
1309.000,-46.387,-35.156,-10.742,-21.973,0.000
1312.000,-42.480,-29.297,-6.348,-21.973,0.000
1316.000,-23.438,-30.762,-6.348,-21.484,0.000
1320.000,-30.762,-33.203,-10.254,-14.648,0.000
1324.000,-40.039,-27.344,-9.277,-18.066,0.000
1328.000,-37.109,-20.508,-6.836,-23.926,0.000
1332.000,-33.203,-25.879,-8.301,-24.902,0.000
1336.000,-32.715,-28.320,-6.836,-8.789,0.000
1340.000,-38.574,-28.320,-5.371,-11.719,0.000
1344.000,-37.598,-30.762,-4.883,-26.367,0.000
1348.000,-28.320,-25.391,-6.836,-22.949,0.000
1352.000,-21.973,-16.113,-8.301,-13.672,0.000
1355.000,-21.973,-19.531,-9.766,-6.836,0.000
1359.000,-20.996,-20.020,-8.301,-15.137,0.000
1363.000,-8.301,-16.602,-3.418,-18.555,0.000
1367.000,-0.488,-16.113,0.977,-10.254,0.000
1371.000,-13.184,-13.672,-0.488,-7.324,0.000
1375.000,-25.879,-18.555,-8.301,-17.090,0.000
1379.000,-27.344,-22.949,-3.906,-23.438,0.000
1383.000,-20.996,-20.508,-5.859,-16.113,0.000
1387.000,-25.879,-21.973,-13.184,-5.859,0.000
1391.000,-33.203,-23.926,-6.836,-3.418,0.000
1394.000,-35.156,-24.902,-4.883,-11.719,0.000
1398.000,-39.551,-24.902,-7.324,-25.391,0.000
1402.000,-37.598,-26.855,-6.348,-23.926,0.000
1406.000,-26.855,-25.879,-7.324,-17.090,0.000
1410.000,-30.762,-21.973,-6.348,-24.414,0.000
1414.000,-35.156,-21.973,-8.789,-31.250,0.000
1418.000,-26.367,-24.902,-11.230,-20.508,0.000
1422.000,-20.020,-26.855,-11.230,-9.277,0.000
1426.000,-11.230,-24.902,-7.812,-10.742,0.000
1430.000,-8.301,-24.902,-9.277,-13.184,0.000
1434.000,-2.930,-21.973,-10.254,-9.766,0.000
1437.000,7.324,-16.602,-0.977,6.348,0.000
1441.000,-26.855,-20.020,2.441,-2.930,0.000
1445.000,-40.527,-25.879,1.465,-25.391,0.000
1449.000,-33.203,-22.461,0.000,-28.320,0.000
1453.000,-28.809,-20.996,1.465,-19.531,0.000
1457.000,-0.977,-20.996,6.348,-17.578,0.000
1461.000,-6.348,-20.996,4.883,-30.273,0.000
1465.000,-29.297,-23.438,5.371,-29.785,0.000
1469.000,-29.297,-22.949,9.277,-18.066,0.000
1473.000,-20.020,-21.973,8.789,-13.672,0.000
1477.000,-19.531,-23.438,10.742,-20.020,0.000
1480.000,-15.625,-24.902,12.207,-25.879,0.000
1484.000,-14.648,-20.020,12.207,-11.230,0.000
1488.000,-26.855,-22.949,10.742,-6.836,0.000
1492.000,-19.531,-24.414,8.789,-9.277,0.000
1496.000,-12.695,-15.137,9.766,-10.742,0.000
1500.000,-15.625,-14.160,10.742,0.000,0.000
1504.000,-10.742,-14.648,8.789,21.973,0.000
1508.000,-8.789,-15.625,4.395,20.020,0.000
1512.000,-13.184,-20.020,-0.977,0.000,0.000
1516.000,-9.277,-17.578,0.488,-6.836,0.000
1519.000,-3.418,-16.602,3.906,0.000,0.000
1523.000,-10.254,-19.531,-1.465,7.324,0.000
1527.000,-0.977,-20.508,-0.977,9.766,0.000
1531.000,-0.488,-20.020,-1.465,-7.812,0.000
1535.000,-14.648,-23.926,-5.859,-17.578,0.000
1539.000,-18.555,-25.391,-9.766,-8.301,0.000
1543.000,-20.020,-21.484,-12.695,-12.695,0.000
1547.000,-19.531,-24.414,-13.672,-22.949,0.000
1551.000,-28.320,-30.762,-12.207,-22.949,0.000
1555.000,-25.391,-27.344,-9.277,-15.625,0.000
1559.000,-16.602,-20.508,-11.719,-13.672,0.000
1562.000,-15.137,-21.484,-11.719,-22.461,0.000
1566.000,-18.066,-19.531,-9.277,-23.926,0.000
1570.000,-24.902,-17.578,-7.324,-13.672,0.000
1574.000,-33.691,-20.508,-7.812,-9.277,0.000
1578.000,-28.809,-22.461,-7.324,-19.531,0.000
1582.000,-15.137,-22.461,-4.395,-23.926,0.000
1586.000,-8.789,-20.020,-0.488,-11.719,0.000
1590.000,-15.137,-14.160,5.371,-3.906,0.000
1594.000,-12.207,-14.160,11.230,-8.301,0.000
1598.000,-8.301,-16.113,8.301,-14.648,0.000
1602.000,-12.207,-19.531,2.441,-16.602,0.000
1605.000,-16.602,-20.508,2.930,-11.230,0.000
1609.000,-19.043,-20.020,2.441,-12.207,0.000
1613.000,-23.926,-19.531,2.441,-19.043,0.000
1617.000,-24.902,-16.113,6.836,-8.301,0.000
1621.000,-18.555,-20.996,11.230,4.395,0.000
1625.000,-23.926,-25.879,4.883,-14.160,0.000
1629.000,-12.207,-21.484,2.930,-31.250,0.000
1633.000,1.465,-13.672,4.883,-19.531,0.000
1637.000,-3.906,-15.625,0.488,-8.301,0.000
1641.000,-20.996,-23.926,-2.930,-16.113,0.000
1644.000,-29.297,-20.508,0.000,-20.020,0.000
1648.000,-15.137,-12.695,7.324,-14.648,0.000
1652.000,-15.137,-11.719,7.324,-1.465,0.000
1656.000,-16.602,-15.137,2.930,1.465,0.000
1660.000,-16.113,-14.648,1.465,-13.184,0.000
1664.000,-11.230,-12.207,4.395,-10.742,0.000
1668.000,-2.441,-10.742,11.230,-1.465,0.000
1672.000,0.977,-7.324,11.230,-2.441,0.000
1676.000,-5.859,-8.301,7.324,-3.906,0.000
1680.000,3.906,-8.301,8.789,-5.859,0.000
1684.000,13.672,-7.812,8.789,-13.672,0.000
1687.000,6.348,-10.742,7.812,-9.277,0.000
1691.000,-1.953,-9.766,10.742,-3.906,0.000
1695.000,-3.418,-9.277,8.789,-9.766,0.000
1699.000,-0.977,-10.742,5.859,-10.254,0.000
1703.000,-8.301,-9.766,8.301,3.418,0.000
1707.000,-8.301,-13.184,7.324,14.648,0.000
1711.000,-8.789,-20.996,4.395,4.395,0.000
1715.000,-15.137,-24.414,0.977,-6.836,0.000
1719.000,-12.695,-19.531,3.418,0.488,0.000
1723.000,-5.371,-16.113,4.883,10.254,0.000
1727.000,-12.207,-20.996,-1.465,5.859,0.000
1730.000,-13.184,-21.484,-5.859,-5.371,0.000
1734.000,-1.953,-20.508,-5.859,-3.418,0.000
1738.000,-16.113,-25.879,-6.348,6.836,0.000
1742.000,-32.715,-24.414,-8.789,2.930,0.000
1746.000,-18.555,-22.949,-11.230,-9.277,0.000
1750.000,-5.371,-28.320,-10.254,-15.625,0.000
1754.000,-16.113,-32.715,-10.742,-7.324,0.000
1758.000,-31.250,-33.203,-10.742,-4.395,0.000
1762.000,-30.762,-28.320,-7.812,-20.508,0.000
1766.000,-13.672,-35.645,-5.859,-19.043,0.000
1769.000,5.859,-33.691,-5.859,-3.906,0.000
1773.000,-6.348,-28.809,-9.766,-3.418,0.000
1777.000,-23.926,-39.062,-8.301,-8.301,0.000
1781.000,-14.160,-36.621,-1.465,-7.812,0.000
1785.000,-5.859,-30.762,-4.883,2.930,0.000
1789.000,-8.789,-27.344,-6.348,7.812,0.000
1793.000,-5.371,-25.391,-5.859,-4.883,0.000
1797.000,4.395,-21.973,-4.883,-12.695,0.000
1801.000,10.254,-23.438,4.395,-3.906,0.000
1805.000,2.441,-24.902,1.953,7.324,0.000
1809.000,-3.906,-26.367,-2.441,-1.953,0.000
1812.000,-4.395,-27.344,0.000,-11.719,0.000
1816.000,-16.602,-26.855,-4.395,-9.766,0.000
1820.000,-17.578,-27.832,-6.348,-1.953,0.000
1824.000,4.883,-19.531,1.953,11.230,0.000
1828.000,13.184,-11.230,8.789,20.020,0.000
1832.000,-12.207,-17.578,-1.465,8.301,0.000
1836.000,-24.414,-28.809,-7.812,-3.906,0.000
1840.000,-4.883,-31.738,3.906,13.672,0.000
1844.000,7.812,-20.996,9.766,23.438,0.000
1848.000,-5.371,-20.996,5.859,-1.953,0.000
1852.000,-11.719,-23.926,5.371,-5.859,0.000
1855.000,-11.230,-13.672,9.277,6.836,0.000
1859.000,-0.977,-16.113,8.789,3.418,0.000
1863.000,1.953,-17.090,9.277,-9.277,0.000
1867.000,-2.930,-19.043,12.207,-17.578,0.000
1871.000,16.113,-16.602,22.461,3.906,0.000
1875.000,11.230,-12.695,16.113,11.719,0.000
1879.000,-14.160,-18.066,4.883,0.000,0.000
1883.000,-19.531,-17.578,9.277,-1.953,0.000
1887.000,-18.066,-14.160,7.812,-4.883,0.000
1891.000,-15.137,-15.625,5.371,-0.488,0.000
1894.000,-3.418,-22.461,4.395,-0.977,0.000
1898.000,1.953,-20.508,6.836,8.789,0.000
1902.000,1.465,-14.648,8.789,17.578,0.000
1906.000,4.395,-18.555,4.883,11.719,0.000
1910.000,7.324,-17.090,4.395,10.254,0.000
1914.000,17.090,-5.371,5.859,6.836,0.000
1918.000,19.043,-4.395,5.859,17.090,0.000
1922.000,10.254,-10.254,2.441,21.973,0.000
1926.000,7.812,-9.766,6.836,11.719,0.000
1930.000,11.230,-6.348,9.766,10.742,0.000
1934.000,12.695,-8.789,3.906,10.254,0.000
1937.000,18.555,-9.277,3.418,20.020,0.000
1941.000,6.836,-11.230,9.766,12.695,0.000
1945.000,-2.930,-19.531,4.883,0.000,0.000
1949.000,1.953,-24.902,-4.883,4.883,0.000
1953.000,-4.883,-28.809,-3.418,4.395,0.000
1957.000,-11.719,-20.996,0.488,2.930,0.000
1961.000,-20.508,-14.160,-1.465,-15.137,0.000
1965.000,-24.902,-22.949,0.488,-22.949,0.000
1969.000,-27.832,-26.367,2.441,-13.184,0.000
1973.000,-31.250,-24.902,1.465,-7.324,0.000
1977.000,-32.715,-29.297,3.418,-27.344,0.000
1980.000,-37.598,-30.273,3.418,-38.574,0.000
1984.000,-40.527,-28.320,1.465,-32.227,0.000
1988.000,-41.016,-28.320,2.441,-29.297,0.000
1992.000,-40.039,-27.832,3.418,-22.461,0.000
1996.000,-28.320,-23.926,0.000,-30.762,0.000
2000.000,-39.062,-34.180,-1.465,-40.039,0.000
2004.000,-48.828,-32.227,0.000,-27.344,0.000
2008.000,-33.203,-19.043,3.418,-10.742,0.000
2012.000,-37.598,-18.066,1.465,-11.230,0.000
2016.000,-23.438,-17.090,2.441,-8.301,0.000
2019.000,-8.789,-18.555,5.859,7.324,0.000
2023.000,-29.785,-22.949,-2.930,-4.883,0.000
2027.000,-30.762,-21.973,-13.672,-21.484,0.000
2031.000,-7.812,-15.625,-10.254,-20.508,0.000
2035.000,-4.883,-14.648,-6.836,-21.484,0.000
2039.000,-23.926,-17.578,-5.371,-6.836,0.000
2043.000,-18.066,-9.277,7.324,14.648,0.000
2047.000,-0.488,1.953,14.160,16.602,0.000
2051.000,-17.090,1.953,8.301,11.719,0.000
2055.000,-37.109,-5.371,8.789,13.184,0.000
2059.000,-23.438,-2.930,11.230,10.254,0.000
2062.000,-13.672,2.930,11.230,3.418,0.000
2066.000,-3.418,-0.488,7.324,8.301,0.000
2070.000,-3.418,-1.953,3.418,16.113,0.000
2074.000,-11.719,-2.930,-2.930,12.695,0.000
2078.000,-11.230,-2.441,-4.883,10.254,0.000
2082.000,-3.418,-4.883,-0.977,21.484,0.000
2086.000,1.465,-11.719,1.953,25.391,0.000
2090.000,-6.348,-17.578,-1.953,10.254,0.000
2094.000,-6.836,-18.066,-4.395,6.836,0.000
2098.000,2.930,-15.137,0.977,17.578,0.000
2102.000,3.906,-18.066,0.000,19.531,0.000
2105.000,-3.906,-21.484,-1.465,16.602,0.000
2109.000,-1.465,-15.625,1.953,9.766,0.000
2113.000,-1.953,-11.230,-1.465,-5.859,0.000
2117.000,-6.348,-14.648,-7.812,-5.371,0.000
2121.000,-0.488,-8.789,-7.324,5.371,0.000
2125.000,-3.418,-6.836,-7.324,0.488,0.000
2129.000,-8.789,-14.160,-7.812,-8.301,0.000
2133.000,-4.395,-15.137,-2.930,-6.836,0.000
2137.000,2.441,-12.207,-1.465,2.930,0.000
2141.000,-0.977,-14.160,0.977,7.812,0.000
2144.000,3.418,-18.066,2.441,3.418,0.000
2148.000,-0.488,-21.973,1.465,1.465,0.000
2152.000,-10.254,-18.555,1.465,7.324,0.000
2156.000,-15.137,-21.484,-4.883,1.465,0.000
2160.000,-14.648,-23.926,-8.301,-11.230,0.000
2164.000,-14.160,-21.484,-12.695,-16.602,0.000
2168.000,-13.184,-26.855,-7.812,-9.766,0.000
2172.000,-13.672,-23.438,-0.977,3.418,0.000
2176.000,-15.137,-18.066,-4.395,0.977,0.000
2180.000,-19.531,-24.902,-4.395,-10.742,0.000
2184.000,-19.043,-30.273,-9.277,-18.066,0.000
2187.000,-12.695,-22.949,-7.324,-8.301,0.000
2191.000,-10.254,-23.438,-2.441,1.953,0.000
2195.000,-11.230,-25.391,-4.395,-1.465,0.000
2199.000,-14.648,-20.020,-6.348,-5.371,0.000
2203.000,-10.254,-17.090,-8.301,-3.418,0.000
2207.000,-7.324,-14.648,-14.160,-5.859,0.000
2211.000,-4.883,-18.555,-9.766,-15.137,0.000
2215.000,-13.672,-23.438,-5.371,-15.137,0.000
2219.000,-12.695,-24.414,-9.277,-6.836,0.000
2223.000,-15.137,-24.414,-7.324,-6.348,0.000
2227.000,-22.949,-22.949,-4.883,-14.648,0.000
2230.000,-11.719,-22.461,-1.465,-15.137,0.000
2234.000,-3.418,-21.484,2.930,4.395,0.000
2238.000,-4.883,-18.066,-0.488,9.766,0.000
2242.000,-4.395,-14.160,-1.465,6.348,0.000
2246.000,2.441,-15.137,1.465,4.395,0.000
2250.000,3.418,-11.719,2.930,3.418,0.000
2254.000,11.230,-5.371,5.859,15.625,0.000
2258.000,3.418,-5.371,5.859,8.301,0.000
2262.000,-8.301,-12.695,1.465,-2.930,0.000
2266.000,2.441,-20.508,-2.930,8.789,0.000
2269.000,1.465,-20.508,-3.906,23.438,0.000
2273.000,-20.020,-16.602,-7.324,7.812,0.000
2277.000,-25.391,-13.672,-8.789,-20.508,0.000
2281.000,-24.902,-15.625,-10.742,-28.320,0.000
2285.000,-41.504,-20.020,-17.578,-18.555,0.000
2289.000,-44.922,-22.949,-15.137,-19.043,0.000
2293.000,-39.551,-23.438,-16.113,-32.715,0.000
2297.000,-41.992,-25.879,-20.996,-48.340,0.000
2301.000,-40.039,-26.367,-18.555,-45.410,0.000
2305.000,-39.062,-23.926,-13.184,-38.086,0.000
2309.000,-39.062,-25.879,-11.230,-41.504,0.000
2312.000,-32.715,-25.391,-9.277,-41.992,0.000
2316.000,-21.973,-19.531,-5.859,-34.180,0.000
2320.000,-22.949,-16.602,-7.324,-24.414,0.000
2324.000,-20.996,-19.531,-5.371,-17.090,0.000
2328.000,-18.066,-26.367,-4.395,-18.555,0.000
2332.000,-23.438,-27.832,-7.324,-23.926,0.000
2336.000,-29.785,-27.832,-11.719,-17.578,0.000
2340.000,-32.227,-31.250,-13.672,-12.695,0.000
2344.000,-31.738,-29.297,-9.766,-14.160,0.000
2348.000,-23.438,-21.484,-7.812,-11.719,0.000
2352.000,-20.020,-25.391,-11.230,-11.230,0.000
2355.000,-21.484,-30.762,-12.207,-10.742,0.000
2359.000,-36.133,-31.738,-12.207,-13.184,0.000
2363.000,-41.504,-30.762,-12.695,-15.137,0.000
2367.000,-26.855,-26.855,-10.254,-16.113,0.000
2371.000,-21.973,-24.902,-9.277,-13.672,0.000
2375.000,-38.574,-21.484,-6.348,-13.184,0.000
2379.000,-37.598,-21.484,-4.883,-20.020,0.000
2383.000,-24.902,-20.508,-4.395,-18.066,0.000
2387.000,-25.879,-20.020,-0.977,-1.953,0.000
2391.000,-34.180,-23.926,-8.301,-10.742,0.000
2394.000,-36.133,-26.855,-9.766,-35.156,0.000
2398.000,-27.832,-20.996,-7.324,-18.555,0.000
2402.000,-12.207,-10.742,-6.348,1.953,0.000
2406.000,-11.719,-14.160,-2.930,4.883,0.000
2410.000,-16.113,-19.043,-2.441,7.812,0.000
2414.000,-9.766,-14.160,-3.418,6.348,0.000
2418.000,-10.742,-11.719,-6.348,-1.953,0.000
2422.000,-22.949,-17.090,-9.766,-14.160,0.000
2426.000,-39.551,-24.414,-16.602,-17.090,0.000
2430.000,-34.180,-26.367,-13.672,-18.066,0.000
2434.000,-27.832,-30.273,-13.672,-29.785,0.000
2437.000,-30.273,-34.180,-18.066,-22.461,0.000
2441.000,-23.438,-32.227,-13.672,-12.207,0.000
2445.000,-26.367,-29.297,-14.648,-32.227,0.000
2449.000,-38.086,-31.250,-18.555,-36.133,0.000
2453.000,-40.039,-32.227,-20.996,-20.020,0.000
2457.000,-50.293,-28.320,-20.020,-20.020,0.000
2461.000,-51.270,-31.738,-20.508,-32.227,0.000
2465.000,-33.203,-31.738,-21.484,-36.133,0.000
2469.000,-25.879,-21.484,-14.648,-19.531,0.000
2473.000,-34.180,-21.973,-9.766,-11.230,0.000
2476.000,-37.598,-23.926,-6.348,-17.090,0.000
2480.000,-32.227,-24.414,-3.906,-16.113,0.000
2484.000,-18.555,-23.926,-4.395,-6.836,0.000
2488.000,-12.695,-22.461,-4.395,-8.301,0.000
2492.000,-14.160,-20.996,-5.859,-13.184,0.000
2496.000,-2.441,-20.996,-4.395,-16.113,0.000
2500.000,4.883,-18.066,-6.836,-19.043,0.000
2504.000,-2.930,-18.066,-13.672,-18.066,0.000
2508.000,-19.043,-19.531,-9.766,-18.066,0.000
2512.000,-21.973,-25.391,-9.277,-23.926,0.000
2516.000,-14.160,-25.391,-12.207,-23.926,0.000
2519.000,-12.695,-21.484,-9.766,-13.672,0.000
2523.000,-11.719,-20.996,-7.812,-14.648,0.000
2527.000,-13.672,-21.484,-10.254,-20.020,0.000
2531.000,-11.230,-26.855,-7.324,-6.348,0.000
2535.000,-5.371,-27.832,-6.836,3.906,0.000
2539.000,-20.020,-29.297,-7.812,6.348,0.000
2543.000,-28.320,-26.367,-1.953,-2.441,0.000
2547.000,-18.555,-21.484,1.465,-3.906,0.000
2551.000,-25.879,-24.414,-1.465,0.977,0.000
2555.000,-20.020,-23.926,-1.465,5.859,0.000
2559.000,-15.625,-21.973,0.000,12.207,0.000
2562.000,-12.207,-21.973,-5.859,2.930,0.000
2566.000,-4.395,-17.578,-2.441,3.418,0.000
2570.000,-4.883,-16.602,3.906,4.883,0.000
2574.000,-1.953,-13.672,6.836,2.930,0.000
2578.000,3.418,-11.719,7.812,-3.418,0.000
2582.000,2.930,-9.766,12.207,-0.488,0.000
2586.000,11.230,-8.789,12.695,17.578,0.000
2590.000,17.578,-10.742,12.695,12.695,0.000
2594.000,10.254,-12.207,13.672,-5.371,0.000
2598.000,13.672,-13.184,10.254,-10.742,0.000
2602.000,5.859,-17.578,4.883,2.441,0.000
2605.000,-11.719,-21.484,2.930,11.230,0.000
2609.000,-16.113,-20.996,2.441,7.324,0.000
2613.000,-15.137,-24.414,0.000,-4.395,0.000
2617.000,-16.113,-30.273,-5.859,-13.184,0.000
2621.000,-11.230,-29.297,-6.836,-3.418,0.000
2625.000,-3.906,-24.414,-3.906,-0.488,0.000
2629.000,-2.441,-24.902,-3.906,-3.906,0.000
2633.000,-5.371,-26.855,-3.906,-2.441,0.000
2637.000,-6.348,-20.020,-6.348,-1.953,0.000
2641.000,-6.836,-14.648,-8.301,-4.395,0.000
2644.000,-17.090,-20.020,-8.789,-16.113,0.000
2648.000,-14.160,-24.902,-10.742,-18.066,0.000
2652.000,-8.301,-23.438,-9.766,1.953,0.000
2656.000,-12.207,-25.391,-9.766,5.859,0.000
2660.000,-20.020,-31.738,-15.625,-11.719,0.000
2664.000,-18.555,-31.250,-14.160,-11.719,0.000
2668.000,-17.090,-28.809,-7.812,-3.418,0.000
2672.000,-8.789,-26.367,-6.836,5.859,0.000
2676.000,10.742,-20.996,-3.906,8.301,0.000
2680.000,15.625,-13.672,3.906,-0.488,0.000
2684.000,21.484,-10.254,2.441,5.371,0.000
2687.000,19.043,-6.348,4.883,20.508,0.000
2691.000,13.184,-4.395,7.812,20.020,0.000
2695.000,21.973,-2.441,7.324,18.066,0.000
2699.000,30.762,2.441,10.254,22.461,0.000
2703.000,27.832,4.395,14.160,25.879,0.000
2707.000,22.949,4.883,18.555,24.902,0.000
2711.000,39.551,5.371,20.508,24.902,0.000
2715.000,36.621,0.977,20.020,20.020,0.000
2719.000,27.344,-6.836,15.137,26.855,0.000
2723.000,50.293,0.000,14.648,58.105,0.000
2727.000,36.133,-0.977,17.578,47.363,0.000
2730.000,12.207,-2.441,17.578,8.789,0.000
2734.000,16.602,-5.371,17.090,5.859,0.000
2738.000,3.418,-14.160,14.648,8.789,0.000
2742.000,9.766,-10.254,16.602,16.113,0.000
2746.000,11.719,-19.043,18.555,14.160,0.000
2750.000,-13.184,-26.855,12.695,-6.348,0.000
2754.000,-28.809,-20.508,10.254,0.000,0.000
2758.000,-35.645,-14.648,12.695,1.465,0.000
2762.000,-33.203,-17.578,12.695,-15.137,0.000
2766.000,-19.531,-16.602,16.602,-16.113,0.000
2769.000,-29.297,-20.508,8.789,-23.926,0.000
2773.000,-44.434,-30.762,2.930,-32.227,0.000
2777.000,-41.016,-36.621,-0.977,-35.645,0.000
2781.000,-47.363,-34.668,-7.812,-41.016,0.000
2785.000,-51.270,-31.250,-5.371,-30.273,0.000
2789.000,-62.988,-45.410,-5.859,-28.320,0.000
2793.000,-87.402,-49.805,-9.766,-45.898,0.000
2797.000,-62.988,-39.551,-11.719,-46.387,0.000
2801.000,-55.176,-36.133,-8.301,-42.480,0.000
2805.000,-75.195,-36.133,-7.812,-40.039,0.000
2809.000,-77.148,-35.156,-8.789,-34.180,0.000
2812.000,-65.918,-39.062,-9.277,-40.039,0.000
2816.000,-50.781,-41.992,-12.207,-38.086,0.000
2820.000,-43.457,-42.969,-18.555,-28.320,0.000
2824.000,-42.969,-43.457,-21.484,-23.926,0.000
2828.000,-43.945,-40.039,-18.555,-28.809,0.000
2832.000,-28.320,-36.133,-10.742,-15.625,0.000
2836.000,-21.484,-31.738,-8.789,-9.766,0.000
2840.000,-34.668,-34.180,-15.137,-14.648,0.000
2844.000,-50.293,-37.109,-18.066,-16.602,0.000
2848.000,-37.109,-35.156,-15.137,-13.184,0.000
2851.000,-23.438,-31.250,-17.090,-2.441,0.000
2855.000,-24.902,-29.785,-20.996,-4.883,0.000
2859.000,-20.508,-33.691,-17.578,-14.648,0.000
2863.000,-7.324,-30.273,-16.113,-5.371,0.000
2867.000,-1.953,-27.832,-17.578,9.277,0.000
2871.000,-12.207,-29.297,-17.090,-1.465,0.000
2875.000,-4.395,-29.297,-18.066,-4.395,0.000
2879.000,4.395,-28.320,-17.090,-0.488,0.000
2883.000,7.324,-29.785,-15.137,-5.371,0.000
2887.000,0.000,-30.762,-12.695,-2.930,0.000
2891.000,-14.648,-25.391,-10.742,5.371,0.000
2894.000,-1.465,-18.066,-7.324,2.441,0.000
2898.000,14.648,-20.020,-6.348,-4.883,0.000
2902.000,9.277,-22.461,-8.301,-2.441,0.000
2906.000,7.812,-17.578,-5.371,7.812,0.000
2910.000,5.371,-20.020,-8.301,6.836,0.000
2914.000,-5.371,-25.879,-15.137,-4.395,0.000
2918.000,4.883,-26.367,-16.113,3.418,0.000
2922.000,0.000,-21.973,-15.625,13.184,0.000
2926.000,-12.695,-14.648,-11.230,6.348,0.000
2930.000,-14.160,-23.926,-10.742,-5.371,0.000
2934.000,-7.324,-21.973,-6.348,0.488,0.000
2937.000,-6.348,-16.602,-6.836,5.371,0.000
2941.000,-11.230,-22.949,-12.695,-10.254,0.000
2945.000,-11.719,-14.648,-8.301,-15.137,0.000
2949.000,-18.066,-15.625,-10.254,-11.719,0.000
2953.000,-21.973,-23.926,-10.742,-4.883,0.000
2957.000,-21.973,-25.879,-10.742,-2.441,0.000
2961.000,-30.762,-25.879,-9.277,-14.648,0.000
2965.000,-24.902,-28.320,-8.789,-24.414,0.000
2969.000,-9.766,-27.344,-10.254,-8.789,0.000
2973.000,-9.766,-30.273,-11.230,-9.277,0.000
2976.000,-10.742,-29.297,-14.648,-28.320,0.000
2980.000,-12.695,-27.344,-11.230,-28.320,0.000
2984.000,-14.648,-30.762,-7.812,-17.578,0.000
2988.000,-4.883,-32.227,-11.230,-11.230,0.000
2992.000,-0.488,-31.738,-14.160,-15.137,0.000
2996.000,-6.348,-36.133,-12.207,-20.020,0.000
3000.000,-6.836,-37.109,-16.602,-22.949,0.000
3004.000,-4.395,-31.738,-20.020,-12.207,0.000
3008.000,-7.324,-27.344,-15.137,-8.301,0.000
3012.000,-4.395,-27.344,-15.137,-28.320,0.000
3016.000,-0.488,-28.809,-12.207,-29.785,0.000
3019.000,-16.113,-31.738,-7.324,-14.160,0.000
3023.000,-18.066,-30.762,-5.371,-5.859,0.000
3027.000,-15.625,-24.902,-9.277,-7.324,0.000
3031.000,-20.996,-25.391,-13.672,-11.719,0.000
3035.000,-28.809,-31.738,-15.625,-6.836,0.000
3039.000,-20.508,-31.738,-16.113,1.953,0.000
3043.000,-18.555,-30.762,-12.695,-5.859,0.000
3047.000,-36.133,-27.344,-16.113,-23.438,0.000
3051.000,-28.320,-24.414,-20.996,-31.250,0.000
3055.000,-28.809,-20.996,-12.695,-38.086,0.000
3059.000,-37.598,-23.438,-9.766,-41.016,0.000
3062.000,-22.461,-23.926,-8.301,-41.016,0.000
3066.000,-24.902,-20.508,-0.488,-51.758,0.000
3070.000,-27.832,-25.391,-2.441,-44.922,0.000
3074.000,-25.391,-23.438,-6.348,-40.527,0.000
3078.000,-35.645,-14.648,-6.836,-49.316,0.000
3082.000,-25.879,-17.578,1.465,-43.945,0.000
3086.000,-20.996,-20.508,3.418,-38.086,0.000
3090.000,-24.902,-21.973,-3.418,-28.809,0.000
3094.000,-24.902,-31.250,-7.812,-35.156,0.000
3098.000,-26.855,-28.809,-12.695,-50.781,0.000
3101.000,-21.973,-21.484,-12.207,-35.645,0.000
3105.000,-19.531,-25.391,-11.230,-22.949,0.000
3109.000,-15.625,-23.438,-12.695,-34.668,0.000
3113.000,-12.695,-15.625,-15.137,-36.621,0.000
3117.000,-22.949,-14.160,-13.184,-22.949,0.000
3121.000,-26.367,-19.043,-9.766,-15.625,0.000
3125.000,-30.762,-19.043,-13.184,-22.949,0.000
3129.000,-30.273,-12.695,-16.602,-30.273,0.000
3133.000,-20.996,-13.672,-15.137,-21.484,0.000
3137.000,-24.902,-18.555,-15.625,-17.578,0.000
3141.000,-30.273,-20.996,-16.602,-18.066,0.000
3144.000,-31.250,-20.996,-13.672,-24.902,0.000
3148.000,-29.297,-21.484,-14.648,-36.133,0.000
3152.000,-27.832,-28.320,-17.578,-29.297,0.000
3156.000,-26.855,-32.715,-15.137,-25.391,0.000
3160.000,-28.320,-28.320,-11.230,-29.297,0.000
3164.000,-36.621,-25.391,-7.812,-34.180,0.000
3168.000,-48.828,-33.203,-8.789,-31.250,0.000
3172.000,-48.828,-33.691,-11.719,-25.879,0.000
3176.000,-41.016,-28.320,-14.648,-33.203,0.000
3180.000,-48.340,-30.273,-13.672,-46.875,0.000
3184.000,-56.641,-36.133,-16.602,-52.246,0.000
3187.000,-31.250,-36.621,-15.137,-32.715,0.000
3191.000,-11.230,-29.297,-11.719,-17.578,0.000
3195.000,-21.973,-27.344,-15.137,-44.434,0.000
3199.000,-29.785,-27.832,-15.625,-52.734,0.000
3203.000,-21.973,-27.344,-11.719,-34.180,0.000
3207.000,-26.855,-29.297,-6.836,-26.855,0.000
3211.000,-48.828,-29.785,-7.324,-40.527,0.000
3215.000,-44.922,-31.250,-9.766,-49.316,0.000
3219.000,-33.203,-27.832,-4.883,-43.457,0.000
3223.000,-39.551,-20.996,-0.488,-31.250,0.000
3226.000,-44.434,-23.438,-6.348,-30.273,0.000
3230.000,-32.227,-28.320,-7.812,-45.898,0.000
3234.000,-15.137,-30.762,-2.441,-47.363,0.000
3238.000,-40.527,-25.879,3.418,-38.574,0.000
3242.000,-72.266,-23.438,0.488,-35.156,0.000
3246.000,-69.336,-21.973,-3.418,-49.805,0.000
3250.000,-62.500,-20.996,-2.930,-52.246,0.000
3254.000,-57.129,-26.855,-1.953,-37.109,0.000
3258.000,-47.852,-20.996,2.930,-33.691,0.000
3262.000,-45.898,-14.648,1.953,-45.410,0.000
3266.000,-44.922,-15.625,0.488,-45.410,0.000
3269.000,-51.758,-15.625,-3.418,-30.762,0.000
3273.000,-64.453,-13.672,-5.859,-34.180,0.000
3277.000,-52.734,-9.277,-3.418,-35.156,0.000
3281.000,-40.039,-9.277,0.977,-31.738,0.000
3285.000,-39.551,-16.602,-1.953,-33.691,0.000
3289.000,-41.504,-18.066,-13.184,-35.156,0.000
3293.000,-45.898,-17.090,-13.672,-39.062,0.000
3297.000,-42.969,-17.090,-9.277,-33.691,0.000
3301.000,-24.414,-12.695,-5.371,-20.508,0.000
3305.000,-14.648,-14.160,-6.348,-17.090,0.000
3309.000,-19.531,-17.090,-6.836,-6.836,0.000
3312.000,-11.719,-13.184,-3.906,1.953,0.000
3316.000,2.930,-7.324,-1.465,4.395,0.000
3320.000,5.371,-8.301,-2.441,0.000,0.000
3324.000,0.000,-11.719,-2.930,-3.418,0.000
3328.000,-5.859,-10.742,-3.906,0.000,0.000
3332.000,-6.348,-10.254,-5.371,0.488,0.000
3336.000,-6.348,-11.230,-6.836,13.184,0.000
3340.000,0.977,-10.742,-4.395,18.555,0.000
3344.000,2.930,-9.277,-4.883,7.812,0.000
3348.000,4.883,-13.184,-6.348,5.371,0.000
3351.000,9.277,-20.020,-5.859,12.695,0.000
3355.000,7.324,-19.043,-5.859,17.090,0.000
3359.000,5.371,-21.973,-7.812,13.184,0.000
3363.000,5.371,-22.949,-3.906,-0.488,0.000
3367.000,8.789,-19.043,-2.441,-0.488,0.000
3371.000,16.602,-15.625,-2.441,20.508,0.000
3375.000,26.367,-12.695,-0.977,27.344,0.000
3379.000,21.973,-15.625,-4.883,17.578,0.000
3383.000,12.207,-20.508,-6.348,20.996,0.000
3387.000,18.555,-20.996,-6.836,27.832,0.000
3391.000,15.137,-18.066,-7.812,23.438,0.000
3394.000,3.906,-23.438,-4.883,13.184,0.000
3398.000,15.625,-25.391,-3.906,12.695,0.000
3402.000,12.695,-20.508,-3.418,26.367,0.000
3406.000,-4.883,-28.320,-6.348,21.973,0.000
3410.000,0.000,-28.809,-11.719,6.348,0.000
3414.000,9.766,-22.949,-10.254,0.977,0.000
3418.000,9.766,-19.043,-6.836,4.395,0.000
