timestamp,TP9,AF7,AF8,TP10,Right AUX
0.000,-21.484,-26.367,-35.156,-17.090,0.000
4.000,-13.184,-28.809,-38.574,-18.066,0.000
8.000,-12.207,-28.809,-35.156,-31.250,0.000
12.000,-8.789,-23.926,-30.762,-26.367,0.000
16.000,-10.742,-24.902,-31.738,-23.926,0.000
20.000,-26.367,-29.297,-35.156,-26.367,0.000
23.000,-38.086,-27.832,-36.133,-22.949,0.000
27.000,-58.105,-28.320,-32.715,-26.367,0.000
31.000,-68.359,-28.320,-32.715,-24.414,0.000
35.000,-54.199,-24.902,-34.668,-20.996,0.000
39.000,-47.363,-25.879,-32.227,-23.926,0.000
43.000,-43.457,-26.855,-31.250,-25.879,0.000
47.000,-25.879,-25.391,-32.227,-21.973,0.000
51.000,-8.789,-28.320,-31.250,-14.648,0.000
55.000,-2.441,-31.250,-31.250,-19.043,0.000
59.000,-9.277,-29.297,-29.297,-21.484,0.000
62.000,-32.227,-27.344,-26.367,-13.672,0.000
66.000,-32.227,-27.344,-27.832,-23.926,0.000
70.000,-28.320,-28.320,-25.879,-33.691,0.000
74.000,-31.738,-27.832,-20.508,-20.508,0.000
78.000,-25.391,-23.438,-20.508,-15.137,0.000
82.000,-17.578,-22.461,-22.949,-19.531,0.000
86.000,-8.789,-23.926,-20.508,-8.301,0.000
90.000,-6.836,-24.414,-17.578,-15.625,0.000
94.000,-16.602,-28.809,-20.020,-24.902,0.000
98.000,-19.531,-29.297,-22.949,-20.996,0.000
102.000,-23.438,-27.832,-22.949,-22.461,0.000
105.000,-29.785,-26.855,-19.043,-21.484,0.000
109.000,-41.992,-26.367,-18.066,-22.949,0.000
113.000,-35.156,-25.391,-24.414,-25.391,0.000
117.000,-13.184,-22.949,-23.438,-13.672,0.000
121.000,-20.996,-21.484,-22.461,-6.836,0.000
125.000,-24.414,-15.137,-22.949,-11.230,0.000
129.000,-26.855,-12.207,-20.020,-14.160,0.000
133.000,-41.992,-18.555,-16.602,-20.996,0.000
137.000,-31.738,-19.043,-21.484,-13.184,0.000
141.000,5.371,-12.695,-20.020,6.836,0.000
145.000,17.090,-17.578,-9.277,5.859,0.000
148.000,-5.859,-20.020,-15.137,-27.832,0.000
152.000,-47.363,-26.367,-20.508,-56.152,0.000
156.000,-80.566,-45.410,-16.113,-57.129,0.000
160.000,-78.613,-44.922,-25.391,-66.895,0.000
164.000,-87.402,-39.551,-27.832,-88.867,0.000
168.000,-103.516,-37.598,-22.949,-120.117,0.000
172.000,-111.816,-44.922,-26.855,-142.578,0.000
176.000,-140.625,-63.477,-37.109,-148.438,0.000
180.000,-162.598,-78.125,-49.316,-162.598,0.000
184.000,-145.020,-79.590,-40.039,-158.691,0.000
187.000,-125.488,-71.289,-32.715,-144.043,0.000
191.000,-163.574,-52.246,-47.363,-153.320,0.000
195.000,-200.195,-57.617,-54.688,-165.527,0.000
199.000,-190.430,-74.219,-41.992,-166.992,0.000
203.000,-201.172,-78.125,-31.738,-178.223,0.000
207.000,-191.895,-79.590,-29.297,-168.945,0.000
211.000,-174.805,-42.969,-15.625,-152.344,0.000
215.000,-181.641,-33.203,-36.133,-178.223,0.000
219.000,-179.199,-61.523,-42.969,-177.734,0.000
223.000,-195.801,-58.105,-20.020,-159.668,0.000
227.000,-208.496,-45.898,-25.391,-169.922,0.000
230.000,-186.523,-49.805,-32.227,-170.410,0.000
234.000,-177.246,-51.758,-34.180,-159.668,0.000
238.000,-174.316,-47.363,-37.598,-145.508,0.000
242.000,-161.133,-46.875,-38.574,-137.695,0.000
246.000,-158.203,-47.852,-32.227,-133.789,0.000
250.000,-134.277,-47.363,-29.785,-119.629,0.000
254.000,-118.164,-44.434,-36.133,-116.699,0.000
258.000,-113.770,-41.992,-36.621,-108.398,0.000
262.000,-91.797,-40.527,-37.109,-97.656,0.000
266.000,-79.590,-44.922,-38.086,-95.703,0.000
270.000,-72.754,-48.828,-40.039,-82.520,0.000
273.000,-57.617,-47.363,-42.969,-77.637,0.000
277.000,-58.105,-44.434,-44.922,-79.590,0.000
281.000,-50.781,-39.062,-42.969,-70.801,0.000
285.000,-41.992,-39.551,-44.434,-72.266,0.000
289.000,-58.594,-45.898,-48.828,-70.801,0.000
293.000,-63.477,-45.410,-48.828,-58.594,0.000
297.000,-56.152,-41.504,-49.805,-47.363,0.000
301.000,-41.016,-41.504,-49.805,-42.969,0.000
305.000,-44.434,-44.922,-49.316,-37.598,0.000
309.000,-61.035,-38.086,-44.434,-43.945,0.000
312.000,-38.574,-34.180,-36.621,-43.945,0.000
316.000,-34.180,-39.551,-39.551,-35.156,0.000
320.000,-67.871,-41.016,-42.480,-46.875,0.000
324.000,-75.195,-36.621,-39.551,-45.898,0.000
328.000,-69.824,-32.227,-38.574,-39.062,0.000
332.000,-59.570,-34.668,-36.621,-45.898,0.000
336.000,-63.477,-38.086,-38.086,-42.480,0.000
340.000,-65.918,-37.109,-38.086,-39.551,0.000
344.000,-55.176,-36.621,-36.621,-41.992,0.000
348.000,-58.594,-34.180,-39.551,-42.969,0.000
352.000,-50.293,-35.156,-41.504,-50.293,0.000
355.000,-38.574,-32.715,-35.156,-51.270,0.000
359.000,-59.082,-26.855,-27.344,-42.969,0.000
363.000,-68.359,-29.785,-30.762,-42.480,0.000
367.000,-58.105,-32.715,-39.551,-44.434,0.000
371.000,-56.152,-33.203,-39.551,-41.504,0.000
375.000,-49.805,-31.738,-34.180,-35.645,0.000
379.000,-50.781,-31.250,-35.156,-34.180,0.000
383.000,-50.293,-31.250,-32.227,-27.832,0.000
387.000,-48.828,-36.621,-27.344,-24.414,0.000
391.000,-53.711,-31.250,-24.902,-22.461,0.000
394.000,-40.527,-23.926,-26.367,-21.484,0.000
398.000,-25.391,-26.367,-33.203,-25.391,0.000
402.000,-24.414,-23.438,-32.227,-19.531,0.000
406.000,-15.137,-18.555,-29.297,-20.508,0.000
410.000,-7.812,-19.043,-27.344,-25.391,0.000
414.000,-5.859,-24.902,-28.809,-30.273,0.000
418.000,-41.016,-26.367,-25.391,-30.273,0.000
422.000,-71.289,-24.902,-20.508,-32.715,0.000
426.000,-60.547,-25.879,-22.461,-35.645,0.000
430.000,-40.527,-25.391,-22.461,-24.902,0.000
434.000,-38.574,-28.809,-22.949,-28.320,0.000
437.000,-45.898,-30.762,-26.855,-42.969,0.000
441.000,-45.898,-22.461,-28.320,-50.781,0.000
445.000,-42.969,-24.902,-27.832,-44.434,0.000
449.000,-22.461,-25.391,-24.902,-35.645,0.000
453.000,-36.133,-20.020,-24.902,-41.504,0.000
457.000,-64.941,-20.508,-24.414,-41.016,0.000
461.000,-59.570,-13.672,-20.996,-34.180,0.000
465.000,-47.852,-18.066,-22.949,-44.434,0.000
469.000,-43.945,-26.367,-24.902,-42.969,0.000
473.000,-34.180,-27.344,-23.926,-23.926,0.000
477.000,-10.742,-22.949,-21.973,-5.371,0.000
480.000,-6.836,-19.043,-22.461,-15.625,0.000
484.000,-39.551,-28.809,-21.973,-40.039,0.000
488.000,-47.363,-37.109,-21.484,-36.133,0.000
492.000,-27.344,-30.273,-21.973,-21.973,0.000
496.000,-8.789,-26.367,-21.973,-13.672,0.000
500.000,0.488,-26.855,-23.926,-9.277,0.000
504.000,-0.488,-18.555,-17.578,-8.789,0.000
508.000,-12.695,-13.184,-13.184,-8.789,0.000
512.000,-21.484,-21.973,-19.531,-7.324,0.000
516.000,-2.441,-21.973,-23.438,-1.465,0.000
519.000,20.996,-11.230,-22.461,5.371,0.000
523.000,18.555,-8.301,-17.578,-2.930,0.000
527.000,13.184,-14.648,-20.996,-11.230,0.000
531.000,-6.836,-22.461,-29.785,-9.277,0.000
535.000,-23.438,-20.508,-29.297,-8.789,0.000
539.000,-18.555,-18.066,-22.949,-8.789,0.000
543.000,-25.391,-16.113,-22.461,-16.602,0.000
547.000,-26.367,-14.648,-26.367,-24.902,0.000
551.000,-23.438,-15.625,-20.508,-17.090,0.000
555.000,-20.508,-13.672,-21.484,-23.438,0.000
559.000,-16.113,-15.625,-28.809,-28.809,0.000
562.000,0.488,-15.625,-22.461,-2.930,0.000
566.000,12.695,-10.742,-20.508,9.277,0.000
570.000,-7.812,-12.207,-25.879,-2.930,0.000
574.000,-20.996,-19.531,-27.832,-3.906,0.000
578.000,-28.320,-18.066,-25.391,-0.488,0.000
582.000,-9.277,-12.695,-21.973,18.555,0.000
586.000,24.414,-12.207,-21.484,42.480,0.000
590.000,27.344,-12.207,-22.461,33.203,0.000
594.000,24.414,-10.742,-25.391,23.926,0.000
598.000,23.926,-7.812,-23.926,37.598,0.000
601.000,23.926,-16.113,-21.484,42.480,0.000
605.000,22.949,-17.578,-21.973,37.598,0.000
609.000,19.531,-10.742,-21.973,42.480,0.000
613.000,41.992,-7.324,-21.484,46.875,0.000
617.000,51.758,-2.930,-21.973,42.969,0.000
621.000,36.133,0.000,-18.066,27.832,0.000
625.000,41.992,-0.977,-12.207,29.785,0.000
629.000,37.109,-5.371,-14.160,35.645,0.000
633.000,34.180,-3.418,-18.066,45.410,0.000
637.000,20.996,-2.930,-18.066,53.223,0.000
641.000,-0.488,-2.441,-21.973,44.434,0.000
644.000,4.883,-0.488,-24.902,49.805,0.000
648.000,20.508,-2.441,-24.902,44.922,0.000
652.000,37.109,-3.906,-27.344,33.691,0.000
656.000,50.781,0.000,-29.785,31.250,0.000
660.000,48.340,-0.488,-25.391,42.480,0.000
664.000,40.527,-1.465,-24.414,53.711,0.000
668.000,44.922,0.977,-24.902,56.641,0.000
672.000,50.293,3.906,-25.879,55.176,0.000
676.000,52.734,3.418,-31.250,46.875,0.000
680.000,42.969,-1.953,-30.762,52.246,0.000
684.000,39.062,-4.883,-28.809,53.223,0.000
687.000,43.945,-0.488,-29.785,43.945,0.000
691.000,64.941,5.371,-29.785,47.852,0.000
695.000,56.152,3.418,-34.180,56.641,0.000
699.000,33.691,2.441,-36.133,59.570,0.000
703.000,51.270,1.465,-37.109,45.410,0.000
707.000,43.945,-6.836,-37.109,29.297,0.000
711.000,37.109,-6.348,-29.785,32.227,0.000
715.000,48.828,0.977,-29.785,43.945,0.000
719.000,39.551,-1.465,-29.297,55.176,0.000
723.000,31.738,-2.441,-22.461,59.570,0.000
726.000,26.367,-2.441,-24.414,52.246,0.000
730.000,21.973,-4.883,-25.391,39.062,0.000
734.000,42.969,-2.441,-24.414,44.434,0.000
738.000,49.805,0.488,-29.297,43.945,0.000
742.000,28.320,-7.324,-29.297,23.438,0.000
746.000,29.785,-9.277,-25.391,20.996,0.000
750.000,39.062,-5.859,-28.320,23.438,0.000
754.000,37.598,-11.719,-30.762,21.484,0.000
758.000,37.109,-8.301,-27.832,19.531,0.000
762.000,42.480,-10.742,-29.297,12.695,0.000
766.000,38.574,-18.555,-29.785,9.277,0.000
769.000,17.090,-22.461,-23.438,15.137,0.000
773.000,11.230,-20.508,-23.438,19.531,0.000
777.000,13.672,-15.137,-21.973,28.320,0.000
781.000,14.648,-19.043,-21.484,29.297,0.000
785.000,18.066,-20.020,-26.855,23.438,0.000
789.000,13.672,-17.090,-25.879,21.484,0.000
793.000,0.488,-20.020,-26.855,11.719,0.000
797.000,-12.207,-22.949,-33.203,-0.488,0.000
801.000,-0.488,-21.484,-36.621,-7.812,0.000
805.000,14.648,-18.066,-30.762,-8.301,0.000
809.000,0.977,-21.973,-26.855,-5.859,0.000
812.000,-9.277,-22.949,-25.879,9.766,0.000
816.000,-7.324,-21.484,-21.973,4.395,0.000
820.000,-11.719,-25.879,-20.020,-2.441,0.000
824.000,-10.742,-25.879,-20.996,9.766,0.000
828.000,-13.672,-28.320,-25.879,-13.672,0.000
832.000,-16.113,-33.203,-29.297,-26.367,0.000
836.000,-14.160,-27.832,-30.762,-8.301,0.000
840.000,-25.391,-20.508,-27.344,-3.418,0.000
844.000,-30.273,-20.996,-27.344,-10.254,0.000
848.000,-18.555,-22.949,-26.367,-10.254,0.000
851.000,-9.277,-24.902,-24.902,-20.508,0.000
855.000,-12.695,-29.297,-29.297,-38.574,0.000
859.000,5.371,-23.926,-24.414,-36.621,0.000
863.000,-7.812,-24.414,-24.414,-32.715,0.000
867.000,-27.344,-23.926,-25.879,-27.832,0.000
871.000,-16.602,-20.020,-27.832,-18.066,0.000
875.000,-19.043,-23.438,-35.156,-19.043,0.000
879.000,-18.555,-23.438,-34.668,-21.484,0.000
883.000,-20.508,-23.438,-34.180,-16.113,0.000
887.000,-42.480,-27.344,-34.180,-1.953,0.000
891.000,-43.945,-29.785,-32.227,8.301,0.000
894.000,-27.832,-29.297,-29.785,5.859,0.000
898.000,-20.996,-29.297,-25.391,-0.488,0.000
902.000,-15.137,-29.785,-21.484,-9.766,0.000
906.000,-19.043,-28.809,-20.020,-7.812,0.000
910.000,-12.207,-28.320,-25.879,-9.766,0.000
914.000,-0.977,-28.809,-27.344,-11.719,0.000
918.000,-6.348,-26.855,-26.855,-20.020,0.000
922.000,-16.113,-27.832,-30.762,-40.039,0.000
926.000,-26.855,-32.227,-27.832,-32.715,0.000
930.000,-18.555,-27.832,-23.438,-27.832,0.000
933.000,-3.418,-20.508,-21.973,-27.344,0.000
937.000,-8.301,-26.367,-25.391,-19.531,0.000
941.000,-17.090,-29.785,-25.391,-19.043,0.000
945.000,-13.184,-24.902,-23.926,-21.973,0.000
949.000,-14.648,-22.461,-30.762,-19.043,0.000
953.000,-25.391,-29.297,-36.133,-22.461,0.000
957.000,-32.227,-30.762,-30.273,-21.973,0.000
961.000,-22.949,-24.414,-25.879,-22.949,0.000
965.000,-8.789,-21.973,-26.367,-36.133,0.000
969.000,-5.371,-16.602,-27.344,-35.156,0.000
973.000,-9.277,-17.090,-27.344,-30.273,0.000
976.000,-33.691,-23.926,-29.785,-35.156,0.000
980.000,-26.367,-20.020,-30.762,-14.648,0.000
984.000,1.465,-18.555,-24.414,11.719,0.000
988.000,-22.461,-32.227,-21.973,-12.207,0.000
992.000,-41.016,-39.062,-24.414,-44.434,0.000
996.000,-25.879,-34.180,-27.832,-57.617,0.000
1000.000,-32.227,-38.574,-28.809,-73.242,0.000
1004.000,-65.430,-39.551,-28.320,-93.750,0.000
1008.000,-115.723,-37.598,-26.855,-101.074,0.000
1012.000,-151.367,-51.270,-19.531,-107.910,0.000
1016.000,-162.598,-60.059,-23.926,-130.371,0.000
1019.000,-165.527,-58.594,-32.227,-134.766,0.000
1023.000,-163.574,-75.684,-26.367,-132.812,0.000
1027.000,-170.898,-97.168,-41.992,-146.973,0.000
1031.000,-175.293,-69.824,-72.266,-175.293,0.000
1035.000,-187.012,-40.527,-51.270,-192.871,0.000
1039.000,-191.406,-57.129,-19.531,-194.824,0.000
1043.000,-202.637,-65.430,-22.461,-195.801,0.000
1047.000,-199.219,-58.105,-20.996,-174.805,0.000
1051.000,-193.848,-55.176,-20.508,-171.387,0.000
1055.000,-194.336,-50.781,-25.879,-185.059,0.000
1058.000,-162.598,-56.641,-24.902,-168.945,0.000
1062.000,-156.250,-50.293,-29.297,-162.109,0.000
1066.000,-160.645,-47.852,-35.156,-162.598,0.000
1070.000,-166.504,-50.293,-19.043,-157.227,0.000
1074.000,-176.270,-51.270,-11.230,-153.320,0.000
1078.000,-163.574,-47.363,-22.461,-151.855,0.000
1082.000,-149.902,-46.387,-23.926,-139.648,0.000
1086.000,-132.324,-51.270,-19.531,-123.047,0.000
1090.000,-116.699,-46.387,-19.531,-121.094,0.000
1094.000,-102.051,-44.922,-26.367,-104.004,0.000
1098.000,-107.422,-47.363,-29.785,-91.797,0.000
1101.000,-118.164,-45.410,-30.273,-90.332,0.000
1105.000,-113.281,-42.969,-29.785,-90.820,0.000
1109.000,-96.680,-41.992,-29.297,-81.543,0.000
1113.000,-78.125,-41.504,-35.645,-74.219,0.000
1117.000,-77.148,-33.203,-35.645,-72.266,0.000
1121.000,-86.914,-34.180,-28.320,-65.918,0.000
1125.000,-76.172,-39.062,-27.832,-62.988,0.000
1129.000,-68.359,-37.598,-33.203,-56.152,0.000
1133.000,-75.195,-36.133,-36.133,-45.410,0.000
1137.000,-63.477,-39.551,-37.598,-43.457,0.000
1141.000,-56.641,-40.039,-37.109,-45.410,0.000
1144.000,-49.316,-31.738,-36.133,-34.668,0.000
1148.000,-54.688,-31.250,-36.621,-29.297,0.000
1152.000,-73.242,-33.691,-40.039,-35.156,0.000
1156.000,-70.312,-35.156,-38.086,-35.645,0.000
1160.000,-59.570,-34.180,-35.156,-44.922,0.000
1164.000,-54.199,-30.762,-31.250,-50.293,0.000
1168.000,-53.711,-30.273,-25.879,-38.574,0.000
1172.000,-50.293,-30.273,-23.926,-37.109,0.000
1176.000,-44.434,-31.250,-25.391,-38.086,0.000
1180.000,-44.434,-30.273,-26.855,-36.621,0.000
1183.000,-33.691,-32.715,-27.832,-40.039,0.000
1187.000,-26.855,-36.621,-25.391,-49.805,0.000
1191.000,-41.016,-36.133,-25.879,-50.293,0.000
1195.000,-39.551,-34.180,-30.273,-41.504,0.000
1199.000,-30.273,-26.855,-26.855,-31.738,0.000
1203.000,-35.156,-28.809,-27.344,-29.785,0.000
1207.000,-41.016,-35.156,-30.762,-36.621,0.000
1211.000,-38.086,-33.691,-31.250,-37.598,0.000
1215.000,-25.879,-31.250,-31.250,-44.922,0.000
1219.000,-15.625,-30.273,-32.715,-46.875,0.000
1223.000,-13.184,-26.367,-28.809,-37.598,0.000
1226.000,-36.621,-22.949,-22.461,-28.809,0.000
1230.000,-53.223,-23.926,-20.508,-26.855,0.000
1234.000,-52.246,-24.414,-20.996,-22.949,0.000
1238.000,-48.340,-22.949,-21.973,-13.184,0.000
1242.000,-49.316,-21.973,-18.066,-11.719,0.000
1246.000,-38.574,-21.973,-24.414,-18.066,0.000
1250.000,-24.414,-23.926,-33.691,-21.973,0.000
1254.000,-7.812,-25.879,-31.250,-1.953,0.000
1258.000,-4.883,-25.879,-26.367,6.836,0.000
1262.000,-32.227,-28.320,-27.832,-29.785,0.000
1265.000,-45.898,-29.297,-29.297,-42.480,0.000
1269.000,-29.785,-25.879,-26.855,-16.602,0.000
1273.000,-20.996,-27.832,-27.832,-6.836,0.000
1277.000,-20.508,-25.879,-30.762,-8.301,0.000
1281.000,-6.836,-18.555,-33.203,-13.672,0.000
1285.000,-12.207,-17.090,-29.785,-26.855,0.000
1289.000,-32.715,-15.137,-26.367,-13.184,0.000
1293.000,-29.785,-14.648,-25.879,-14.160,0.000
1297.000,-16.602,-14.648,-24.902,-21.973,0.000
1301.000,-2.930,-10.742,-28.320,-12.207,0.000
1305.000,-3.906,-13.184,-30.762,-4.395,0.000
1308.000,-16.113,-15.625,-28.809,-11.230,0.000
1312.000,-17.090,-16.113,-26.367,-24.414,0.000
1316.000,-10.254,-23.926,-26.367,-27.344,0.000
1320.000,-11.719,-24.414,-32.715,-23.926,0.000
1324.000,-13.672,-21.484,-35.645,-23.438,0.000
1328.000,-21.484,-15.625,-32.715,-19.043,0.000
1332.000,-28.320,-13.184,-32.227,-15.137,0.000
1336.000,-23.926,-21.484,-31.738,-10.742,0.000
1340.000,-26.367,-24.902,-33.203,-18.555,0.000
1344.000,-27.832,-22.461,-32.715,-26.367,0.000
1348.000,-31.738,-20.508,-32.227,-24.902,0.000
1351.000,-24.902,-25.879,-32.227,-25.391,0.000
1355.000,-7.324,-28.320,-30.762,-28.809,0.000
1359.000,-3.906,-21.973,-28.320,-27.832,0.000
1363.000,-0.488,-19.531,-28.320,-19.043,0.000
1367.000,1.953,-23.926,-30.273,-17.578,0.000
1371.000,-28.320,-26.367,-34.180,-22.949,0.000
1375.000,-43.457,-24.414,-32.715,-28.320,0.000
1379.000,-27.832,-18.066,-26.367,-19.531,0.000
1383.000,-15.137,-18.555,-28.809,-20.508,0.000
1387.000,-4.883,-21.973,-37.598,-37.109,0.000
1390.000,-13.672,-22.461,-37.598,-32.715,0.000
1394.000,-27.344,-22.461,-32.715,-16.113,0.000
1398.000,-25.879,-21.973,-31.250,-5.371,0.000
1402.000,-13.672,-18.555,-29.297,-9.766,0.000
1406.000,-11.719,-21.484,-26.367,-13.672,0.000
1410.000,-38.574,-20.996,-26.855,-11.719,0.000
1414.000,-39.062,-19.043,-29.785,-30.273,0.000
1418.000,-21.973,-25.391,-34.668,-37.109,0.000
1422.000,-23.926,-27.344,-34.180,-29.297,0.000
1426.000,-35.156,-29.785,-33.203,-29.297,0.000
1430.000,-29.785,-24.902,-30.762,-20.996,0.000
1433.000,-36.133,-17.578,-28.809,-15.625,0.000
1437.000,-38.574,-19.043,-30.273,-12.695,0.000
1441.000,-33.691,-25.391,-26.855,-19.531,0.000
1445.000,-33.691,-28.809,-27.832,-20.996,0.000
1449.000,-22.461,-27.344,-28.809,-16.113,0.000
1453.000,-21.484,-27.344,-31.250,-14.160,0.000
1457.000,-23.438,-24.902,-34.180,-13.184,0.000
1461.000,-20.996,-23.926,-33.691,-15.137,0.000
1465.000,-16.602,-26.367,-35.156,-15.625,0.000
1469.000,-6.348,-26.855,-30.273,-4.395,0.000
1473.000,-8.789,-23.926,-27.344,-7.812,0.000
1476.000,-47.363,-22.949,-30.273,-30.762,0.000
1480.000,-51.270,-24.414,-31.250,-26.367,0.000
1484.000,-17.090,-19.531,-29.297,0.000,0.000
1488.000,-4.883,-18.066,-32.715,-7.324,0.000
1492.000,-1.953,-18.555,-32.227,-22.461,0.000
1496.000,20.508,-11.719,-26.367,-6.348,0.000
1500.000,22.461,-10.254,-24.902,2.930,0.000
1504.000,-11.719,-10.254,-21.973,-1.465,0.000
1508.000,-11.230,-7.812,-22.949,-18.555,0.000
1512.000,-4.395,-6.836,-26.367,-14.160,0.000
1515.000,-10.742,-5.859,-28.809,3.906,0.000
1519.000,-11.719,-11.719,-29.785,2.930,0.000
1523.000,-19.043,-16.113,-25.391,-5.859,0.000
1527.000,-24.414,-14.648,-20.996,-4.395,0.000
1531.000,-13.672,-8.301,-23.438,2.930,0.000
1535.000,1.465,-6.836,-23.438,-0.488,0.000
1539.000,-1.465,-12.207,-21.973,-4.395,0.000
1543.000,-1.465,-12.695,-20.508,-4.883,0.000
1547.000,-11.230,-10.742,-21.973,-3.906,0.000
1551.000,-18.555,-10.254,-25.391,9.766,0.000
1555.000,-4.883,-9.766,-23.438,16.602,0.000
1558.000,1.953,-5.371,-22.949,13.184,0.000
1562.000,11.230,0.977,-26.855,21.484,0.000
1566.000,21.973,-1.465,-28.809,38.086,0.000
1570.000,37.598,-2.441,-24.414,40.039,0.000
1574.000,42.480,1.953,-23.926,36.133,0.000
1578.000,36.133,-2.441,-27.832,31.250,0.000
1582.000,44.434,-1.465,-27.344,22.949,0.000
1586.000,62.988,9.277,-24.902,39.551,0.000
1590.000,66.895,4.395,-22.949,48.828,0.000
1594.000,72.266,-3.418,-23.926,42.969,0.000
1597.000,68.359,-1.953,-29.297,42.480,0.000
1601.000,63.965,0.977,-28.320,46.387,0.000
1605.000,76.660,0.977,-21.973,65.430,0.000
1609.000,62.500,-0.977,-21.973,66.406,0.000
1613.000,45.898,0.000,-23.438,58.594,0.000
1617.000,44.434,-4.395,-22.461,63.965,0.000
1621.000,28.809,-12.207,-21.973,61.035,0.000
1625.000,21.973,-9.766,-20.508,53.223,0.000
1629.000,18.555,-7.812,-20.020,56.641,0.000
1633.000,13.184,-6.348,-22.949,48.828,0.000
1637.000,11.230,-3.906,-25.391,32.227,0.000
1640.000,8.789,-3.418,-27.344,27.832,0.000
1644.000,9.277,-7.812,-28.809,32.227,0.000
1648.000,22.461,-8.789,-27.344,33.691,0.000
1652.000,30.273,-6.348,-26.367,43.945,0.000
1656.000,19.043,-8.789,-30.762,37.109,0.000
1660.000,15.625,-12.207,-31.738,28.320,0.000
1664.000,22.949,-12.207,-32.715,28.809,0.000
1668.000,29.297,-9.277,-36.133,19.043,0.000
1672.000,20.996,-9.277,-34.180,4.395,0.000
1676.000,15.137,-12.207,-28.809,-2.441,0.000
1680.000,39.062,-9.766,-24.902,10.254,0.000
1683.000,45.410,-8.789,-24.414,7.324,0.000
1687.000,38.574,-7.324,-28.320,-8.301,0.000
1691.000,39.551,-6.348,-26.855,-3.906,0.000
1695.000,19.531,-10.254,-27.832,11.230,0.000
1699.000,13.184,-16.602,-27.344,14.160,0.000
1703.000,14.648,-17.090,-24.414,1.465,0.000
1707.000,7.812,-11.719,-29.785,-10.254,0.000
1711.000,2.441,-9.277,-32.227,-9.277,0.000
1715.000,-14.160,-13.672,-27.344,-0.977,0.000
1719.000,-33.203,-21.484,-29.785,-1.465,0.000
1722.000,-56.152,-24.414,-27.344,-5.859,0.000
1726.000,-57.617,-28.320,-18.066,-7.812,0.000
1730.000,-51.270,-32.227,-22.461,-14.648,0.000
1734.000,-33.203,-30.762,-28.320,-15.137,0.000
1738.000,-25.879,-29.297,-26.367,-15.625,0.000
1742.000,-54.688,-29.297,-26.855,-24.414,0.000
1746.000,-62.988,-33.203,-29.785,-27.832,0.000
1750.000,-39.551,-31.738,-30.273,-23.438,0.000
1754.000,-28.809,-26.855,-27.344,-26.367,0.000
1758.000,-35.156,-25.879,-25.391,-29.785,0.000
1762.000,-37.109,-25.391,-26.855,-37.598,0.000
1765.000,-29.785,-29.785,-31.250,-39.551,0.000
1769.000,-27.344,-28.320,-32.227,-28.809,0.000
1773.000,-29.785,-22.461,-26.855,-23.926,0.000
1777.000,-31.250,-19.531,-24.902,-25.391,0.000
1781.000,-18.555,-20.508,-28.320,-19.043,0.000
1785.000,2.930,-25.879,-31.250,-19.531,0.000
1789.000,6.836,-29.297,-36.621,-35.156,0.000
1793.000,2.441,-25.391,-34.180,-39.062,0.000
1797.000,-11.719,-25.879,-29.297,-28.809,0.000
1801.000,-4.883,-26.367,-31.738,-22.461,0.000
1805.000,-2.930,-21.973,-32.715,-36.133,0.000
1808.000,-31.738,-34.668,-34.668,-43.945,0.000
1812.000,-26.855,-29.297,-30.273,-20.020,0.000
1816.000,-6.348,-21.973,-21.484,1.465,0.000
1820.000,-37.598,-34.180,-27.344,-37.598,0.000
1824.000,-77.637,-39.062,-31.738,-70.801,0.000
1828.000,-71.777,-44.922,-27.344,-70.801,0.000
1832.000,-69.336,-47.852,-27.832,-79.590,0.000
1836.000,-103.516,-51.270,-33.203,-100.098,0.000
1840.000,-123.047,-58.594,-38.086,-114.258,0.000
1844.000,-143.066,-52.734,-37.109,-122.559,0.000
1847.000,-151.855,-47.852,-30.762,-130.859,0.000
1851.000,-147.949,-44.922,-30.762,-142.090,0.000
1855.000,-171.875,-52.246,-29.785,-149.902,0.000
1859.000,-186.523,-61.523,-27.344,-142.090,0.000
1863.000,-196.289,-68.359,-30.273,-150.879,0.000
1867.000,-194.824,-73.242,-27.832,-168.945,0.000
1871.000,-180.664,-66.895,-30.273,-176.758,0.000
1875.000,-176.758,-64.453,-27.344,-172.363,0.000
1879.000,-171.387,-51.758,-23.926,-164.062,0.000
1883.000,-159.180,-44.922,-25.879,-145.508,0.000
1887.000,-155.762,-47.852,-21.973,-122.559,0.000
1890.000,-163.574,-49.316,-19.043,-133.301,0.000
1894.000,-163.574,-46.387,-21.484,-138.184,0.000
1898.000,-137.207,-43.945,-21.973,-123.047,0.000
1902.000,-128.418,-50.781,-19.043,-116.699,0.000
1906.000,-125.000,-54.688,-22.461,-108.398,0.000
1910.000,-124.023,-50.293,-26.855,-111.816,0.000
1914.000,-125.488,-52.246,-26.367,-115.234,0.000
1918.000,-102.539,-51.270,-24.902,-97.168,0.000
1922.000,-83.496,-48.340,-24.902,-86.914,0.000
1926.000,-76.660,-51.758,-27.832,-83.496,0.000
1929.000,-72.754,-53.223,-24.902,-63.477,0.000
1933.000,-60.547,-50.293,-25.391,-42.480,0.000
1937.000,-48.828,-46.387,-27.344,-31.250,0.000
1941.000,-55.664,-43.457,-23.438,-20.996,0.000
1945.000,-53.223,-41.016,-21.973,-10.742,0.000
1949.000,-36.133,-33.691,-20.020,-2.930,0.000
1953.000,-26.855,-32.227,-20.996,-0.488,0.000
1957.000,-26.855,-28.320,-22.461,-3.418,0.000
1961.000,-29.297,-23.926,-20.996,-1.953,0.000
1965.000,-26.367,-31.738,-27.344,-3.906,0.000
1969.000,-15.137,-35.156,-32.227,-5.371,0.000
1972.000,-25.391,-39.551,-32.227,-8.789,0.000
1976.000,-25.879,-35.156,-27.344,-10.254,0.000
1980.000,-6.348,-26.855,-25.391,6.348,0.000
1984.000,4.395,-24.902,-31.738,4.883,0.000
1988.000,6.348,-19.531,-32.227,-8.301,0.000
1992.000,-2.441,-19.043,-30.273,-3.906,0.000
1996.000,-17.578,-21.484,-30.762,-1.953,0.000
2000.000,-28.809,-22.949,-29.297,-4.395,0.000
2004.000,-19.531,-20.508,-20.996,2.930,0.000
2008.000,-11.230,-19.043,-16.113,-4.883,0.000
2012.000,-14.648,-26.367,-22.461,-3.418,0.000
2015.000,-26.367,-25.391,-26.367,1.953,0.000
2019.000,-19.531,-21.484,-25.391,-4.883,0.000
2023.000,-28.320,-29.297,-21.973,0.000,0.000
2027.000,-45.898,-27.832,-22.949,-6.836,0.000
2031.000,-33.691,-18.066,-27.832,-17.578,0.000
2035.000,-30.762,-21.973,-25.879,-13.184,0.000
2039.000,-29.297,-22.949,-19.531,-5.371,0.000
2043.000,-23.438,-23.438,-25.391,0.488,0.000
2047.000,-17.578,-29.297,-32.227,-2.930,0.000
2051.000,-11.719,-27.832,-29.785,0.488,0.000
2054.000,-17.090,-24.902,-31.738,-3.906,0.000
2058.000,-15.137,-23.438,-33.691,-16.602,0.000
2062.000,-25.879,-23.438,-29.785,-14.160,0.000
2066.000,-35.645,-24.414,-27.344,-4.395,0.000
2070.000,-24.902,-25.391,-28.320,-2.930,0.000
2074.000,-36.621,-29.297,-30.273,-16.113,0.000
2078.000,-31.738,-23.926,-31.738,-27.344,0.000
2082.000,-19.531,-19.043,-27.832,-23.438,0.000
2086.000,-26.855,-28.320,-29.785,-29.297,0.000
2090.000,-32.715,-29.785,-32.227,-41.016,0.000
2094.000,-35.645,-28.809,-35.645,-44.434,0.000
2097.000,-37.598,-34.180,-38.574,-43.457,0.000
2101.000,-38.086,-30.762,-37.109,-41.016,0.000
2105.000,-39.551,-26.855,-37.109,-38.574,0.000
2109.000,-48.828,-28.809,-37.598,-38.086,0.000
2113.000,-45.410,-27.344,-36.621,-32.715,0.000
2117.000,-41.016,-29.785,-34.180,-20.508,0.000
2121.000,-51.270,-29.785,-33.203,-17.090,0.000
2125.000,-49.805,-29.297,-34.668,-19.043,0.000
2129.000,-43.457,-32.227,-33.203,-15.625,0.000
2133.000,-50.781,-29.297,-29.785,-11.719,0.000
2137.000,-46.875,-28.809,-30.762,-8.789,0.000
2140.000,-47.363,-32.715,-32.715,-7.812,0.000
2144.000,-49.805,-35.645,-35.156,-4.883,0.000
2148.000,-46.387,-33.691,-34.668,-3.906,0.000
2152.000,-30.273,-25.391,-27.344,-0.977,0.000
2156.000,-34.180,-25.391,-25.879,2.441,0.000
2160.000,-64.453,-29.297,-30.273,-9.277,0.000
2164.000,-65.430,-29.785,-28.320,-17.090,0.000
2168.000,-44.434,-28.320,-29.785,-23.926,0.000
2172.000,-32.227,-22.949,-29.785,-28.320,0.000
2176.000,-34.180,-20.996,-27.832,-26.367,0.000
2179.000,-42.480,-20.996,-27.344,-26.367,0.000
2183.000,-38.574,-16.602,-23.438,-26.855,0.000
2187.000,-28.809,-15.625,-24.414,-25.391,0.000
2191.000,-29.785,-19.531,-25.879,-22.949,0.000
2195.000,-20.508,-19.531,-22.949,-31.250,0.000
2199.000,-13.184,-18.555,-24.902,-32.715,0.000
2203.000,-15.625,-19.531,-22.949,-26.855,0.000
2207.000,-21.973,-25.391,-23.438,-33.691,0.000
2211.000,-35.645,-26.367,-23.926,-34.668,0.000
2215.000,-43.457,-25.879,-20.508,-20.996,0.000
2219.000,-26.855,-24.902,-18.555,-17.578,0.000
2222.000,-29.297,-23.438,-21.973,-26.855,0.000
2226.000,-51.270,-25.879,-26.855,-27.344,0.000
2230.000,-55.664,-30.273,-27.344,-26.855,0.000
2234.000,-53.223,-29.785,-23.926,-20.996,0.000
2238.000,-38.574,-23.438,-26.855,-20.508,0.000
2242.000,-31.738,-21.973,-25.879,-24.902,0.000
2246.000,-32.715,-25.879,-27.344,-23.438,0.000
2250.000,-27.344,-25.879,-33.203,-21.484,0.000
2254.000,-36.133,-25.879,-31.738,-23.438,0.000
2258.000,-48.828,-27.344,-25.879,-27.832,0.000
2261.000,-45.898,-20.996,-19.043,-24.902,0.000
2265.000,-33.691,-21.484,-20.020,-34.668,0.000
2269.000,-29.785,-21.484,-23.926,-39.551,0.000
2273.000,-36.621,-19.531,-25.879,-37.598,0.000
2277.000,-41.016,-26.367,-21.484,-31.250,0.000
2281.000,-30.273,-23.926,-23.438,-24.902,0.000
2285.000,-29.785,-20.508,-26.367,-39.062,0.000
2289.000,-33.691,-20.508,-25.391,-49.805,0.000
2293.000,-21.973,-16.602,-24.902,-52.246,0.000
2297.000,-10.254,-18.555,-24.902,-49.805,0.000
2301.000,-12.695,-20.508,-28.320,-33.203,0.000
2304.000,-41.016,-20.508,-26.855,-19.043,0.000
2308.000,-61.523,-21.484,-29.785,-32.715,0.000
2312.000,-63.477,-21.973,-31.250,-48.340,0.000
2316.000,-55.664,-29.785,-22.461,-52.246,0.000
2320.000,-34.668,-26.855,-27.344,-45.410,0.000
2324.000,-21.484,-21.973,-33.691,-39.551,0.000
2328.000,-17.578,-21.484,-31.738,-40.039,0.000
2332.000,-43.945,-22.461,-33.691,-40.039,0.000
2336.000,-59.570,-24.902,-29.785,-37.109,0.000
2340.000,-44.434,-20.508,-21.973,-27.344,0.000
2344.000,-38.574,-16.602,-32.227,-28.320,0.000
2347.000,-22.949,-17.578,-31.738,-23.438,0.000
2351.000,-20.996,-18.555,-22.949,-9.766,0.000
2355.000,-19.043,-17.578,-28.809,-8.301,0.000
2359.000,2.930,-12.207,-19.043,-9.766,0.000
2363.000,-1.465,-12.207,-13.672,-8.789,0.000
2367.000,-23.438,-15.137,-26.855,-17.090,0.000
2371.000,-29.785,-17.578,-28.320,-16.113,0.000
2375.000,-13.672,-16.602,-22.461,-4.883,0.000
2379.000,15.137,-6.348,-13.672,8.301,0.000
2383.000,25.879,-1.953,-16.602,16.113,0.000
2386.000,29.785,-2.930,-25.391,18.555,0.000
2390.000,32.227,-1.465,-24.902,22.461,0.000
2394.000,26.367,3.906,-21.484,29.297,0.000
2398.000,30.273,3.418,-15.625,42.969,0.000
2402.000,35.156,0.977,-12.695,57.129,0.000
2406.000,44.922,7.812,-8.789,68.359,0.000
2410.000,52.246,14.160,-6.348,61.035,0.000
2414.000,60.059,10.742,-6.836,58.594,0.000
2418.000,68.359,7.324,-8.301,58.594,0.000
2422.000,66.895,6.348,-11.230,52.734,0.000
2426.000,72.266,3.906,-9.277,69.336,0.000
2429.000,77.148,5.371,-1.953,77.637,0.000
2433.000,77.148,5.371,0.488,71.289,0.000
2437.000,71.777,6.836,-4.395,56.641,0.000
2441.000,71.289,9.277,-4.395,34.668,0.000
2445.000,78.125,7.812,-8.301,32.715,0.000
2449.000,59.570,8.301,-8.789,43.457,0.000
2453.000,37.109,2.930,-6.348,54.199,0.000
2457.000,48.828,-3.418,-9.766,55.664,0.000
2461.000,63.477,-0.488,-12.695,48.828,0.000
2465.000,69.824,0.000,-16.602,46.387,0.000
2469.000,60.547,-1.465,-17.090,49.805,0.000
2472.000,36.133,-4.395,-12.695,57.617,0.000
2476.000,20.508,-9.277,-17.578,52.246,0.000
2480.000,15.625,-11.230,-25.391,42.969,0.000
2484.000,18.066,-11.230,-23.926,44.922,0.000
2488.000,15.625,-17.090,-21.973,47.363,0.000
2492.000,17.090,-18.555,-23.438,37.109,0.000
2496.000,15.137,-18.555,-27.832,18.555,0.000
2500.000,28.809,-18.555,-26.855,18.066,0.000
2504.000,28.320,-16.602,-22.949,22.949,0.000
2508.000,20.996,-16.113,-24.414,16.113,0.000
2511.000,30.762,-14.648,-24.414,12.695,0.000
2515.000,23.438,-16.602,-28.320,15.625,0.000
2519.000,17.578,-18.555,-22.949,11.230,0.000
2523.000,-1.465,-22.949,-17.090,-2.930,0.000
2527.000,-11.230,-28.320,-28.320,-19.531,0.000
2531.000,-5.859,-28.809,-32.715,-20.020,0.000
2535.000,-3.418,-24.902,-27.344,-22.949,0.000
2539.000,21.484,-22.949,-23.438,-20.020,0.000
2543.000,24.902,-22.949,-23.926,-12.695,0.000
2547.000,7.324,-20.020,-27.344,-12.207,0.000
2551.000,8.789,-16.113,-27.832,-16.113,0.000
2554.000,6.836,-16.113,-25.391,-17.090,0.000
2558.000,-13.672,-23.438,-26.367,-20.996,0.000
2562.000,-21.484,-28.809,-26.855,-19.531,0.000
2566.000,-18.555,-26.855,-27.832,-13.672,0.000
2570.000,-18.555,-26.855,-36.133,-20.508,0.000
2574.000,-20.996,-28.809,-38.574,-34.668,0.000
2578.000,-31.250,-33.691,-37.109,-49.316,0.000
2582.000,-23.438,-31.738,-39.551,-46.875,0.000
2586.000,-16.602,-25.391,-39.062,-38.086,0.000
2590.000,-24.414,-29.297,-44.434,-45.410,0.000
2593.000,-34.668,-32.715,-45.898,-61.035,0.000
2597.000,-49.316,-32.715,-41.016,-54.688,0.000
2601.000,-57.617,-34.668,-39.062,-43.945,0.000
2605.000,-54.199,-36.621,-34.668,-49.316,0.000
2609.000,-52.246,-34.180,-37.109,-51.758,0.000
2613.000,-54.199,-33.691,-38.086,-52.246,0.000
2617.000,-46.875,-33.691,-41.016,-55.176,0.000
2621.000,-34.668,-34.180,-44.922,-54.199,0.000
2625.000,-39.062,-38.086,-41.504,-67.383,0.000
2629.000,-36.621,-35.156,-44.434,-52.246,0.000
2633.000,-17.090,-33.691,-45.410,-19.531,0.000
2636.000,-24.414,-41.504,-39.551,-22.461,0.000
2640.000,-52.246,-41.504,-37.109,-41.992,0.000
2644.000,-79.590,-44.922,-37.109,-54.688,0.000
2648.000,-81.055,-49.805,-37.109,-67.871,0.000
2652.000,-76.172,-51.270,-33.203,-73.730,0.000
2656.000,-101.562,-55.176,-35.645,-87.402,0.000
2660.000,-124.512,-60.547,-40.039,-116.699,0.000
2664.000,-129.883,-59.082,-37.109,-126.465,0.000
2668.000,-141.113,-61.523,-30.762,-127.441,0.000
2672.000,-143.066,-71.777,-31.250,-126.953,0.000
2676.000,-149.902,-80.566,-35.645,-140.625,0.000
2679.000,-157.227,-69.336,-37.109,-166.504,0.000
2683.000,-147.949,-59.082,-39.062,-167.969,0.000
2687.000,-144.043,-63.477,-36.133,-165.039,0.000
2691.000,-161.621,-62.012,-28.809,-165.039,0.000
2695.000,-166.016,-60.547,-24.902,-158.691,0.000
2699.000,-166.992,-64.453,-23.438,-169.922,0.000
2703.000,-157.715,-59.082,-21.484,-164.551,0.000
2707.000,-159.180,-57.617,-20.996,-138.184,0.000
2711.000,-174.805,-61.035,-21.973,-135.254,0.000
2715.000,-166.504,-57.129,-24.902,-146.484,0.000
2718.000,-152.832,-55.664,-28.809,-140.625,0.000
2722.000,-137.695,-54.688,-26.855,-128.418,0.000
2726.000,-129.395,-56.152,-22.949,-128.418,0.000
2730.000,-133.789,-57.617,-22.949,-122.070,0.000
2734.000,-134.277,-52.246,-21.484,-108.887,0.000
2738.000,-120.117,-52.246,-21.484,-94.727,0.000
2742.000,-105.957,-55.664,-26.367,-87.891,0.000
2746.000,-85.938,-48.340,-29.297,-67.871,0.000
2750.000,-66.895,-39.062,-31.250,-52.734,0.000
2754.000,-61.035,-38.574,-34.180,-49.805,0.000
2758.000,-47.363,-35.156,-35.156,-42.969,0.000
2761.000,-34.668,-35.645,-35.645,-44.434,0.000
2765.000,-28.809,-38.574,-36.621,-49.805,0.000
2769.000,-34.668,-34.668,-39.551,-45.898,0.000
2773.000,-55.664,-40.039,-43.457,-51.758,0.000
2777.000,-55.664,-36.621,-39.062,-50.293,0.000
2781.000,-43.945,-31.250,-36.133,-47.363,0.000
2785.000,-39.062,-35.645,-41.992,-48.828,0.000
2789.000,-48.340,-35.645,-40.039,-37.109,0.000
2793.000,-55.664,-32.715,-36.621,-38.086,0.000
2797.000,-43.945,-30.273,-37.109,-47.363,0.000
2801.000,-35.156,-28.809,-36.133,-43.457,0.000
2804.000,-25.391,-28.320,-35.156,-42.969,0.000
2808.000,-33.203,-28.320,-34.668,-44.434,0.000
2812.000,-40.527,-26.855,-33.691,-40.527,0.000
2816.000,-36.133,-23.926,-28.809,-31.738,0.000
2820.000,-29.785,-26.367,-28.809,-34.180,0.000
2824.000,-30.273,-32.715,-34.668,-36.621,0.000
2828.000,-29.297,-33.691,-35.156,-28.320,0.000
2832.000,-20.020,-28.809,-31.738,-15.625,0.000
2836.000,-28.809,-26.367,-29.785,-16.113,0.000
2840.000,-34.180,-31.250,-32.715,-20.508,0.000
2843.000,-39.062,-31.250,-32.227,-16.113,0.000
2847.000,-32.715,-26.855,-26.855,-11.719,0.000
2851.000,-22.461,-25.879,-24.414,-9.766,0.000
2855.000,-27.832,-25.879,-25.391,-19.043,0.000
2859.000,-33.691,-20.996,-22.949,-20.020,0.000
2863.000,-34.668,-20.020,-20.996,-19.043,0.000
2867.000,-34.668,-23.926,-23.438,-26.855,0.000
2871.000,-33.691,-26.367,-24.902,-39.551,0.000
2875.000,-32.715,-24.902,-26.367,-42.480,0.000
2879.000,-40.527,-23.438,-24.414,-38.086,0.000
2883.000,-49.316,-25.879,-26.855,-45.410,0.000
2886.000,-38.574,-22.949,-31.250,-43.457,0.000
2890.000,-39.062,-18.555,-33.203,-36.133,0.000
2894.000,-48.340,-21.484,-31.738,-30.273,0.000
2898.000,-47.852,-29.297,-27.832,-27.832,0.000
2902.000,-38.574,-28.320,-25.391,-23.438,0.000
2906.000,-36.133,-24.902,-19.531,-20.508,0.000
2910.000,-35.156,-25.391,-18.066,-32.227,0.000
2914.000,-31.250,-24.902,-19.043,-39.062,0.000
2918.000,-30.762,-27.344,-21.484,-38.086,0.000
2922.000,-27.832,-28.809,-24.414,-25.879,0.000
2925.000,-46.387,-28.320,-24.902,-23.926,0.000
2929.000,-63.965,-28.809,-30.273,-36.621,0.000
2933.000,-48.340,-26.367,-34.180,-35.156,0.000
2937.000,-31.250,-24.414,-35.645,-33.691,0.000
2941.000,-36.133,-23.926,-39.062,-33.203,0.000
2945.000,-38.574,-24.902,-41.016,-41.504,0.000
2949.000,-31.738,-27.832,-40.039,-43.457,0.000
2953.000,-45.410,-33.691,-36.133,-42.480,0.000
2957.000,-58.594,-33.691,-32.227,-32.227,0.000
2961.000,-63.477,-23.926,-27.344,-23.438,0.000
2965.000,-61.523,-30.762,-25.879,-27.344,0.000
2968.000,-40.527,-32.227,-31.738,-28.320,0.000
2972.000,-36.621,-26.367,-34.668,-38.574,0.000
2976.000,-53.223,-30.762,-35.156,-47.363,0.000
2980.000,-52.734,-25.879,-33.691,-43.457,0.000
2984.000,-45.898,-21.973,-32.227,-28.320,0.000
2988.000,-55.664,-29.297,-34.180,-31.738,0.000
2992.000,-57.129,-31.738,-35.156,-41.992,0.000
2996.000,-44.922,-27.344,-33.691,-31.738,0.000
3000.000,-38.574,-27.344,-32.715,-34.668,0.000
3004.000,-31.738,-27.344,-33.691,-41.992,0.000
3008.000,-31.250,-31.250,-37.109,-46.387,0.000
3011.000,-28.809,-30.273,-40.039,-44.922,0.000
3015.000,-22.949,-23.438,-38.086,-36.133,0.000
3019.000,-33.691,-19.043,-34.180,-32.227,0.000
3023.000,-42.969,-18.066,-33.203,-23.438,0.000
3027.000,-30.273,-20.996,-29.785,-24.902,0.000
3031.000,-14.160,-25.391,-28.320,-24.902,0.000
3035.000,-3.906,-23.438,-29.785,-15.625,0.000
3039.000,-13.672,-22.461,-33.203,-21.484,0.000
3043.000,-40.039,-27.832,-36.621,-27.344,0.000
3047.000,-39.551,-31.738,-33.691,-27.344,0.000
3050.000,-27.344,-29.297,-35.645,-30.273,0.000
3054.000,-18.555,-27.344,-32.227,-24.414,0.000
3058.000,-26.855,-26.855,-29.297,-10.742,0.000
3062.000,-16.602,-26.367,-30.273,-0.977,0.000
3066.000,1.953,-23.926,-30.273,3.906,0.000
3070.000,-10.742,-21.973,-34.180,5.859,0.000
3074.000,-24.902,-20.508,-31.250,8.789,0.000
3078.000,-8.301,-20.508,-29.297,10.254,0.000
3082.000,12.207,-19.043,-27.344,7.324,0.000
3086.000,20.020,-13.672,-23.438,8.301,0.000
3090.000,19.043,-17.090,-26.367,12.207,0.000
3093.000,16.113,-15.137,-26.855,13.672,0.000
3097.000,22.949,-10.254,-27.344,17.578,0.000
3101.000,17.090,-12.695,-34.180,16.602,0.000
3105.000,11.230,-9.766,-33.691,21.973,0.000
3109.000,20.996,-3.418,-26.855,35.156,0.000
3113.000,28.320,-3.906,-21.484,34.180,0.000
3117.000,34.180,-2.441,-21.973,32.227,0.000
3121.000,37.109,-0.977,-27.344,43.457,0.000
3125.000,29.297,-8.301,-32.715,33.691,0.000
3129.000,35.645,-6.348,-38.086,23.438,0.000
3133.000,51.758,-1.953,-36.621,31.738,0.000
3136.000,52.246,-0.977,-36.133,27.344,0.000
3140.000,40.527,-0.488,-35.156,18.066,0.000
3144.000,29.785,-6.348,-29.297,18.555,0.000
3148.000,34.180,-5.859,-34.180,25.391,0.000
3152.000,42.480,1.953,-33.691,30.273,0.000
3156.000,55.664,3.418,-28.809,34.668,0.000
3160.000,61.035,4.883,-29.785,44.434,0.000
3164.000,61.523,9.277,-24.414,50.293,0.000
3168.000,55.664,4.395,-22.461,45.898,0.000
3172.000,45.898,0.488,-24.414,32.715,0.000
3175.000,53.223,0.000,-21.484,32.227,0.000
3179.000,51.758,-1.465,-22.461,38.086,0.000
3183.000,46.875,2.441,-24.902,30.762,0.000
3187.000,45.410,-5.859,-21.484,17.090,0.000
3191.000,55.176,-9.277,-24.414,27.344,0.000
3195.000,51.270,-4.395,-27.344,28.809,0.000
3199.000,21.973,-14.648,-23.438,36.621,0.000
3203.000,6.348,-18.066,-24.414,38.574,0.000
3207.000,6.836,-14.648,-28.809,21.973,0.000
3211.000,15.137,-17.090,-30.762,30.762,0.000
3215.000,34.180,-15.625,-22.949,35.645,0.000
3218.000,40.039,-13.672,-20.508,21.484,0.000
3222.000,27.832,-18.066,-25.391,17.578,0.000
3226.000,19.043,-24.902,-30.273,21.973,0.000
3230.000,10.742,-21.973,-25.879,31.738,0.000
3234.000,19.043,-13.672,-21.484,33.203,0.000
3238.000,31.250,-15.625,-22.461,23.438,0.000
3242.000,23.926,-21.484,-24.414,0.000,0.000
3246.000,20.996,-19.531,-27.344,-9.277,0.000
3250.000,21.484,-16.113,-22.461,14.648,0.000
3254.000,18.066,-9.766,-14.648,20.020,0.000
3257.000,4.883,-10.254,-16.113,5.371,0.000
3261.000,4.883,-11.230,-20.020,15.137,0.000
3265.000,20.508,-8.301,-17.578,31.250,0.000
3269.000,33.203,-9.766,-15.137,35.645,0.000
3273.000,24.414,-16.113,-20.020,26.855,0.000
3277.000,12.695,-15.625,-24.414,9.766,0.000
3281.000,24.414,-7.324,-24.902,1.465,0.000
3285.000,25.879,-10.254,-28.320,1.465,0.000
3289.000,1.465,-13.672,-37.109,-8.789,0.000
3293.000,-11.230,-13.672,-34.180,-13.184,0.000
3297.000,-10.254,-16.113,-30.273,1.953,0.000
3300.000,-2.441,-15.625,-31.738,0.488,0.000
3304.000,-0.977,-14.160,-29.785,-19.043,0.000
3308.000,14.160,-12.695,-32.715,-18.555,0.000
3312.000,25.879,-8.789,-27.832,-2.441,0.000
3316.000,7.812,-10.254,-20.996,7.812,0.000
3320.000,-24.902,-15.137,-23.926,-3.906,0.000
3324.000,-55.176,-19.531,-29.785,-21.973,0.000
3328.000,-47.363,-20.508,-28.809,-15.137,0.000
3332.000,-32.227,-20.508,-30.273,-2.930,0.000
3336.000,-49.805,-26.367,-29.785,-12.207,0.000
3340.000,-40.527,-24.414,-28.320,-20.508,0.000
3343.000,-23.926,-19.531,-31.250,-11.230,0.000
3347.000,-14.160,-18.555,-29.297,4.883,0.000
3351.000,-7.324,-23.438,-24.414,4.395,0.000
3355.000,-16.602,-24.414,-26.855,-3.906,0.000
3359.000,-20.020,-25.391,-31.738,-10.254,0.000
3363.000,-13.184,-24.414,-30.762,-10.254,0.000
3367.000,-15.137,-26.367,-24.414,-11.719,0.000
3371.000,-23.926,-34.180,-25.879,-15.625,0.000
