timestamp,TP9,AF7,AF8,TP10,Right AUX
1673805983.282,-14.160,-24.902,-25.391,-40.527,0.000
1673805983.286,-20.020,-16.113,-27.832,-44.434,0.000
1673805983.290,-13.184,-20.020,-28.320,-29.785,0.000
1673805983.294,-8.301,-30.762,-28.320,-27.832,0.000
1673805983.298,-14.648,-25.391,-30.273,-29.297,0.000
1673805983.302,-11.719,-20.508,-27.832,-32.715,0.000
1673805983.306,-9.766,-15.137,-21.973,-13.672,0.000
1673805983.309,-26.367,-15.625,-28.320,-15.137,0.000
1673805983.313,-36.133,-23.926,-34.180,-21.973,0.000
1673805983.317,-28.809,-26.367,-30.273,-15.137,0.000
1673805983.321,-9.766,-24.902,-33.691,-15.625,0.000
1673805983.325,5.371,-22.461,-34.668,-7.324,0.000
1673805983.329,7.812,-19.531,-28.809,-1.953,0.000
1673805983.333,13.184,-20.996,-29.297,-4.883,0.000
1673805983.337,12.695,-27.344,-35.645,-5.371,0.000
1673805983.341,10.742,-32.227,-36.133,-6.348,0.000
1673805983.345,0.000,-33.203,-37.109,-12.695,0.000
1673805983.348,-5.859,-29.297,-32.715,-4.883,0.000
1673805983.352,3.418,-28.320,-25.391,-4.883,0.000
1673805983.356,-1.465,-28.809,-28.809,-7.812,0.000
1673805983.360,4.883,-21.484,-29.785,-2.441,0.000
1673805983.364,1.953,-17.578,-28.320,-6.348,0.000
1673805983.368,-12.695,-20.996,-34.668,-17.090,0.000
1673805983.372,-7.812,-22.949,-39.551,-24.414,0.000
1673805983.376,-4.395,-20.996,-38.086,-23.438,0.000
1673805983.380,-11.719,-28.320,-38.574,-25.879,0.000
1673805983.384,1.953,-31.738,-40.039,-33.203,0.000
1673805983.388,8.789,-23.926,-39.062,-30.762,0.000
1673805983.391,-2.930,-18.066,-37.598,-31.250,0.000
1673805983.395,1.465,-19.531,-35.156,-24.902,0.000
1673805983.399,-4.395,-21.973,-33.691,-29.297,0.000
1673805983.403,-9.766,-24.414,-36.621,-43.457,0.000
1673805983.407,-4.883,-26.367,-33.203,-26.855,0.000
1673805983.411,-6.836,-25.391,-31.738,-14.160,0.000
1673805983.415,-15.625,-27.832,-38.086,-21.973,0.000
1673805983.419,-27.832,-31.738,-38.574,-20.508,0.000
1673805983.423,-15.137,-33.691,-35.645,-12.695,0.000
1673805983.427,-17.578,-32.715,-33.203,-16.602,0.000
1673805983.431,-31.738,-35.645,-33.203,-20.020,0.000
1673805983.434,-23.926,-28.320,-33.691,-19.043,0.000
1673805983.438,-22.461,-20.508,-33.203,-15.137,0.000
1673805983.442,-30.762,-22.461,-31.250,-6.836,0.000
1673805983.446,-41.992,-28.320,-32.227,-5.371,0.000
1673805983.450,-50.781,-30.273,-35.645,-15.625,0.000
1673805983.454,-38.574,-23.926,-30.273,-3.418,0.000
1673805983.458,-41.016,-14.648,-22.461,6.348,0.000
1673805983.462,-53.711,-15.137,-25.879,-7.812,0.000
1673805983.466,-49.316,-20.996,-30.273,-9.277,0.000
1673805983.470,-47.363,-20.508,-30.762,-4.883,0.000
1673805983.474,-48.828,-20.508,-32.227,-3.418,0.000
1673805983.477,-53.223,-22.461,-37.109,-4.395,0.000
1673805983.481,-52.734,-23.926,-37.109,-6.836,0.000
1673805983.485,-46.875,-20.996,-32.715,-21.484,0.000
1673805983.489,-43.945,-17.090,-34.668,-18.066,0.000
1673805983.493,-43.457,-23.438,-34.180,-6.836,0.000
1673805983.497,-36.133,-24.902,-31.738,-13.184,0.000
1673805983.501,-33.203,-22.949,-28.809,-7.324,0.000
1673805983.505,-37.109,-22.461,-30.762,-7.812,0.000
1673805983.509,-41.016,-23.926,-35.645,-14.160,0.000
1673805983.513,-42.480,-25.391,-35.645,-16.602,0.000
1673805983.516,-40.527,-24.414,-30.273,-17.090,0.000
1673805983.520,-45.898,-28.320,-33.691,-22.949,0.000
1673805983.524,-51.758,-27.832,-35.645,-26.367,0.000
1673805983.528,-58.594,-29.785,-28.320,-12.207,0.000
1673805983.532,-73.242,-35.156,-27.344,-12.207,0.000
1673805983.536,-77.148,-34.180,-35.156,-23.926,0.000
1673805983.540,-62.988,-29.297,-38.574,-22.949,0.000
1673805983.544,-50.293,-28.320,-35.645,-15.137,0.000
1673805983.548,-50.781,-22.949,-32.715,-11.719,0.000
1673805983.552,-54.688,-12.207,-35.156,-25.391,0.000
1673805983.556,-62.012,-14.648,-33.203,-17.090,0.000
1673805983.559,-61.035,-18.555,-33.203,7.324,0.000
1673805983.563,-47.852,-21.973,-35.645,1.953,0.000
1673805983.567,-45.898,-28.809,-39.551,-20.508,0.000
1673805983.571,-46.875,-29.297,-38.574,-29.297,0.000
1673805983.575,-42.480,-24.902,-33.203,-27.344,0.000
1673805983.579,-46.875,-25.879,-37.109,-36.621,0.000
1673805983.583,-45.410,-29.297,-36.133,-40.039,0.000
1673805983.587,-32.227,-24.902,-37.109,-30.273,0.000
1673805983.591,-24.414,-19.531,-35.156,-16.602,0.000
1673805983.595,-24.902,-21.973,-29.785,-11.719,0.000
1673805983.598,-21.484,-20.508,-31.250,-21.973,0.000
1673805983.602,-23.926,-16.113,-27.832,-25.391,0.000
1673805983.606,-30.273,-22.949,-27.344,-12.695,0.000
1673805983.610,-39.062,-33.691,-31.738,-11.719,0.000
1673805983.614,-36.621,-32.715,-31.250,-20.020,0.000
1673805983.618,-20.996,-29.785,-32.715,-26.367,0.000
1673805983.622,-38.086,-30.273,-31.738,-17.578,0.000
1673805983.626,-69.824,-35.156,-30.762,-3.906,0.000
1673805983.630,-59.082,-28.320,-31.250,-14.648,0.000
1673805983.634,-36.133,-26.367,-31.250,-24.902,0.000
1673805983.638,-27.344,-34.668,-33.691,-18.066,0.000
1673805983.641,-40.039,-36.133,-36.133,-19.043,0.000
1673805983.645,-57.617,-32.227,-30.273,-16.113,0.000
1673805983.649,-55.176,-28.809,-28.809,-17.090,0.000
1673805983.653,-51.758,-20.508,-32.715,-24.414,0.000
1673805983.657,-44.434,-21.973,-37.109,-19.531,0.000
1673805983.661,-37.109,-34.668,-33.691,-10.742,0.000
1673805983.665,-29.785,-25.391,-29.297,-11.719,0.000
1673805983.669,-29.785,-25.879,-32.227,-16.113,0.000
1673805983.673,-27.832,-32.715,-27.832,-14.648,0.000
1673805983.677,-21.484,-30.273,-21.973,-8.789,0.000
1673805983.681,-23.926,-30.762,-19.531,-1.953,0.000
1673805983.684,-29.297,-39.062,-23.926,-17.578,0.000
1673805983.688,-32.227,-35.645,-26.855,-25.391,0.000
1673805983.692,-28.809,-24.414,-19.531,-12.207,0.000
1673805983.696,-31.738,-22.461,-20.996,-10.742,0.000
1673805983.700,-32.227,-25.391,-33.691,-22.461,0.000
1673805983.704,-29.297,-31.250,-38.574,-19.531,0.000
1673805983.708,-25.391,-28.809,-31.250,-8.301,0.000
1673805983.712,-28.320,-20.508,-26.367,-13.184,0.000
1673805983.716,-34.180,-26.855,-29.297,-9.766,0.000
1673805983.720,-19.531,-30.273,-31.250,-10.254,0.000
1673805983.723,-14.160,-28.320,-31.250,-14.160,0.000
1673805983.727,-13.184,-35.156,-35.156,-17.578,0.000
1673805983.731,-16.602,-33.203,-35.645,-26.367,0.000
1673805983.735,-18.555,-27.832,-30.273,-24.414,0.000
1673805983.739,-19.043,-29.785,-34.180,-20.996,0.000
1673805983.743,-40.039,-37.598,-36.133,-21.484,0.000
1673805983.747,-48.828,-42.480,-37.109,-22.949,0.000
1673805983.751,-48.340,-33.691,-34.180,-17.090,0.000
1673805983.755,-43.457,-24.414,-36.133,-13.672,0.000
1673805983.759,-36.621,-25.391,-40.527,-16.602,0.000
1673805983.763,-31.738,-16.602,-38.086,-20.508,0.000
1673805983.766,-32.715,-17.090,-28.809,-23.926,0.000
1673805983.770,-29.785,-22.949,-29.297,-21.484,0.000
1673805983.774,-24.414,-21.484,-38.086,-16.602,0.000
1673805983.778,-35.156,-29.297,-41.504,-18.555,0.000
1673805983.782,-41.992,-27.344,-37.598,-26.367,0.000
1673805983.786,-40.527,-29.785,-39.551,-35.156,0.000
1673805983.790,-40.039,-33.691,-41.504,-35.156,0.000
1673805983.794,-44.434,-26.855,-37.598,-35.645,0.000
1673805983.798,-34.668,-20.508,-36.621,-38.574,0.000
1673805983.802,-41.016,-23.438,-39.551,-36.133,0.000
1673805983.806,-66.895,-26.855,-41.992,-38.574,0.000
1673805983.809,-65.918,-29.785,-38.574,-33.203,0.000
1673805983.813,-51.270,-30.762,-37.598,-23.926,0.000
1673805983.817,-42.969,-27.344,-34.668,-28.809,0.000
1673805983.821,-38.574,-25.879,-29.785,-22.461,0.000
1673805983.825,-41.992,-32.227,-27.832,-10.254,0.000
1673805983.829,-46.875,-35.645,-26.855,-11.719,0.000
1673805983.833,-45.410,-23.438,-23.926,-16.602,0.000
1673805983.837,-44.922,-22.461,-21.973,-16.602,0.000
1673805983.841,-36.133,-26.855,-22.461,-15.137,0.000
1673805983.845,-26.367,-20.996,-24.902,-14.648,0.000
1673805983.849,-22.949,-16.113,-22.949,-10.254,0.000
1673805983.852,-18.555,-17.090,-29.297,-18.066,0.000
1673805983.856,-23.438,-20.996,-30.762,-23.438,0.000
1673805983.860,-31.250,-26.855,-25.391,-23.438,0.000
1673805983.864,-24.902,-28.320,-24.902,-27.832,0.000
1673805983.868,-20.020,-30.273,-25.391,-29.297,0.000
1673805983.872,-16.113,-30.273,-20.020,-18.066,0.000
1673805983.876,-17.090,-24.414,-15.625,-2.930,0.000
1673805983.880,-30.762,-18.555,-26.855,-10.254,0.000
1673805983.884,-20.020,-16.602,-28.809,-21.973,0.000
1673805983.888,-4.883,-16.602,-18.066,-18.066,0.000
1673805983.891,-0.488,-12.207,-22.461,-2.930,0.000
1673805983.895,-7.324,-12.695,-28.320,-8.301,0.000
1673805983.899,-17.578,-22.461,-31.250,-17.578,0.000
1673805983.903,-7.812,-21.973,-35.645,-9.277,0.000
1673805983.907,-6.348,-14.160,-33.691,-7.324,0.000
1673805983.911,-18.066,-17.090,-33.691,-7.812,0.000
1673805983.915,-20.508,-24.414,-29.785,-15.625,0.000
1673805983.919,-11.719,-23.438,-21.484,-21.484,0.000
1673805983.923,-16.113,-21.973,-28.320,-10.742,0.000
1673805983.927,-22.949,-25.391,-34.668,-15.137,0.000
1673805983.931,-17.090,-23.926,-32.715,-27.344,0.000
1673805983.934,-8.789,-19.531,-29.297,-8.789,0.000
1673805983.938,-12.207,-18.555,-29.297,-2.441,0.000
1673805983.942,-32.715,-23.926,-33.691,-10.742,0.000
1673805983.946,-33.203,-26.855,-36.133,-15.625,0.000
1673805983.950,-24.902,-22.461,-35.156,-24.902,0.000
1673805983.954,-22.461,-20.020,-35.156,-26.367,0.000
1673805983.958,-17.578,-16.602,-34.180,-16.602,0.000
1673805983.962,-23.926,-20.508,-29.297,-13.184,0.000
1673805983.966,-27.832,-24.414,-28.809,-17.090,0.000
1673805983.970,-28.320,-25.879,-31.250,-26.855,0.000
1673805983.974,-23.926,-30.762,-25.391,-22.949,0.000
1673805983.977,-16.602,-26.367,-15.137,-11.230,0.000
1673805983.981,-13.672,-13.672,-17.578,-8.301,0.000
1673805983.985,-10.742,-11.719,-23.926,-19.531,0.000
1673805983.989,-15.137,-16.113,-22.949,-22.949,0.000
1673805983.993,-19.531,-18.555,-23.438,-13.184,0.000
1673805983.997,-25.391,-24.902,-25.391,-17.090,0.000
1673805984.001,-29.297,-23.438,-25.391,-26.367,0.000
1673805984.005,-23.438,-13.672,-21.973,-18.066,0.000
1673805984.009,-23.438,-13.672,-20.020,-10.254,0.000
1673805984.013,-26.367,-17.090,-21.484,-13.184,0.000
1673805984.016,-19.043,-16.602,-29.785,-21.484,0.000
1673805984.020,-3.906,-12.695,-25.879,-19.531,0.000
1673805984.024,14.160,-9.277,-12.695,3.418,0.000
1673805984.028,8.789,-7.324,-9.277,9.766,0.000
1673805984.032,-0.977,-9.277,-17.578,-3.418,0.000
1673805984.036,10.254,-12.695,-22.949,-6.836,0.000
1673805984.040,18.066,-5.859,-18.555,-5.371,0.000
1673805984.044,30.273,0.000,-14.648,2.930,0.000
1673805984.048,26.855,-0.977,-15.137,2.441,0.000
1673805984.052,25.879,3.906,-14.648,-7.812,0.000
1673805984.056,28.809,4.883,-16.113,-8.301,0.000
1673805984.059,21.484,-3.906,-19.043,-7.812,0.000
1673805984.063,20.020,-6.836,-17.578,-5.371,0.000
1673805984.067,32.715,-0.488,-10.742,-6.348,0.000
1673805984.071,36.621,1.465,-7.812,-9.277,0.000
1673805984.075,28.320,-8.301,-13.672,-5.859,0.000
1673805984.079,36.621,-5.859,-9.766,4.395,0.000
1673805984.083,42.969,-0.977,-3.418,0.488,0.000
1673805984.087,46.387,-9.277,-10.742,-5.371,0.000
1673805984.091,59.082,-13.184,-11.719,5.859,0.000
1673805984.095,34.668,-10.254,-4.883,12.207,0.000
1673805984.099,6.348,-7.812,-6.836,2.930,0.000
1673805984.102,16.602,-3.906,-14.160,-10.742,0.000
1673805984.106,18.555,-5.859,-17.090,-11.230,0.000
1673805984.110,13.184,-6.348,-14.160,-8.789,0.000
1673805984.114,8.301,0.000,-9.766,-0.977,0.000
1673805984.118,9.277,-1.953,-14.160,-2.930,0.000
1673805984.122,10.742,-3.906,-24.414,-14.648,0.000
1673805984.126,18.555,-7.812,-24.414,-15.625,0.000
1673805984.130,12.207,-9.766,-21.484,-12.695,0.000
1673805984.134,4.395,-5.371,-20.020,-12.207,0.000
1673805984.138,15.625,-3.418,-18.555,-5.371,0.000
1673805984.141,24.902,-12.207,-20.508,6.836,0.000
1673805984.145,16.602,-17.090,-27.344,2.930,0.000
1673805984.149,-0.977,-10.254,-26.855,-6.348,0.000
1673805984.153,4.883,-4.883,-24.414,0.000,0.000
1673805984.157,11.230,-9.277,-27.344,10.742,0.000
1673805984.161,5.859,-15.137,-26.367,12.207,0.000
1673805984.165,4.883,-11.719,-28.809,-5.371,0.000
1673805984.169,4.883,-10.742,-29.297,-7.324,0.000
1673805984.173,12.695,-4.883,-24.414,-0.977,0.000
1673805984.177,16.113,-0.488,-20.508,-6.348,0.000
1673805984.181,9.766,-10.742,-25.391,-5.859,0.000
1673805984.184,25.391,-17.578,-29.785,-8.301,0.000
1673805984.188,24.902,-14.160,-29.297,-4.395,0.000
1673805984.192,1.465,-11.719,-31.250,-1.953,0.000
1673805984.196,-2.930,-16.602,-33.203,-1.465,0.000
1673805984.200,-6.836,-22.461,-32.715,-6.348,0.000
1673805984.204,0.000,-16.113,-25.391,-12.207,0.000
1673805984.208,-5.371,-8.789,-21.973,-3.906,0.000
1673805984.212,-40.527,-20.996,-30.762,-13.672,0.000
1673805984.216,-43.945,-25.391,-33.203,-19.043,0.000
1673805984.220,-24.902,-30.273,-34.180,-16.113,0.000
1673805984.224,-23.926,-29.785,-30.762,-5.859,0.000
1673805984.227,-21.484,-21.484,-30.273,-1.953,0.000
1673805984.231,-5.371,-20.020,-30.762,-10.742,0.000
1673805984.235,-16.602,-24.414,-27.344,-16.113,0.000
1673805984.239,-30.273,-23.926,-26.367,-13.184,0.000
1673805984.243,-24.902,-23.438,-24.414,-2.441,0.000
1673805984.247,-21.973,-23.438,-27.344,-4.395,0.000
1673805984.251,-23.438,-25.391,-31.250,-16.113,0.000
1673805984.255,-22.461,-27.832,-37.598,-17.090,0.000
1673805984.259,-13.184,-26.367,-37.109,-6.348,0.000
1673805984.263,-17.578,-23.438,-31.250,-3.906,0.000
1673805984.267,-25.391,-23.926,-33.691,-14.160,0.000
1673805984.270,-14.648,-24.414,-35.156,-15.625,0.000
1673805984.274,-15.625,-16.113,-30.273,-14.160,0.000
1673805984.278,-22.949,-13.672,-25.879,-19.043,0.000
1673805984.282,-18.066,-19.531,-28.320,-26.367,0.000
1673805984.286,-11.230,-21.484,-37.598,-41.016,0.000
1673805984.290,-14.648,-14.648,-38.574,-42.480,0.000
1673805984.294,-18.066,-15.137,-30.273,-25.879,0.000
1673805984.298,-20.508,-24.414,-26.855,-22.949,0.000
1673805984.302,-22.949,-28.809,-30.762,-35.156,0.000
1673805984.306,-14.160,-22.949,-25.391,-25.391,0.000
1673805984.309,-17.090,-13.672,-22.461,-19.531,0.000
1673805984.313,-28.320,-11.719,-27.832,-21.484,0.000
1673805984.317,-26.855,-21.484,-25.879,-20.508,0.000
1673805984.321,-24.414,-23.926,-18.066,-20.020,0.000
1673805984.325,-21.973,-17.578,-15.625,-15.137,0.000
1673805984.329,-21.973,-20.020,-19.043,-16.113,0.000
1673805984.333,-20.020,-21.973,-18.066,-24.902,0.000
1673805984.337,-15.137,-18.066,-19.043,-31.738,0.000
1673805984.341,-13.672,-15.625,-22.461,-25.391,0.000
1673805984.345,-22.949,-22.461,-29.297,-25.391,0.000
1673805984.349,-28.320,-34.668,-30.762,-32.715,0.000
1673805984.352,-38.574,-30.273,-25.879,-31.250,0.000
1673805984.356,-40.527,-22.461,-26.367,-25.879,0.000
1673805984.360,-27.344,-22.461,-26.367,-23.926,0.000
1673805984.364,-18.555,-21.484,-23.438,-28.809,0.000
1673805984.368,-22.949,-23.926,-25.879,-23.438,0.000
1673805984.372,-17.578,-26.855,-24.902,-27.344,0.000
1673805984.376,-17.578,-27.344,-20.996,-20.508,0.000
1673805984.380,-17.090,-26.855,-24.414,-9.277,0.000
1673805984.384,-7.812,-22.461,-25.879,-18.555,0.000
1673805984.388,-13.672,-21.484,-28.320,-21.973,0.000
1673805984.391,-25.879,-26.367,-29.785,-24.414,0.000
1673805984.395,-29.297,-23.926,-32.227,-36.133,0.000
1673805984.399,-30.273,-20.508,-35.156,-46.875,0.000
1673805984.403,-30.762,-22.461,-33.203,-42.969,0.000
1673805984.407,-23.926,-30.762,-34.180,-37.598,0.000
1673805984.411,-11.719,-40.039,-29.297,-26.367,0.000
1673805984.415,-17.090,-33.691,-25.879,-25.391,0.000
1673805984.419,-10.742,-28.320,-30.273,-21.973,0.000
1673805984.423,-6.836,-29.297,-29.297,-12.695,0.000
1673805984.427,-31.250,-29.297,-29.785,-13.184,0.000
1673805984.431,-30.273,-25.879,-34.180,-15.625,0.000
1673805984.434,-23.926,-25.879,-33.691,-24.414,0.000
1673805984.438,-36.621,-31.250,-33.203,-24.414,0.000
1673805984.442,-34.180,-30.273,-26.367,-14.160,0.000
1673805984.446,-27.344,-23.926,-19.531,-12.695,0.000
1673805984.450,-25.879,-22.461,-17.090,-23.926,0.000
1673805984.454,-26.855,-25.391,-16.113,-29.785,0.000
1673805984.458,-41.504,-27.344,-18.066,-16.602,0.000
1673805984.462,-43.457,-23.438,-21.973,-12.207,0.000
1673805984.466,-22.461,-23.926,-25.879,-19.531,0.000
1673805984.470,-15.137,-26.855,-26.855,-22.461,0.000
1673805984.474,-7.324,-17.090,-22.949,-12.695,0.000
1673805984.477,-9.277,-18.555,-17.090,-7.812,0.000
1673805984.481,-18.066,-32.227,-23.926,-22.949,0.000
1673805984.485,-15.625,-26.367,-34.668,-31.738,0.000
1673805984.489,-14.648,-16.602,-28.320,-18.555,0.000
1673805984.493,-30.762,-12.695,-23.438,-13.672,0.000
1673805984.497,-49.316,-24.414,-31.250,-29.785,0.000
1673805984.501,-42.969,-37.109,-28.809,-29.785,0.000
1673805984.505,-44.922,-25.879,-30.273,-25.879,0.000
1673805984.509,-46.387,-21.484,-33.203,-20.508,0.000
1673805984.513,-35.645,-26.855,-32.715,-25.391,0.000
1673805984.516,-20.996,-22.461,-34.668,-38.574,0.000
1673805984.520,-13.672,-17.578,-33.691,-37.109,0.000
1673805984.524,-16.113,-17.090,-32.715,-27.832,0.000
1673805984.528,-26.855,-20.020,-31.250,-17.090,0.000
1673805984.532,-24.902,-23.438,-37.109,-23.438,0.000
1673805984.536,-16.602,-23.438,-39.551,-29.297,0.000
1673805984.540,-16.602,-25.391,-34.668,-21.973,0.000
1673805984.544,-19.531,-23.926,-30.273,-18.066,0.000
1673805984.548,-31.250,-31.250,-29.297,-16.602,0.000
1673805984.552,-31.738,-32.227,-33.203,-15.137,0.000
1673805984.556,-20.996,-22.461,-34.180,-16.602,0.000
1673805984.559,-11.230,-21.973,-33.691,-17.090,0.000
1673805984.563,3.418,-16.602,-32.715,-26.855,0.000
1673805984.567,0.977,-16.113,-29.785,-30.762,0.000
1673805984.571,-8.301,-29.297,-35.645,-24.414,0.000
1673805984.575,-6.836,-32.715,-38.086,-22.461,0.000
1673805984.579,-15.625,-21.973,-30.762,-5.859,0.000
1673805984.583,-23.926,-18.555,-26.855,-5.859,0.000
1673805984.587,-24.902,-26.367,-33.691,-15.625,0.000
1673805984.591,-28.320,-25.391,-34.668,-15.137,0.000
1673805984.595,-30.273,-24.414,-33.691,-23.438,0.000
1673805984.599,-27.344,-18.066,-28.320,-27.832,0.000
1673805984.602,-32.227,-18.066,-26.367,-31.738,0.000
1673805984.606,-55.664,-28.320,-35.156,-27.832,0.000
1673805984.610,-69.824,-32.715,-36.133,-19.531,0.000
1673805984.614,-55.664,-35.645,-36.621,-21.973,0.000
1673805984.618,-44.434,-33.203,-34.180,-22.949,0.000
1673805984.622,-48.340,-26.855,-32.227,-26.367,0.000
1673805984.626,-49.805,-23.438,-32.227,-16.602,0.000
1673805984.630,-50.293,-28.320,-33.203,-16.602,0.000
1673805984.634,-51.758,-26.367,-33.691,-28.809,0.000
1673805984.638,-34.668,-22.461,-29.785,-26.367,0.000
1673805984.642,-34.668,-23.438,-34.180,-22.461,0.000
1673805984.645,-45.898,-22.949,-35.645,-24.414,0.000
1673805984.649,-33.691,-28.809,-33.691,-38.086,0.000
1673805984.653,-21.484,-24.902,-33.691,-38.574,0.000
1673805984.657,-22.461,-25.391,-32.715,-32.715,0.000
1673805984.661,-20.508,-26.855,-29.785,-25.391,0.000
1673805984.665,-18.555,-17.090,-34.668,-27.344,0.000
1673805984.669,-15.137,-24.902,-35.156,-21.484,0.000
1673805984.673,-22.949,-30.273,-26.367,-4.395,0.000
1673805984.677,-31.738,-25.879,-31.738,-12.207,0.000
1673805984.681,-36.133,-24.902,-32.715,-17.578,0.000
1673805984.684,-37.598,-28.809,-28.320,-12.695,0.000
1673805984.688,-30.762,-22.949,-30.762,-11.719,0.000
1673805984.692,-32.227,-22.949,-30.762,-18.066,0.000
1673805984.696,-35.645,-26.855,-29.785,-15.625,0.000
1673805984.700,-33.203,-26.855,-30.762,-15.137,0.000
1673805984.704,-36.621,-26.367,-31.250,-25.391,0.000
1673805984.708,-39.062,-32.227,-30.762,-21.484,0.000
1673805984.712,-33.203,-37.109,-27.344,-16.113,0.000
1673805984.716,-34.180,-30.762,-21.973,-15.137,0.000
1673805984.720,-37.109,-27.832,-25.391,-21.484,0.000
1673805984.724,-28.809,-21.484,-34.180,-16.113,0.000
1673805984.727,-28.809,-14.160,-35.156,-1.953,0.000
1673805984.731,-40.039,-18.066,-35.156,-14.648,0.000
1673805984.735,-39.551,-22.949,-29.297,-26.367,0.000
1673805984.739,-28.320,-29.297,-27.832,-19.531,0.000
1673805984.743,-21.973,-26.367,-27.344,-9.766,0.000
1673805984.747,-20.996,-19.531,-25.879,-17.578,0.000
1673805984.751,-22.461,-24.414,-31.738,-29.297,0.000
1673805984.755,-17.578,-20.508,-30.273,-21.973,0.000
1673805984.759,-22.949,-23.438,-28.809,-11.719,0.000
1673805984.763,-31.738,-28.320,-29.297,-11.719,0.000
1673805984.766,-32.227,-34.180,-31.250,-32.227,0.000
1673805984.770,-23.438,-32.227,-34.180,-31.738,0.000
1673805984.774,-23.438,-21.484,-32.227,-16.113,0.000
1673805984.778,-30.273,-20.020,-35.156,-20.996,0.000
1673805984.782,-26.855,-21.484,-36.621,-26.367,0.000
1673805984.786,-41.016,-13.184,-30.273,-20.996,0.000
1673805984.790,-40.039,-16.602,-33.203,-18.555,0.000
1673805984.794,-18.555,-22.949,-27.344,-13.184,0.000
1673805984.798,-20.020,-23.438,-22.949,-18.555,0.000
1673805984.802,-19.043,-20.996,-26.367,-23.926,0.000
1673805984.806,-20.020,-20.508,-26.367,-9.277,0.000
1673805984.809,-39.062,-34.180,-32.715,-5.859,0.000
1673805984.813,-47.363,-32.715,-36.621,-13.672,0.000
1673805984.817,-37.109,-21.484,-31.250,-16.602,0.000
1673805984.821,-14.648,-20.996,-24.414,-10.254,0.000
1673805984.825,2.441,-19.043,-24.414,-5.859,0.000
1673805984.829,-0.977,-15.137,-23.438,-3.906,0.000
1673805984.833,-6.836,-17.578,-21.484,-7.324,0.000
1673805984.837,-10.742,-16.602,-29.297,-12.695,0.000
1673805984.841,-19.531,-21.973,-32.227,-3.906,0.000
1673805984.845,-9.766,-28.809,-31.738,-1.953,0.000
1673805984.849,9.277,-16.602,-28.320,-4.883,0.000
1673805984.852,14.160,-14.160,-29.297,-6.836,0.000
1673805984.856,1.465,-21.484,-36.621,-9.766,0.000
1673805984.860,-8.301,-20.508,-39.551,-1.465,0.000
1673805984.864,-3.906,-17.578,-34.180,3.418,0.000
1673805984.868,-10.742,-15.137,-26.855,-0.488,0.000
1673805984.872,-17.090,-16.113,-27.344,-3.906,0.000
1673805984.876,-10.254,-18.066,-33.691,-3.418,0.000
1673805984.880,-19.531,-18.555,-38.086,-11.719,0.000
1673805984.884,-21.973,-15.625,-34.668,-17.090,0.000
1673805984.888,-12.207,-18.555,-32.227,-18.066,0.000
1673805984.891,-8.789,-27.344,-36.621,-21.484,0.000
1673805984.895,-4.395,-29.785,-32.715,-15.137,0.000
1673805984.899,-16.113,-19.043,-25.879,-12.207,0.000
1673805984.903,-20.020,-16.602,-25.391,-16.113,0.000
1673805984.907,-8.301,-17.578,-23.438,-8.301,0.000
1673805984.911,-4.883,-13.184,-15.137,0.000,0.000
1673805984.915,-15.625,-18.066,-14.648,-9.277,0.000
1673805984.919,-21.973,-18.066,-15.625,-15.625,0.000
1673805984.923,-18.555,-0.488,-8.789,-5.859,0.000
1673805984.927,-1.953,-19.531,-20.996,-6.348,0.000
1673805984.931,0.000,-58.105,-49.316,-17.578,0.000
1673805984.934,-7.324,-21.484,-24.414,-12.207,0.000
1673805984.938,-4.395,12.207,-2.930,-10.742,0.000
1673805984.942,-12.695,0.977,-18.555,-8.789,0.000
1673805984.946,-20.020,1.465,-10.254,-10.742,0.000
1673805984.950,-17.090,2.441,-4.883,-20.996,0.000
1673805984.954,-13.184,-3.906,-7.812,-16.113,0.000
1673805984.958,-7.812,-6.348,-9.766,-7.324,0.000
1673805984.962,-2.441,-2.930,-14.648,-10.254,0.000
1673805984.966,0.977,-1.953,-8.789,-13.672,0.000
1673805984.970,1.953,-8.789,-7.812,-12.207,0.000
1673805984.974,-6.348,-13.184,-11.719,-6.836,0.000
1673805984.977,-12.695,-12.207,-8.301,-10.742,0.000
1673805984.981,-3.418,-13.672,-5.859,-16.113,0.000
1673805984.985,7.812,-13.672,-7.324,-18.066,0.000
1673805984.989,10.254,-1.953,-9.766,-12.207,0.000
1673805984.993,0.000,-2.930,-10.254,-3.418,0.000
1673805984.997,2.930,-8.301,-6.836,-9.277,0.000
1673805985.001,10.254,-6.836,-6.348,-17.090,0.000
1673805985.005,7.324,-9.766,-11.230,-11.230,0.000
1673805985.009,11.719,-4.883,-17.090,-12.695,0.000
1673805985.013,11.719,-3.906,-14.648,-11.230,0.000
1673805985.017,-13.184,-13.184,-12.695,-7.812,0.000
1673805985.020,-26.855,-18.555,-18.555,-21.484,0.000
1673805985.024,-9.766,-13.184,-12.695,-13.184,0.000
1673805985.028,-12.207,-16.113,-12.695,-3.418,0.000
1673805985.032,-22.949,-12.695,-18.066,-11.719,0.000
1673805985.036,-22.949,-8.301,-14.648,-16.602,0.000
1673805985.040,-22.949,-13.184,-20.996,-11.719,0.000
1673805985.044,-10.742,-9.277,-19.043,-3.418,0.000
1673805985.048,-4.395,-6.836,-12.207,-2.930,0.000
1673805985.052,-9.277,-8.301,-13.672,-4.395,0.000
1673805985.056,-11.719,-11.230,-16.113,-1.465,0.000
1673805985.059,-0.488,-15.625,-15.137,11.230,0.000
1673805985.063,8.301,-6.836,-10.254,10.742,0.000
1673805985.067,-0.977,-4.395,-12.207,-2.441,0.000
1673805985.071,-10.254,-10.254,-16.113,-4.883,0.000
1673805985.075,-17.090,-17.578,-17.578,-8.301,0.000
1673805985.079,-27.832,-18.555,-17.578,-14.160,0.000
1673805985.083,-22.949,-22.949,-20.508,-22.461,0.000
1673805985.087,-12.695,-24.902,-26.367,-28.809,0.000
1673805985.091,-17.578,-19.043,-28.320,-28.320,0.000
1673805985.095,-23.438,-24.902,-25.391,-29.297,0.000
1673805985.099,-23.438,-24.414,-25.879,-32.715,0.000
1673805985.102,-17.090,-15.625,-25.879,-34.180,0.000
1673805985.106,-5.371,-18.555,-24.414,-26.367,0.000
1673805985.110,-6.348,-18.066,-29.785,-24.902,0.000
1673805985.114,-19.531,-18.066,-32.227,-31.250,0.000
1673805985.118,-23.926,-19.043,-25.879,-26.855,0.000
1673805985.122,-28.320,-16.602,-25.879,-24.414,0.000
1673805985.126,-28.809,-19.043,-29.785,-20.996,0.000
1673805985.130,-22.461,-26.855,-33.203,-19.531,0.000
1673805985.134,-17.578,-28.809,-30.273,-19.531,0.000
1673805985.138,-21.484,-26.367,-32.715,-17.578,0.000
1673805985.141,-27.832,-31.250,-39.062,-21.973,0.000
1673805985.145,-33.691,-29.297,-34.180,-14.648,0.000
1673805985.149,-24.902,-22.949,-26.855,-9.766,0.000
1673805985.153,-13.672,-25.879,-27.344,-17.090,0.000
1673805985.157,-21.973,-28.809,-32.715,-15.625,0.000
1673805985.161,-25.391,-27.832,-31.250,-8.789,0.000
1673805985.165,-9.766,-20.508,-32.715,-9.277,0.000
1673805985.169,-9.277,-22.949,-34.668,-18.066,0.000
1673805985.173,-21.973,-29.297,-31.738,-22.949,0.000
1673805985.177,-12.695,-23.926,-26.367,-4.883,0.000
1673805985.181,-5.371,-22.949,-28.809,-4.395,0.000
1673805985.184,-12.695,-22.949,-32.715,-24.414,0.000
1673805985.188,-13.184,-23.926,-29.785,-22.461,0.000
1673805985.192,0.977,-18.066,-25.391,-7.324,0.000
1673805985.196,3.418,-15.137,-16.113,-2.441,0.000
1673805985.200,-7.324,-11.230,-27.344,-12.207,0.000
1673805985.204,-10.254,-9.277,-39.062,-15.137,0.000
1673805985.208,-15.625,-9.277,-19.531,-4.883,0.000
1673805985.212,-21.484,-5.371,-14.648,-5.371,0.000
1673805985.216,-25.879,-10.742,-22.949,-19.531,0.000
1673805985.220,-27.832,-16.602,-20.020,-20.508,0.000
1673805985.224,-29.785,-15.625,-20.996,-13.184,0.000
1673805985.227,-32.715,-15.137,-27.832,-19.043,0.000
1673805985.231,-27.832,-22.461,-33.691,-28.320,0.000
1673805985.235,-23.438,-14.648,-33.691,-33.691,0.000
1673805985.239,-28.809,-10.742,-26.367,-19.531,0.000
1673805985.243,-25.391,-19.043,-21.484,-16.113,0.000
1673805985.247,-25.391,-17.090,-30.273,-21.973,0.000
1673805985.251,-22.461,-20.996,-42.969,-25.391,0.000
1673805985.255,-9.766,-17.090,-35.645,-26.855,0.000
1673805985.259,-16.602,-12.207,-24.902,-18.555,0.000
1673805985.263,-23.438,-13.672,-20.020,-4.883,0.000
1673805985.266,-6.836,-17.090,-14.648,-4.395,0.000
1673805985.270,-0.488,-16.602,-18.066,-10.742,0.000
1673805985.274,-7.812,-10.254,-20.508,-3.418,0.000
1673805985.278,-15.137,-14.160,-18.555,-11.719,0.000
1673805985.282,-19.043,-23.438,-17.578,-20.020,0.000
1673805985.286,-13.672,-13.672,-15.137,-18.066,0.000
1673805985.290,-15.137,-17.578,-18.066,-18.066,0.000
1673805985.294,-13.184,-25.879,-27.344,-5.859,0.000
1673805985.298,-11.719,-15.137,-24.414,-10.742,0.000
1673805985.302,-21.484,-17.578,-13.672,-29.785,0.000
1673805985.306,-20.020,-24.902,-20.508,-29.785,0.000
1673805985.309,-23.926,-12.207,-27.344,-19.043,0.000
1673805985.313,-21.973,-10.254,-25.879,-16.602,0.000
1673805985.317,-19.043,-19.531,-26.855,-23.438,0.000
1673805985.321,-17.578,-25.879,-24.902,-29.297,0.000
1673805985.325,-21.484,-24.902,-23.926,-27.832,0.000
1673805985.329,-21.973,-17.578,-23.438,-14.648,0.000
1673805985.333,-13.672,-22.461,-24.414,-12.695,0.000
1673805985.337,-10.254,-23.926,-28.320,-25.391,0.000
1673805985.341,-3.418,-20.996,-27.832,-26.367,0.000
1673805985.345,-2.441,-24.414,-24.902,-16.113,0.000
1673805985.349,-15.625,-26.367,-29.785,-22.949,0.000
1673805985.352,-20.996,-22.949,-30.762,-34.180,0.000
1673805985.356,-19.043,-26.367,-22.461,-19.043,0.000
1673805985.360,-14.160,-34.668,-22.949,-11.230,0.000
1673805985.364,-4.883,-35.156,-24.902,-18.066,0.000
1673805985.368,-1.465,-35.156,-25.879,-18.555,0.000
1673805985.372,-14.160,-24.902,-30.273,-18.555,0.000
1673805985.376,-20.996,-18.066,-30.273,-13.672,0.000
1673805985.380,-12.695,-27.344,-30.762,-12.207,0.000
1673805985.384,-5.859,-27.344,-32.715,-20.020,0.000
1673805985.388,1.465,-24.414,-33.203,-25.391,0.000
1673805985.392,-10.742,-27.832,-34.180,-22.461,0.000
1673805985.395,-22.461,-29.785,-37.109,-21.484,0.000
1673805985.399,-17.578,-29.297,-37.109,-28.320,0.000
1673805985.403,-13.672,-27.832,-31.250,-22.949,0.000
1673805985.407,-12.207,-29.297,-22.949,-10.254,0.000
1673805985.411,-20.020,-29.297,-24.902,-14.648,0.000
1673805985.415,-15.137,-28.320,-31.250,-37.598,0.000
1673805985.419,-2.930,-19.531,-28.809,-34.180,0.000
1673805985.423,-0.977,-19.043,-24.414,-16.602,0.000
1673805985.427,-0.977,-24.414,-30.273,-23.926,0.000
1673805985.431,-5.859,-20.020,-29.297,-27.832,0.000
1673805985.434,-14.160,-25.391,-36.133,-31.738,0.000
1673805985.438,-18.555,-29.297,-42.480,-31.250,0.000
1673805985.442,-28.320,-27.344,-33.203,-30.273,0.000
1673805985.446,-28.320,-29.297,-30.762,-29.785,0.000
1673805985.450,-13.672,-23.926,-34.668,-28.320,0.000
1673805985.454,-4.395,-21.973,-39.551,-37.598,0.000
1673805985.458,-7.812,-27.832,-36.133,-38.086,0.000
1673805985.462,-28.809,-27.832,-28.320,-25.879,0.000
1673805985.466,-33.691,-27.832,-23.926,-14.648,0.000
1673805985.470,-22.949,-20.996,-25.879,-19.043,0.000
1673805985.474,-19.043,-18.066,-30.762,-26.855,0.000
1673805985.477,-12.207,-21.973,-25.879,-20.508,0.000
1673805985.481,-12.207,-20.508,-28.320,-20.508,0.000
1673805985.485,-17.578,-23.438,-39.551,-20.996,0.000
1673805985.489,-8.789,-34.180,-37.109,-24.414,0.000
1673805985.493,2.930,-30.273,-28.320,-26.367,0.000
1673805985.497,2.930,-24.902,-29.785,-30.762,0.000
1673805985.501,-8.789,-21.484,-36.621,-40.039,0.000
1673805985.505,-12.695,-19.531,-38.086,-36.621,0.000
1673805985.509,-6.836,-21.484,-33.691,-22.461,0.000
1673805985.513,-13.672,-21.484,-32.227,-17.090,0.000
1673805985.516,-17.578,-25.391,-35.156,-39.062,0.000
1673805985.520,-10.742,-15.137,-36.133,-39.062,0.000
1673805985.524,-7.324,-11.719,-33.691,-28.809,0.000
1673805985.528,-4.395,-23.926,-35.645,-31.738,0.000
1673805985.532,-0.488,-23.438,-37.109,-29.785,0.000
1673805985.536,8.301,-21.973,-31.738,-29.785,0.000
1673805985.540,0.977,-29.297,-36.133,-25.879,0.000
1673805985.544,-11.230,-31.738,-33.203,-24.902,0.000
1673805985.548,-5.859,-33.203,-24.414,-24.414,0.000
1673805985.552,-2.441,-27.832,-22.949,-14.648,0.000
1673805985.556,9.277,-15.137,-27.344,-1.465,0.000
1673805985.559,-4.395,-22.461,-31.738,1.465,0.000
1673805985.563,-29.297,-26.855,-22.461,-12.695,0.000
1673805985.567,-21.973,-15.137,-11.230,-20.996,0.000
1673805985.571,-15.625,-17.578,-10.742,-14.648,0.000
1673805985.575,-13.672,-29.785,-20.020,-7.812,0.000
1673805985.579,-13.184,-27.832,-22.949,-4.883,0.000
1673805985.583,-9.277,-28.320,-22.949,-20.020,0.000
1673805985.587,-13.672,-31.738,-28.809,-29.297,0.000
1673805985.591,-27.832,-35.645,-29.297,-23.926,0.000
1673805985.595,-22.461,-27.344,-25.391,-12.207,0.000
1673805985.599,-16.602,-18.066,-21.973,-7.812,0.000
1673805985.602,-15.137,-16.113,-25.391,-23.926,0.000
1673805985.606,-5.859,-14.648,-33.691,-30.762,0.000
1673805985.610,0.977,-19.531,-38.574,-25.879,0.000
1673805985.614,-2.441,-23.438,-41.016,-25.391,0.000
1673805985.618,-8.301,-24.902,-27.344,-30.762,0.000
1673805985.622,-5.371,-22.949,-17.578,-33.691,0.000
1673805985.626,-3.418,-26.367,-17.578,-20.996,0.000
1673805985.630,-9.766,-25.879,-23.438,-13.672,0.000
1673805985.634,-11.230,-25.391,-31.738,-30.762,0.000
1673805985.638,-9.277,-33.203,-30.273,-33.203,0.000
1673805985.641,-11.230,-26.855,-27.344,-25.879,0.000
1673805985.645,-17.090,-14.160,-29.297,-23.438,0.000
1673805985.649,-24.902,-25.879,-36.133,-21.973,0.000
1673805985.653,-24.414,-40.039,-36.621,-24.902,0.000
1673805985.657,-9.766,-28.809,-39.062,-24.902,0.000
1673805985.661,-6.348,-20.020,-35.645,-23.438,0.000
1673805985.665,-17.578,-27.832,-31.738,-22.949,0.000
1673805985.669,-25.391,-22.949,-36.133,-22.949,0.000
1673805985.673,-30.273,-20.020,-36.621,-17.090,0.000
1673805985.677,-24.902,-31.250,-30.762,-10.742,0.000
1673805985.681,-18.066,-32.227,-28.809,-10.742,0.000
1673805985.684,-18.066,-25.879,-30.273,-21.484,0.000
1673805985.688,-16.113,-20.996,-30.273,-24.902,0.000
1673805985.692,-11.719,-20.020,-30.273,-14.160,0.000
1673805985.696,-12.695,-26.855,-33.203,-13.184,0.000
1673805985.700,-8.789,-38.574,-38.574,-26.855,0.000
1673805985.704,-11.719,-31.738,-35.156,-24.902,0.000
1673805985.708,-10.254,-21.484,-31.250,-12.695,0.000
1673805985.712,-8.301,-24.414,-37.109,-15.137,0.000
1673805985.716,-7.812,-23.438,-42.969,-20.508,0.000
1673805985.720,-4.883,-19.531,-36.133,-21.973,0.000
1673805985.724,-1.953,-21.973,-27.344,-18.066,0.000
1673805985.727,0.977,-28.320,-31.250,-22.949,0.000
1673805985.731,1.465,-23.926,-28.809,-24.414,0.000
1673805985.735,-2.930,-26.855,-23.926,-19.531,0.000
1673805985.739,-6.836,-25.879,-18.555,-8.301,0.000
1673805985.743,-10.254,-12.695,-15.625,-3.418,0.000
1673805985.747,-2.441,-8.789,-19.043,-12.207,0.000
1673805985.751,1.953,-8.789,-17.578,-1.465,0.000
1673805985.755,-10.254,-17.578,-20.020,-3.906,0.000
1673805985.759,-1.953,-13.672,-20.020,-6.348,0.000
1673805985.763,5.371,-10.742,-19.043,2.441,0.000
1673805985.767,-8.301,-11.719,-19.531,1.953,0.000
1673805985.770,-15.625,-14.648,-20.996,-5.371,0.000
1673805985.774,-11.719,-26.855,-25.391,-0.488,0.000
1673805985.778,-22.461,-23.438,-19.531,4.883,0.000
1673805985.782,-32.227,-14.648,-20.996,-0.977,0.000
1673805985.786,-20.020,-17.578,-28.809,0.000,0.000
1673805985.790,-18.066,-22.949,-28.320,-5.859,0.000
1673805985.794,-17.578,-20.508,-27.832,0.977,0.000
1673805985.798,-15.137,-12.207,-24.902,8.301,0.000
1673805985.802,-28.320,-9.277,-26.855,-18.066,0.000
1673805985.806,-26.367,-11.230,-33.203,-27.832,0.000
1673805985.809,-18.066,-21.484,-32.227,-18.066,0.000
1673805985.813,-21.484,-24.414,-27.832,-17.090,0.000
1673805985.817,-12.695,-20.020,-28.320,-16.113,0.000
1673805985.821,3.906,-19.043,-28.809,-11.719,0.000
1673805985.825,-0.977,-16.113,-28.320,-11.719,0.000
1673805985.829,-8.789,-20.508,-34.180,-4.883,0.000
1673805985.833,-4.395,-19.043,-31.250,-9.277,0.000
1673805985.837,1.953,-16.602,-23.926,-20.020,0.000
1673805985.841,-6.348,-20.508,-30.762,-6.836,0.000
1673805985.845,-18.066,-15.137,-40.527,-7.812,0.000
1673805985.849,-5.371,-8.789,-32.715,-26.855,0.000
1673805985.852,11.719,-12.695,-24.414,-28.809,0.000
1673805985.856,13.672,-12.207,-27.344,-26.855,0.000
1673805985.860,1.953,-9.766,-30.762,-20.508,0.000
1673805985.864,-16.113,-19.043,-27.832,-22.949,0.000
1673805985.868,-19.043,-19.531,-25.391,-20.996,0.000
1673805985.872,-21.973,-17.090,-25.391,-8.789,0.000
1673805985.876,-29.785,-18.066,-20.996,-2.441,0.000
1673805985.880,-26.855,-6.348,-11.719,4.883,0.000
1673805985.884,-13.184,-2.930,-14.648,1.465,0.000
1673805985.888,-5.859,-7.812,-15.137,-1.953,0.000
1673805985.891,-6.836,-6.836,-8.789,-2.441,0.000
1673805985.895,-3.418,-6.836,-9.766,0.977,0.000
1673805985.899,10.254,-4.395,-13.672,-1.465,0.000
1673805985.903,16.602,0.977,-15.625,-0.488,0.000
1673805985.907,6.348,-0.488,-9.766,-2.441,0.000
1673805985.911,0.977,0.000,-3.906,1.465,0.000
1673805985.915,-3.906,-0.977,-4.395,2.441,0.000
1673805985.919,-6.836,-7.324,-6.348,-13.184,0.000
1673805985.923,-8.789,-12.207,-7.812,-11.719,0.000
1673805985.927,-9.766,-8.301,-6.348,1.465,0.000
1673805985.931,-5.371,-1.953,1.953,13.672,0.000
1673805985.934,-5.371,-3.418,-0.977,3.906,0.000
1673805985.938,-3.906,-5.859,-12.695,-10.254,0.000
1673805985.942,0.000,-9.766,-14.648,-3.906,0.000
1673805985.946,5.859,-9.277,-9.766,-3.418,0.000
1673805985.950,2.930,-12.207,-5.859,-10.742,0.000
1673805985.954,-4.395,-15.625,-6.348,-13.672,0.000
1673805985.958,0.000,-4.395,-4.883,-2.930,0.000
1673805985.962,3.418,2.930,-4.883,8.789,0.000
1673805985.966,-4.395,-7.324,-11.230,2.930,0.000
1673805985.970,-4.395,-12.695,-17.578,-8.301,0.000
1673805985.974,8.789,0.488,-18.555,-3.418,0.000
1673805985.977,3.906,-1.953,-19.043,7.324,0.000
1673805985.981,-6.348,-7.812,-21.484,3.418,0.000
1673805985.985,-6.348,-12.695,-11.719,0.000,0.000
1673805985.989,-2.930,-18.555,-10.742,7.324,0.000
1673805985.993,1.953,-7.324,-17.090,17.090,0.000
1673805985.997,0.000,0.977,-7.324,12.695,0.000
1673805986.001,-6.836,-1.953,-1.465,7.324,0.000
1673805986.005,-16.113,-4.883,-4.883,3.906,0.000
1673805986.009,-7.812,-4.883,-7.324,6.348,0.000
1673805986.013,-5.371,-9.277,-4.883,6.348,0.000
1673805986.017,-12.695,-11.230,-12.207,-1.953,0.000
1673805986.020,-10.742,-12.207,-14.160,0.000,0.000
1673805986.024,-15.625,-11.230,-10.254,-0.977,0.000
1673805986.028,-10.254,-10.254,-11.719,-12.207,0.000
1673805986.032,-0.977,-3.906,-13.672,-11.230,0.000
1673805986.036,-12.695,-17.090,-27.344,-11.230,0.000
1673805986.040,-9.277,-33.691,-28.809,-9.277,0.000
1673805986.044,-0.488,-42.480,-17.578,-8.789,0.000
1673805986.048,-13.672,-31.250,-19.043,-13.672,0.000
1673805986.052,-14.648,-12.695,-26.855,-18.066,0.000
1673805986.056,-14.648,-13.184,-31.250,-26.367,0.000
1673805986.059,-13.672,-18.066,-32.715,-19.043,0.000
1673805986.063,-8.789,-33.691,-38.086,-18.066,0.000
1673805986.067,4.395,-23.926,-36.133,-14.648,0.000
1673805986.071,11.719,-0.977,-41.992,-7.324,0.000
1673805986.075,2.441,-5.371,-41.992,-10.742,0.000
1673805986.079,-5.371,-16.113,-23.438,-11.230,0.000
1673805986.083,-5.371,-24.414,-30.273,-14.160,0.000
1673805986.087,-10.742,-18.066,-34.180,-19.043,0.000
1673805986.091,-22.461,-19.531,-21.484,-16.113,0.000
1673805986.095,-21.973,-15.137,-23.438,-16.602,0.000
1673805986.099,-29.785,-16.113,-25.391,-22.461,0.000
1673805986.102,-41.992,-33.203,-33.203,-29.785,0.000
1673805986.106,-37.598,-25.391,-42.969,-24.902,0.000
1673805986.110,-27.344,-18.066,-41.992,-19.531,0.000
1673805986.114,-22.949,-24.414,-30.273,-20.508,0.000
1673805986.118,-37.598,-19.531,-24.414,-23.438,0.000
1673805986.122,-41.992,-8.301,-28.320,-17.578,0.000
1673805986.126,-35.645,-5.371,-27.344,-5.859,0.000
1673805986.130,-38.574,-14.160,-27.832,-5.859,0.000
1673805986.134,-36.133,-18.555,-30.762,-21.973,0.000
1673805986.138,-21.484,-19.531,-33.691,-26.367,0.000
1673805986.142,-19.531,-16.602,-32.227,-12.695,0.000
1673805986.145,-26.367,-23.926,-24.902,-17.090,0.000
1673805986.149,-15.625,-30.762,-19.531,-20.996,0.000
1673805986.153,-8.301,-21.973,-26.855,-23.926,0.000
1673805986.157,-20.996,-20.508,-35.156,-18.555,0.000
1673805986.161,-13.672,-18.555,-30.762,-9.766,0.000
1673805986.165,-11.719,-9.277,-26.367,-17.090,0.000
1673805986.169,-19.531,-13.672,-25.879,-19.043,0.000
1673805986.173,-12.695,-12.207,-31.250,-14.160,0.000
1673805986.177,0.000,-9.766,-37.598,-13.184,0.000
1673805986.181,-3.418,-12.207,-34.668,-21.484,0.000
1673805986.184,-4.395,-14.648,-27.832,-24.902,0.000
1673805986.188,-12.207,-24.414,-29.297,-24.414,0.000
1673805986.192,-43.457,-29.785,-29.785,-26.367,0.000
1673805986.196,-46.875,-21.973,-19.531,-20.508,0.000
1673805986.200,-38.086,-21.484,-20.508,-31.250,0.000
1673805986.204,-31.738,-24.414,-23.926,-33.691,0.000
1673805986.208,-32.715,-18.555,-20.508,-10.742,0.000
1673805986.212,-39.551,-22.461,-30.762,-5.859,0.000
1673805986.216,-33.203,-22.949,-33.691,-19.043,0.000
1673805986.220,-33.691,-17.578,-26.855,-30.273,0.000
1673805986.224,-31.738,-21.973,-21.973,-25.391,0.000
1673805986.227,-25.391,-36.621,-22.461,-23.926,0.000
1673805986.231,-26.367,-33.691,-29.785,-26.855,0.000
1673805986.235,-30.762,-19.531,-27.344,-26.367,0.000
1673805986.239,-20.508,-20.996,-23.438,-26.367,0.000
1673805986.243,-21.973,-15.625,-33.203,-20.020,0.000
1673805986.247,-34.180,-15.137,-32.715,-18.555,0.000
1673805986.251,-29.785,-26.367,-17.090,-25.879,0.000
1673805986.255,-23.926,-21.973,-20.020,-20.996,0.000
1673805986.259,-21.973,-13.672,-23.438,-12.695,0.000
1673805986.263,-23.438,-17.578,-13.672,-6.348,0.000
1673805986.267,-13.672,-20.020,-12.695,-4.883,0.000
1673805986.270,1.953,-17.090,-20.020,-8.789,0.000
1673805986.274,3.418,-20.508,-21.973,1.465,0.000
1673805986.278,-2.441,-20.020,-20.996,-4.883,0.000
1673805986.282,-14.648,-14.160,-23.438,-17.090,0.000
1673805986.286,-15.625,-22.949,-18.066,-11.230,0.000
1673805986.290,-11.230,-29.785,-18.555,-11.230,0.000
1673805986.294,-12.695,-26.855,-27.832,-14.160,0.000
1673805986.298,-8.789,-16.602,-29.297,-15.625,0.000
1673805986.302,-7.812,-13.184,-20.508,-15.137,0.000
1673805986.306,-9.277,-19.043,-17.578,-13.672,0.000
1673805986.309,-12.207,-11.230,-27.344,-9.766,0.000
1673805986.313,-21.973,-8.301,-31.250,-8.789,0.000
1673805986.317,-15.625,-8.789,-22.949,-11.719,0.000
1673805986.321,-3.418,-12.207,-15.625,-4.395,0.000
1673805986.325,-3.906,-18.066,-15.625,-6.836,0.000
1673805986.329,-5.859,-8.789,-16.602,-6.836,0.000
1673805986.333,-1.953,-17.090,-19.043,-6.348,0.000
1673805986.337,7.812,-20.020,-22.461,-19.043,0.000
1673805986.341,8.789,-10.254,-21.484,-10.742,0.000
1673805986.345,-9.277,-19.043,-23.926,-2.441,0.000
1673805986.349,-10.742,-25.879,-23.438,-3.906,0.000
1673805986.352,-10.254,-32.715,-18.555,-10.742,0.000
1673805986.356,-23.926,-18.555,-25.879,-20.508,0.000
1673805986.360,-22.461,-8.301,-31.250,-15.625,0.000
1673805986.364,-16.602,-15.137,-20.508,-10.254,0.000
1673805986.368,-19.531,-19.043,-18.555,-20.508,0.000
1673805986.372,-23.438,-23.438,-27.832,-26.367,0.000
1673805986.376,-13.184,-19.531,-20.508,-7.812,0.000
1673805986.380,-13.672,-20.020,-20.508,-10.742,0.000
1673805986.384,-15.625,-19.531,-24.414,-24.414,0.000
1673805986.388,-3.418,-10.742,-27.344,-18.555,0.000
1673805986.392,-7.324,-15.137,-33.203,-13.672,0.000
1673805986.395,-16.602,-25.879,-36.133,-13.672,0.000
1673805986.399,-23.438,-33.691,-36.621,-21.484,0.000
1673805986.403,-36.133,-36.133,-20.020,-36.621,0.000
1673805986.407,-46.387,-28.320,-9.277,-32.715,0.000
1673805986.411,-44.434,-21.973,-14.648,-22.949,0.000
1673805986.415,-34.668,-20.508,-19.531,-30.762,0.000
1673805986.419,-24.414,-16.602,-22.461,-29.297,0.000
1673805986.423,-35.645,-23.926,-23.926,-16.602,0.000
1673805986.427,-35.645,-25.391,-24.414,-15.137,0.000
1673805986.431,-18.066,-19.531,-30.273,-15.137,0.000
1673805986.434,-17.090,-22.949,-34.668,-17.578,0.000
1673805986.438,-32.715,-26.855,-27.832,-24.414,0.000
1673805986.442,-35.645,-28.320,-21.973,-17.578,0.000
1673805986.446,-29.785,-24.414,-25.391,-9.766,0.000
1673805986.450,-29.785,-18.555,-21.973,-18.555,0.000
1673805986.454,-23.926,-27.832,-23.438,-13.672,0.000
1673805986.458,-16.602,-27.832,-27.832,-0.488,0.000
1673805986.462,-16.113,-19.531,-29.785,-11.719,0.000
1673805986.466,-9.277,-23.926,-39.062,-17.578,0.000
1673805986.470,7.812,-21.973,-31.738,-5.859,0.000
1673805986.474,2.441,-24.414,-19.043,-0.488,0.000
1673805986.477,-14.160,-27.344,-27.344,2.930,0.000
1673805986.481,-19.531,-25.391,-27.832,1.953,0.000
1673805986.485,-19.531,-19.043,-19.043,-5.859,0.000
1673805986.489,-20.020,-19.531,-27.344,-7.324,0.000
1673805986.493,-24.414,-21.484,-36.621,-4.883,0.000
1673805986.497,-13.672,-19.043,-38.574,-9.766,0.000
1673805986.501,-9.277,-24.902,-32.715,-9.277,0.000
1673805986.505,-16.113,-36.133,-27.344,-16.602,0.000
1673805986.509,-13.184,-31.738,-33.691,-21.484,0.000
1673805986.513,-11.719,-23.926,-27.344,-12.207,0.000
1673805986.517,-25.879,-22.461,-18.555,-17.090,0.000
1673805986.520,-34.668,-18.066,-25.879,-24.414,0.000
1673805986.524,-21.973,-24.902,-40.039,-19.531,0.000
1673805986.528,-21.973,-34.668,-35.156,-10.742,0.000
1673805986.532,-24.902,-25.879,-24.414,-18.066,0.000
1673805986.536,-15.137,-19.531,-22.461,-18.066,0.000
1673805986.540,-6.836,-15.625,-17.578,-16.602,0.000
1673805986.544,-0.977,-9.766,-18.066,-13.672,0.000
1673805986.548,-11.719,-22.949,-23.926,-15.625,0.000
1673805986.552,-16.602,-38.086,-22.461,-35.645,0.000
1673805986.556,0.000,-26.855,-20.996,-35.645,0.000
1673805986.559,10.254,-28.320,-21.484,-16.602,0.000
1673805986.563,10.254,-22.949,-33.203,-11.719,0.000
1673805986.567,-7.324,-12.695,-41.504,-27.344,0.000
1673805986.571,-17.090,-22.949,-18.066,-32.227,0.000
1673805986.575,-12.695,-22.949,-15.137,-29.785,0.000
1673805986.579,-14.160,-20.996,-25.391,-23.926,0.000
1673805986.583,-8.789,-49.316,-30.762,-18.066,0.000
1673805986.587,-8.789,-58.594,-33.203,-7.812,0.000
1673805986.591,-21.973,-18.555,-12.207,4.883,0.000
1673805986.595,-23.438,-11.230,-8.301,-7.812,0.000
1673805986.599,-18.555,-28.320,-33.691,-27.832,0.000
1673805986.602,-12.207,-18.066,-45.410,-35.645,0.000
1673805986.606,-7.812,-7.812,-29.785,-25.879,0.000
1673805986.610,-20.020,-17.090,-26.367,-18.066,0.000
1673805986.614,-22.949,-20.996,-28.809,-19.043,0.000
1673805986.618,-11.230,-18.066,-18.555,-13.672,0.000
1673805986.622,-9.766,-17.578,-22.461,-8.789,0.000
1673805986.626,-2.441,-22.461,-21.973,-4.395,0.000
1673805986.630,1.465,-40.527,-23.438,-1.953,0.000
1673805986.634,-0.977,-29.297,-30.762,0.000,0.000
1673805986.638,-5.859,0.977,-20.996,-8.789,0.000
1673805986.642,-7.324,-3.418,-23.438,-14.160,0.000
1673805986.645,-0.488,-8.301,-30.273,-8.301,0.000
1673805986.649,13.184,-4.883,-24.902,-10.254,0.000
1673805986.653,20.508,-6.836,-24.414,-22.461,0.000
1673805986.657,13.184,-8.789,-32.227,-18.555,0.000
1673805986.661,7.812,-7.812,-38.574,-12.695,0.000
1673805986.665,19.043,-12.207,-30.273,-15.137,0.000
1673805986.669,4.395,-17.578,-21.973,-15.625,0.000
1673805986.673,-25.879,-27.344,-21.484,-18.555,0.000
1673805986.677,-17.090,-30.762,-27.344,-18.555,0.000
1673805986.681,1.953,-21.484,-28.320,-14.160,0.000
1673805986.684,-9.277,-20.020,-26.855,-15.625,0.000
1673805986.688,-14.648,-19.531,-34.180,-23.926,0.000
1673805986.692,-5.859,-11.719,-31.250,-11.719,0.000
1673805986.696,-15.137,-15.137,-29.785,-2.441,0.000
1673805986.700,-13.184,-31.738,-35.156,-1.465,0.000
1673805986.704,-8.789,-35.156,-30.762,-2.930,0.000
1673805986.708,-22.461,-18.066,-25.391,-18.066,0.000
1673805986.712,-20.020,-6.348,-20.996,-14.160,0.000
1673805986.716,-13.672,-8.301,-21.973,-7.324,0.000
1673805986.720,-17.090,-12.695,-28.320,-13.672,0.000
1673805986.724,-14.160,-12.207,-23.926,0.488,0.000
1673805986.727,-15.137,-16.602,-22.461,8.789,0.000
1673805986.731,-14.648,-21.973,-33.691,0.977,0.000
1673805986.735,-2.930,-29.297,-42.969,-9.277,0.000
1673805986.739,5.371,-34.668,-36.133,-13.184,0.000
1673805986.743,10.742,-23.926,-20.996,-6.348,0.000
1673805986.747,9.277,-24.902,-23.438,0.000,0.000
1673805986.751,-13.672,-25.879,-28.320,2.441,0.000
1673805986.755,-22.461,-14.160,-23.926,2.930,0.000
1673805986.759,-10.742,-21.973,-26.367,0.977,0.000
1673805986.763,-21.484,-22.949,-26.855,3.906,0.000
1673805986.767,-24.414,-10.742,-25.391,-2.930,0.000
1673805986.770,-20.020,-22.461,-36.133,-11.719,0.000
1673805986.774,-27.344,-31.738,-40.527,-7.324,0.000
1673805986.778,-24.414,-30.762,-39.551,-12.207,0.000
1673805986.782,-19.043,-23.926,-38.086,-23.926,0.000
1673805986.786,-14.160,-22.461,-36.133,-16.602,0.000
1673805986.790,-16.113,-29.785,-44.922,-14.648,0.000
1673805986.794,-23.438,-32.715,-40.527,-15.137,0.000
1673805986.798,-17.090,-28.809,-14.648,-19.531,0.000
1673805986.802,-19.043,-20.020,-11.719,-37.598,0.000
1673805986.806,-26.367,-17.578,-24.902,-41.992,0.000
1673805986.809,-15.625,-19.043,-21.973,-33.203,0.000
1673805986.813,-10.254,-24.414,-22.461,-24.902,0.000
1673805986.817,-16.602,-29.297,-26.855,-19.531,0.000
1673805986.821,-20.508,-17.090,-22.949,-23.438,0.000
1673805986.825,-17.090,-11.719,-16.602,-17.578,0.000
1673805986.829,-7.324,-9.277,-12.695,0.488,0.000
1673805986.833,-24.902,-20.996,-9.766,-7.324,0.000
1673805986.837,-45.410,-41.504,-15.625,-19.043,0.000
1673805986.841,-36.133,-32.715,-35.645,-10.254,0.000
1673805986.845,-27.344,-14.160,-38.086,-8.789,0.000
1673805986.849,-25.879,-10.742,-24.414,-22.461,0.000
1673805986.852,-20.020,-18.066,-25.391,-38.086,0.000
1673805986.856,-4.883,-16.602,-23.926,-25.391,0.000
1673805986.860,3.418,-14.648,-18.066,-15.625,0.000
1673805986.864,5.859,-17.578,-24.902,-18.555,0.000
1673805986.868,12.695,-20.996,-37.598,-17.578,0.000
1673805986.872,19.531,-17.578,-34.668,-23.926,0.000
1673805986.876,15.625,-10.254,-18.555,-14.160,0.000
1673805986.880,1.953,-13.184,-11.719,-5.371,0.000
1673805986.884,-3.418,-9.277,-12.207,-13.672,0.000
1673805986.888,-1.465,-6.836,-25.879,-13.184,0.000
1673805986.892,-0.488,-21.973,-29.785,-8.789,0.000
1673805986.895,-6.348,-26.367,-22.949,-17.090,0.000
1673805986.899,-12.207,-6.836,-31.738,-27.832,0.000
1673805986.903,5.371,-3.418,-29.785,-30.762,0.000
1673805986.907,12.695,-11.719,-22.949,-19.043,0.000
1673805986.911,7.812,-2.441,-11.719,-0.488,0.000
1673805986.915,-15.625,6.836,-2.441,2.930,0.000
1673805986.919,-15.625,12.695,-3.906,-0.977,0.000
1673805986.923,-10.742,11.230,-9.277,6.348,0.000
1673805986.927,-23.926,5.859,-11.719,19.043,0.000
1673805986.931,-16.113,12.695,-15.625,10.742,0.000
1673805986.934,-11.230,14.160,-19.531,-3.418,0.000
1673805986.938,-10.254,-3.906,-14.648,2.930,0.000
1673805986.942,-17.090,-3.418,-11.230,7.812,0.000
1673805986.946,-18.066,-0.488,-11.230,-1.953,0.000
1673805986.950,-12.695,-9.277,-13.184,-7.324,0.000
1673805986.954,-3.906,-5.371,-16.602,-3.418,0.000
1673805986.958,8.789,9.766,-18.066,1.465,0.000
1673805986.962,11.230,16.602,-12.695,-0.977,0.000
1673805986.966,5.371,10.254,-3.906,1.953,0.000
1673805986.970,0.977,2.930,-11.230,2.930,0.000
1673805986.974,-4.883,4.395,-10.254,-2.930,0.000
1673805986.977,-3.418,-3.906,-10.254,-2.441,0.000
1673805986.981,-3.418,-11.719,-17.578,-6.836,0.000
1673805986.985,2.930,-0.488,-14.160,-13.184,0.000
1673805986.989,6.836,-8.301,-12.695,-22.461,0.000
1673805986.993,-12.695,-9.766,-17.090,-13.184,0.000
1673805986.997,-23.926,-6.836,-14.160,-7.812,0.000
1673805987.001,-24.902,-10.742,-10.742,-21.484,0.000
1673805987.005,-25.879,-15.625,-20.508,-18.066,0.000
1673805987.009,-15.137,-7.812,-10.254,-3.418,0.000
1673805987.013,-21.973,-1.465,-0.977,-1.465,0.000
1673805987.017,-32.227,-9.277,-16.113,-12.695,0.000
1673805987.020,-10.254,-8.301,-13.184,-11.230,0.000
1673805987.024,3.418,0.488,-13.672,4.395,0.000
1673805987.028,-6.348,0.000,-22.461,4.883,0.000
1673805987.032,-14.648,-2.441,-8.301,4.395,0.000
1673805987.036,-8.301,-2.441,-1.465,2.930,0.000
1673805987.040,-13.184,-3.418,-5.371,-1.953,0.000
1673805987.044,-20.996,-11.230,-14.160,0.000,0.000
1673805987.048,-5.859,-10.254,-18.555,0.488,0.000
1673805987.052,9.277,-5.371,-17.090,-5.859,0.000
1673805987.056,7.324,-16.113,-18.555,2.930,0.000
1673805987.059,1.465,-10.254,-16.113,9.766,0.000
1673805987.063,-0.977,-5.859,-24.902,-0.977,0.000
1673805987.067,-1.953,-6.836,-25.879,-5.859,0.000
1673805987.071,0.977,-2.930,-16.113,-7.324,0.000
1673805987.075,-0.488,-13.672,-22.461,-5.859,0.000
1673805987.079,6.836,-12.695,-37.109,-2.930,0.000
1673805987.083,13.672,-14.160,-25.879,-11.719,0.000
1673805987.087,7.324,-21.973,-9.766,-16.113,0.000
1673805987.091,10.254,-11.719,-19.043,-13.672,0.000
1673805987.095,0.977,-16.602,-29.297,-21.484,0.000
1673805987.099,-12.695,-20.996,-23.926,-23.438,0.000
1673805987.102,-11.719,-20.996,-27.832,-20.508,0.000
1673805987.106,-27.832,-28.320,-46.387,-32.227,0.000
1673805987.110,-40.527,-24.902,-41.504,-29.785,0.000
1673805987.114,-26.367,-20.020,-36.621,-20.508,0.000
1673805987.118,-23.926,-29.297,-33.203,-31.738,0.000
1673805987.122,-34.668,-26.855,-23.438,-36.133,0.000
1673805987.126,-37.109,-38.086,-43.945,-30.762,0.000
1673805987.130,-42.480,-57.129,-50.293,-26.855,0.000
1673805987.134,-39.551,-31.250,-22.949,-19.043,0.000
1673805987.138,-32.227,-18.066,-17.578,-30.273,0.000
1673805987.142,-38.086,-24.902,-22.949,-30.762,0.000
1673805987.145,-39.062,-25.391,-20.996,-21.973,0.000
1673805987.149,-44.434,-23.926,-23.438,-30.273,0.000
1673805987.153,-51.270,-18.555,-26.855,-30.762,0.000
1673805987.157,-51.758,-17.090,-28.320,-25.879,0.000
1673805987.161,-49.316,-24.414,-28.320,-17.578,0.000
1673805987.165,-37.109,-37.109,-26.367,-20.020,0.000
1673805987.169,-22.461,-41.504,-30.273,-25.391,0.000
1673805987.173,-15.625,-31.738,-44.922,-17.578,0.000
1673805987.177,-18.066,-34.180,-37.598,-12.207,0.000
1673805987.181,-31.250,-34.668,-20.020,-19.043,0.000
1673805987.185,-22.949,-25.879,-21.484,-29.785,0.000
1673805987.188,-13.184,-27.344,-30.273,-22.461,0.000
1673805987.192,-11.719,-23.926,-24.902,-7.324,0.000
1673805987.196,-26.367,-24.414,-46.875,-13.672,0.000
1673805987.200,-35.156,-32.715,-60.547,-24.414,0.000
1673805987.204,-14.160,-19.531,-23.438,-10.742,0.000
1673805987.208,-4.883,-4.883,-11.230,-1.465,0.000
1673805987.212,-4.395,-14.160,-20.508,-8.301,0.000
1673805987.216,-5.371,-16.113,-25.391,-20.996,0.000
1673805987.220,-5.859,-14.648,-24.414,-19.531,0.000
1673805987.224,-1.953,-22.949,-27.344,-3.418,0.000
1673805987.227,-6.836,-22.949,-29.785,-4.883,0.000
1673805987.231,-17.090,-20.020,-20.996,-20.996,0.000
1673805987.235,-22.461,-19.043,-22.949,-28.809,0.000
1673805987.239,-20.996,-16.113,-26.855,-16.113,0.000
1673805987.243,-17.578,-23.438,-26.367,-8.301,0.000
1673805987.247,-18.066,-18.066,-27.832,-5.859,0.000
1673805987.251,-11.230,-8.789,-21.484,-6.348,0.000
1673805987.255,-13.184,-23.438,-23.438,-10.254,0.000
1673805987.259,-25.391,-30.273,-31.250,-11.230,0.000
1673805987.263,-16.113,-17.578,-27.832,-13.184,0.000
1673805987.267,-4.395,-8.789,-30.762,-11.230,0.000
1673805987.270,2.930,-12.207,-37.109,-14.648,0.000
1673805987.274,4.395,-17.578,-32.227,-12.695,0.000
1673805987.278,3.418,-10.742,-28.809,-5.859,0.000
1673805987.282,0.000,-5.859,-30.273,-8.301,0.000
1673805987.286,-23.926,-12.207,-23.926,-14.648,0.000
1673805987.290,-37.598,-18.555,-26.855,-13.672,0.000
1673805987.294,-30.273,-13.184,-33.691,-3.906,0.000
1673805987.298,-22.949,-21.484,-24.414,-1.465,0.000
1673805987.302,-24.414,-22.461,-17.090,-12.695,0.000
1673805987.306,-37.109,-19.043,-20.020,-20.508,0.000
1673805987.310,-37.598,-21.484,-24.902,-16.113,0.000
1673805987.313,-29.297,-28.809,-33.691,-4.883,0.000
1673805987.317,-27.832,-28.320,-29.785,-18.066,0.000
1673805987.321,-24.414,-15.137,-20.996,-25.879,0.000
1673805987.325,-26.367,-20.508,-29.785,-24.414,0.000
1673805987.329,-21.484,-25.391,-31.738,-22.949,0.000
1673805987.333,-11.719,-21.484,-24.902,-20.996,0.000
1673805987.337,-16.113,-20.508,-22.461,-16.602,0.000
1673805987.341,-25.879,-14.648,-22.461,-5.859,0.000
1673805987.345,-35.156,-15.625,-31.250,-0.977,0.000
1673805987.349,-24.414,-12.695,-30.762,-9.277,0.000
1673805987.352,-14.160,-24.902,-24.414,-17.090,0.000
1673805987.356,-11.230,-46.387,-21.484,-10.254,0.000
1673805987.360,-3.906,-31.250,-19.531,-8.301,0.000
1673805987.364,13.672,-12.695,-45.898,-14.648,0.000
1673805987.368,20.508,-12.695,-44.922,-13.672,0.000
1673805987.372,-4.395,-20.508,-13.672,-22.461,0.000
1673805987.376,-27.344,-20.508,-14.648,-20.508,0.000
1673805987.380,-24.902,-9.766,-18.555,-6.836,0.000
1673805987.384,-10.254,-5.371,-16.113,-11.719,0.000
1673805987.388,-0.977,-8.789,-18.555,-18.555,0.000
1673805987.392,-10.254,-24.902,-34.180,-26.855,0.000
1673805987.395,-22.949,-43.945,-41.016,-21.973,0.000
1673805987.399,-9.277,-29.785,-32.715,-13.184,0.000
1673805987.403,-15.137,-10.254,-29.785,-23.926,0.000
1673805987.407,-30.762,-13.672,-35.156,-28.809,0.000
1673805987.411,-33.691,-15.137,-30.762,-17.578,0.000
1673805987.415,-30.762,-18.555,-30.273,-20.020,0.000
1673805987.419,-22.461,-17.578,-37.109,-28.809,0.000
1673805987.423,-21.484,-14.160,-32.715,-35.156,0.000
1673805987.427,-18.066,-28.809,-30.762,-35.156,0.000
1673805987.431,-29.297,-30.273,-31.738,-40.039,0.000
1673805987.435,-39.062,-20.996,-27.344,-44.922,0.000
1673805987.438,-31.738,-25.391,-32.715,-38.574,0.000
1673805987.442,-35.645,-22.461,-39.551,-35.156,0.000
1673805987.446,-37.109,-25.391,-49.805,-29.297,0.000
1673805987.450,-44.922,-33.691,-61.523,-36.133,0.000
