timestamp,TP9,AF7,AF8,TP10,Right AUX
0.000,-34.668,-25.879,-33.203,-14.648,0.000
4.000,-30.762,-21.973,-32.715,-20.996,0.000
8.000,-32.715,-26.367,-39.551,-33.691,0.000
12.000,-37.598,-25.879,-37.598,-26.367,0.000
16.000,-41.504,-27.344,-34.668,-22.949,0.000
20.000,-26.855,-28.809,-35.645,-34.668,0.000
23.000,-20.508,-27.344,-33.691,-33.203,0.000
27.000,-31.738,-28.809,-37.598,-29.785,0.000
31.000,-48.340,-25.391,-40.527,-28.320,0.000
35.000,-52.246,-20.020,-37.109,-20.508,0.000
39.000,-40.527,-23.926,-40.039,-25.879,0.000
43.000,-32.715,-29.297,-41.016,-32.227,0.000
47.000,-20.996,-30.273,-39.062,-31.250,0.000
51.000,-12.207,-32.715,-37.598,-28.809,0.000
55.000,-26.367,-37.598,-33.203,-32.227,0.000
59.000,-21.973,-39.551,-34.180,-29.785,0.000
62.000,-10.742,-31.738,-33.203,-21.484,0.000
66.000,-23.438,-30.273,-36.621,-31.738,0.000
70.000,-16.113,-38.574,-43.457,-30.762,0.000
74.000,-0.977,-30.273,-35.156,-3.418,0.000
78.000,-25.391,-36.133,-23.438,-2.930,0.000
82.000,-62.012,-51.270,-20.996,-21.484,0.000
86.000,-68.848,-51.758,-19.043,-30.273,0.000
90.000,-72.754,-53.711,-16.113,-35.645,0.000
94.000,-74.707,-61.035,-12.695,-33.691,0.000
98.000,-71.289,-66.406,-10.742,-30.762,0.000
102.000,-78.125,-66.895,-11.719,-42.969,0.000
105.000,-80.078,-68.848,-10.742,-62.012,0.000
109.000,-83.984,-74.219,-7.812,-60.547,0.000
113.000,-92.285,-82.520,-3.906,-57.129,0.000
117.000,-97.656,-89.355,-4.883,-71.777,0.000
121.000,-103.516,-89.355,-7.812,-67.383,0.000
125.000,-107.422,-95.703,-3.418,-66.895,0.000
129.000,-99.609,-95.215,4.883,-72.754,0.000
133.000,-98.145,-92.285,9.766,-61.035,0.000
137.000,-99.121,-94.238,10.742,-64.453,0.000
141.000,-84.473,-95.703,15.137,-59.570,0.000
145.000,-94.727,-102.539,15.137,-53.223,0.000
148.000,-104.980,-99.609,10.742,-52.246,0.000
152.000,-93.750,-95.703,16.602,-44.434,0.000
156.000,-100.586,-100.098,17.578,-51.758,0.000
160.000,-99.609,-100.586,9.766,-50.293,0.000
164.000,-91.797,-98.633,10.742,-44.434,0.000
168.000,-94.727,-100.586,7.324,-55.176,0.000
172.000,-89.355,-103.027,6.836,-43.945,0.000
176.000,-96.680,-102.051,9.766,-39.551,0.000
180.000,-101.074,-106.934,8.789,-47.852,0.000
184.000,-101.562,-106.445,5.371,-39.551,0.000
187.000,-106.934,-102.539,-0.488,-44.922,0.000
191.000,-88.867,-98.633,-0.977,-46.875,0.000
195.000,-69.824,-92.773,-3.906,-40.527,0.000
199.000,-63.965,-89.355,-4.395,-40.527,0.000
203.000,-75.195,-81.543,-2.441,-38.086,0.000
207.000,-83.008,-72.754,-7.812,-30.762,0.000
211.000,-74.219,-69.336,-8.789,-13.184,0.000
215.000,-76.660,-74.707,-7.812,-7.324,0.000
219.000,-65.430,-73.730,-11.719,-22.949,0.000
223.000,-65.918,-69.336,-12.207,-32.227,0.000
227.000,-83.008,-66.895,-9.766,-23.926,0.000
230.000,-75.684,-65.918,-16.602,-9.766,0.000
234.000,-63.477,-63.477,-19.531,-15.625,0.000
238.000,-58.105,-59.082,-20.508,-27.344,0.000
242.000,-34.180,-54.199,-20.020,-25.391,0.000
246.000,-43.945,-54.199,-19.531,-20.020,0.000
250.000,-70.801,-54.199,-25.391,-15.625,0.000
254.000,-54.199,-46.875,-28.320,-17.578,0.000
258.000,-38.086,-42.969,-25.391,-20.020,0.000
262.000,-37.109,-45.410,-24.902,-20.020,0.000
266.000,-37.598,-43.945,-24.414,-18.555,0.000
270.000,-35.156,-38.574,-20.996,-19.043,0.000
273.000,-35.645,-38.086,-23.438,-24.902,0.000
277.000,-38.574,-38.574,-23.926,-27.832,0.000
281.000,-41.992,-41.504,-26.855,-31.738,0.000
285.000,-47.363,-41.504,-28.320,-31.250,0.000
289.000,-60.547,-37.598,-26.367,-29.785,0.000
293.000,-59.570,-37.598,-23.438,-31.738,0.000
297.000,-50.781,-39.551,-23.926,-25.879,0.000
301.000,-41.992,-36.133,-26.367,-17.578,0.000
305.000,-35.156,-31.250,-26.855,-22.461,0.000
309.000,-41.504,-35.645,-25.391,-23.438,0.000
312.000,-48.340,-34.180,-21.973,-23.438,0.000
316.000,-46.875,-32.227,-25.879,-27.832,0.000
320.000,-35.156,-44.434,-27.344,-29.785,0.000
324.000,-32.715,-44.922,-22.949,-38.086,0.000
328.000,-30.273,-36.133,-20.020,-41.992,0.000
332.000,-26.855,-36.621,-20.020,-33.691,0.000
336.000,-37.109,-36.133,-17.090,-26.855,0.000
340.000,-22.949,-29.297,-20.508,-35.645,0.000
344.000,-22.461,-25.879,-25.391,-32.715,0.000
348.000,-34.668,-25.879,-22.461,-22.949,0.000
352.000,-26.367,-26.367,-22.461,-26.855,0.000
355.000,-28.320,-29.297,-24.414,-31.738,0.000
359.000,-28.809,-27.344,-25.879,-28.809,0.000
363.000,-43.945,-24.414,-24.414,-19.531,0.000
367.000,-51.270,-25.879,-21.973,-12.695,0.000
371.000,-44.922,-24.414,-21.973,-16.602,0.000
375.000,-49.805,-27.832,-19.531,-20.020,0.000
379.000,-35.156,-33.203,-20.996,-20.508,0.000
383.000,-25.391,-30.273,-15.625,-14.648,0.000
387.000,-29.785,-30.273,-16.602,-15.625,0.000
391.000,-40.527,-34.668,-27.344,-23.926,0.000
395.000,-54.688,-31.738,-28.809,-19.531,0.000
398.000,-49.805,-31.738,-26.367,-19.531,0.000
402.000,-53.711,-35.156,-30.762,-22.461,0.000
406.000,-57.129,-32.227,-34.180,-27.832,0.000
410.000,-46.387,-32.227,-27.832,-22.461,0.000
414.000,-42.969,-35.645,-26.855,-12.207,0.000
418.000,-32.227,-28.809,-28.809,-21.484,0.000
422.000,-21.973,-24.414,-29.297,-33.691,0.000
426.000,-23.438,-27.344,-33.691,-37.109,0.000
430.000,-18.555,-27.344,-33.203,-27.832,0.000
434.000,-24.902,-25.879,-35.156,-17.090,0.000
437.000,-49.316,-22.949,-33.203,-13.184,0.000
441.000,-51.758,-24.902,-30.762,-17.090,0.000
445.000,-41.016,-30.273,-33.203,-13.184,0.000
449.000,-44.922,-34.180,-33.691,-13.184,0.000
453.000,-49.805,-34.668,-27.832,-19.043,0.000
457.000,-38.574,-30.273,-22.949,-18.555,0.000
461.000,-28.809,-27.832,-27.832,-29.785,0.000
465.000,-40.527,-28.320,-31.250,-34.180,0.000
469.000,-53.223,-34.668,-31.738,-31.738,0.000
473.000,-55.664,-32.715,-33.691,-26.855,0.000
477.000,-48.340,-18.555,-35.645,-12.695,0.000
480.000,-50.781,-18.066,-33.203,-10.742,0.000
484.000,-49.316,-21.973,-34.180,-15.625,0.000
488.000,-31.738,-21.973,-39.551,-24.902,0.000
492.000,-23.438,-27.344,-40.527,-26.855,0.000
496.000,-11.230,-24.902,-37.598,-24.414,0.000
500.000,8.301,-20.996,-33.203,-20.996,0.000
504.000,-2.930,-21.484,-31.250,-20.020,0.000
508.000,-33.203,-28.320,-26.855,-15.625,0.000
512.000,-28.809,-27.832,-20.020,11.230,0.000
516.000,-0.977,-18.555,-15.625,24.902,0.000
520.000,-2.930,-16.113,-21.484,-9.277,0.000
523.000,9.277,-17.090,-29.297,-32.227,0.000
527.000,25.879,-14.648,-26.855,-13.184,0.000
531.000,-14.160,-9.766,-31.738,2.930,0.000
535.000,-46.387,-7.324,-38.086,3.906,0.000
539.000,-48.340,-8.301,-40.039,-15.625,0.000
543.000,-44.922,-3.906,-40.039,-18.066,0.000
547.000,-35.645,1.953,-40.039,0.488,0.000
551.000,-36.621,5.859,-47.852,-5.859,0.000
555.000,-20.996,13.184,-51.270,-15.137,0.000
559.000,3.906,18.555,-46.387,-11.230,0.000
562.000,-5.859,16.113,-42.969,-4.883,0.000
566.000,-13.672,12.695,-52.246,-11.719,0.000
570.000,11.719,17.090,-61.035,-27.344,0.000
574.000,37.598,28.809,-64.453,-32.715,0.000
578.000,52.246,34.180,-66.895,-26.367,0.000
582.000,42.969,33.203,-67.383,-17.090,0.000
586.000,-0.977,35.645,-65.430,-12.207,0.000
590.000,-7.324,38.574,-64.453,-11.719,0.000
594.000,19.043,44.434,-67.383,-19.531,0.000
598.000,30.273,47.852,-67.383,-29.785,0.000
602.000,36.133,46.387,-64.941,-22.949,0.000
605.000,24.902,36.621,-63.965,-15.137,0.000
609.000,-1.953,32.227,-66.406,-6.348,0.000
613.000,-2.930,39.551,-63.965,-5.371,0.000
617.000,20.508,42.480,-58.105,2.930,0.000
621.000,13.672,39.062,-57.129,14.648,0.000
625.000,2.441,36.621,-57.129,14.648,0.000
629.000,18.066,38.086,-53.711,9.277,0.000
633.000,23.926,38.086,-52.734,17.578,0.000
637.000,27.344,35.645,-58.105,30.273,0.000
641.000,29.785,30.273,-59.570,22.949,0.000
645.000,36.621,31.250,-55.664,25.879,0.000
648.000,26.367,38.574,-51.270,32.715,0.000
652.000,23.438,32.715,-54.688,18.066,0.000
656.000,40.039,26.855,-62.012,5.371,0.000
660.000,36.133,31.250,-57.617,12.207,0.000
664.000,16.602,33.691,-50.781,9.766,0.000
668.000,25.391,35.645,-50.781,0.977,0.000
672.000,36.621,29.785,-52.734,-6.348,0.000
676.000,21.973,23.438,-53.223,-18.555,0.000
680.000,14.648,26.367,-51.270,-6.348,0.000
684.000,20.020,22.949,-54.688,1.465,0.000
687.000,27.344,20.508,-55.664,-9.277,0.000
691.000,19.531,25.391,-49.316,-2.930,0.000
695.000,6.348,20.020,-48.828,-1.465,0.000
699.000,-15.137,10.742,-49.316,0.000,0.000
703.000,-25.879,12.695,-53.711,-7.812,0.000
707.000,-10.742,11.230,-50.781,-11.719,0.000
711.000,-12.207,5.859,-49.805,3.906,0.000
715.000,-26.367,6.348,-52.734,8.301,0.000
719.000,-17.090,3.906,-44.922,9.277,0.000
723.000,-12.695,0.977,-42.969,4.883,0.000
727.000,-19.043,1.465,-45.410,-5.859,0.000
730.000,-7.812,0.000,-44.434,-7.324,0.000
734.000,-19.531,2.930,-49.316,-4.395,0.000
738.000,-26.855,0.977,-51.270,-17.578,0.000
742.000,-13.184,-3.418,-47.363,-13.184,0.000
746.000,-15.137,-2.930,-46.875,-7.324,0.000
750.000,-9.766,-8.789,-43.945,-17.090,0.000
754.000,-0.977,-10.254,-37.598,-7.812,0.000
758.000,-13.672,-16.602,-34.668,-9.766,0.000
762.000,-10.254,-17.090,-38.574,-20.996,0.000
766.000,-13.672,-19.043,-36.621,-21.973,0.000
770.000,-27.344,-21.484,-32.715,-24.414,0.000
773.000,-31.250,-14.648,-30.273,-19.531,0.000
777.000,-36.133,-14.648,-31.738,-24.902,0.000
781.000,-15.137,-19.531,-33.203,-31.738,0.000
785.000,-15.625,-18.555,-32.715,-22.461,0.000
789.000,-24.902,-16.602,-35.156,-28.320,0.000
793.000,-19.043,-20.020,-29.297,-30.273,0.000
797.000,-9.277,-19.531,-25.879,-16.113,0.000
801.000,-13.184,-20.508,-25.879,-9.277,0.000
805.000,-7.812,-27.832,-28.809,-13.184,0.000
809.000,0.488,-29.297,-37.109,-14.648,0.000
812.000,-29.297,-29.297,-36.621,-7.812,0.000
816.000,-49.316,-32.227,-35.156,-4.883,0.000
820.000,-36.133,-29.297,-38.574,-9.766,0.000
824.000,-35.645,-32.227,-41.504,-15.625,0.000
828.000,-40.527,-29.785,-36.133,-13.184,0.000
832.000,-24.902,-23.926,-31.250,-6.836,0.000
836.000,-11.230,-30.762,-37.598,-7.324,0.000
840.000,-15.625,-34.180,-38.574,-19.043,0.000
844.000,-9.766,-37.598,-36.621,-19.531,0.000
848.000,-15.137,-40.039,-36.621,-13.672,0.000
852.000,-34.180,-36.133,-31.738,-20.508,0.000
855.000,-31.738,-33.691,-27.832,-24.902,0.000
859.000,-20.508,-31.250,-28.809,-8.789,0.000
863.000,-28.809,-36.621,-34.180,-11.230,0.000
867.000,-38.086,-45.898,-40.039,-28.320,0.000
871.000,-29.297,-41.504,-37.109,-35.645,0.000
875.000,-13.672,-34.668,-34.180,-30.762,0.000
879.000,-10.254,-30.762,-34.668,-31.738,0.000
883.000,-16.113,-30.273,-31.738,-37.109,0.000
887.000,-30.273,-27.832,-28.809,-35.156,0.000
891.000,-57.129,-29.785,-32.715,-35.645,0.000
895.000,-43.457,-28.320,-29.297,-8.789,0.000
898.000,-10.742,-23.926,-15.625,19.531,0.000
902.000,-23.926,-34.180,-12.207,0.000,0.000
906.000,-51.270,-48.340,-23.438,-27.344,0.000
910.000,-53.223,-58.105,-23.926,-30.273,0.000
914.000,-47.363,-60.547,-14.648,-29.785,0.000
918.000,-49.316,-61.523,-7.812,-31.738,0.000
922.000,-66.406,-64.941,-4.395,-41.016,0.000
926.000,-68.359,-70.312,-6.836,-45.410,0.000
930.000,-53.223,-73.730,-6.348,-41.016,0.000
934.000,-63.965,-83.496,0.488,-55.176,0.000
937.000,-84.961,-93.262,-0.488,-59.082,0.000
941.000,-85.938,-90.820,3.418,-57.617,0.000
945.000,-88.379,-93.262,3.418,-76.172,0.000
949.000,-77.148,-95.703,5.371,-63.965,0.000
953.000,-95.215,-96.680,18.555,-56.152,0.000
957.000,-118.164,-101.074,20.020,-64.453,0.000
961.000,-104.980,-103.516,15.137,-48.828,0.000
965.000,-105.469,-108.398,10.254,-40.039,0.000
969.000,-108.887,-108.398,10.254,-47.363,0.000
973.000,-97.656,-106.445,13.672,-49.316,0.000
977.000,-93.262,-111.816,10.254,-46.387,0.000
980.000,-101.074,-112.305,7.324,-42.969,0.000
984.000,-114.258,-108.398,9.277,-45.898,0.000
988.000,-132.812,-110.352,5.371,-62.500,0.000
992.000,-111.328,-109.375,2.441,-55.176,0.000
996.000,-89.355,-104.004,6.836,-43.945,0.000
1000.000,-70.312,-103.516,1.465,-54.199,0.000
1004.000,-66.406,-105.957,-4.395,-50.293,0.000
1008.000,-109.863,-103.027,-5.371,-48.340,0.000
1012.000,-109.863,-100.586,-8.789,-46.387,0.000
1016.000,-84.473,-93.262,-8.301,-34.180,0.000
1020.000,-65.918,-84.473,-5.371,-38.574,0.000
1023.000,-29.785,-81.055,-7.812,-44.434,0.000
1027.000,-24.414,-80.566,-11.230,-44.434,0.000
1031.000,-58.594,-78.613,-9.766,-33.203,0.000
1035.000,-83.008,-77.148,-15.137,-26.367,0.000
1039.000,-79.590,-76.172,-19.531,-23.438,0.000
1043.000,-72.754,-69.336,-14.648,-27.344,0.000
1047.000,-80.078,-62.988,-13.184,-26.367,0.000
1051.000,-70.801,-61.523,-13.184,-15.625,0.000
1055.000,-56.641,-65.430,-11.719,-15.137,0.000
1059.000,-58.105,-62.012,-7.324,-17.090,0.000
1062.000,-52.246,-56.641,-8.789,-20.996,0.000
1066.000,-44.434,-54.199,-11.719,-23.926,0.000
1070.000,-50.293,-48.828,-12.207,-24.414,0.000
1074.000,-42.969,-48.828,-18.066,-27.832,0.000
1078.000,-34.180,-50.293,-21.484,-29.297,0.000
1082.000,-19.043,-41.992,-21.973,-19.043,0.000
1086.000,-21.484,-39.551,-20.508,-17.090,0.000
1090.000,-39.062,-41.016,-21.484,-23.926,0.000
1094.000,-38.574,-36.621,-22.461,-17.578,0.000
1098.000,-46.875,-43.457,-24.902,-3.906,0.000
1102.000,-38.086,-41.016,-25.391,-9.277,0.000
1105.000,-36.621,-34.180,-28.320,-23.438,0.000
1109.000,-56.641,-37.598,-29.785,-25.391,0.000
1113.000,-49.805,-34.668,-28.320,-15.625,0.000
1117.000,-36.621,-32.715,-30.273,-8.789,0.000
1121.000,-40.527,-32.715,-30.273,-12.695,0.000
1125.000,-38.574,-31.250,-28.320,-17.090,0.000
1129.000,-25.879,-34.668,-27.344,-15.137,0.000
1133.000,-23.926,-39.551,-23.438,-21.484,0.000
1137.000,-27.832,-39.062,-27.344,-30.762,0.000
1141.000,-17.090,-31.738,-31.250,-40.527,0.000
1145.000,-22.461,-28.809,-27.832,-32.715,0.000
1148.000,-43.945,-25.391,-30.762,-26.367,0.000
1152.000,-47.363,-22.949,-28.320,-25.391,0.000
1156.000,-51.270,-26.855,-22.949,-16.602,0.000
1160.000,-41.504,-25.391,-23.926,-22.949,0.000
1164.000,-49.805,-26.855,-25.879,-23.926,0.000
1168.000,-57.617,-32.227,-27.344,-25.879,0.000
1172.000,-43.945,-27.344,-23.438,-28.320,0.000
1176.000,-38.574,-23.926,-22.461,-31.738,0.000
1180.000,-50.293,-23.926,-24.414,-31.250,0.000
1184.000,-56.641,-26.855,-23.926,-25.391,0.000
1187.000,-49.805,-26.855,-29.785,-30.273,0.000
1191.000,-49.805,-24.414,-24.414,-25.879,0.000
1195.000,-47.363,-27.344,-21.484,-20.996,0.000
1199.000,-43.457,-30.762,-26.367,-18.555,0.000
1203.000,-40.039,-32.715,-24.414,-20.020,0.000
1207.000,-24.902,-31.738,-23.438,-24.902,0.000
1211.000,-15.137,-31.738,-22.461,-12.695,0.000
1215.000,-23.438,-31.250,-21.973,-12.695,0.000
1219.000,-27.344,-28.320,-25.391,-15.137,0.000
1223.000,-20.020,-30.762,-25.391,-16.113,0.000
1227.000,-19.531,-31.250,-32.715,-26.855,0.000
1230.000,-11.230,-31.738,-31.738,-20.020,0.000
1234.000,-27.344,-34.180,-30.273,-16.602,0.000
1238.000,-58.594,-32.715,-33.691,-27.344,0.000
1242.000,-52.734,-28.809,-32.715,-32.715,0.000
1246.000,-38.086,-26.367,-32.715,-25.391,0.000
1250.000,-29.297,-30.273,-31.250,-18.555,0.000
1254.000,-25.391,-29.785,-31.250,-21.973,0.000
1258.000,-28.809,-27.832,-34.668,-32.715,0.000
1262.000,-47.363,-30.273,-33.691,-21.484,0.000
1266.000,-67.871,-31.250,-27.344,-3.418,0.000
1270.000,-51.758,-28.809,-26.367,-4.883,0.000
1273.000,-16.113,-19.043,-28.809,-0.488,0.000
1277.000,-3.418,-13.184,-31.250,-8.301,0.000
1281.000,-46.387,-17.090,-29.297,-20.020,0.000
1285.000,-72.266,-21.484,-31.250,-17.578,0.000
1289.000,-41.016,-14.648,-32.715,-13.672,0.000
1293.000,-27.344,-9.766,-31.250,-24.414,0.000
1297.000,-25.879,-13.672,-35.156,-17.578,0.000
1301.000,-34.180,-11.719,-35.156,-3.906,0.000
1305.000,-37.109,-8.301,-32.715,-10.742,0.000
1309.000,-6.836,0.000,-38.574,-8.301,0.000
1312.000,6.836,4.395,-46.387,-6.836,0.000
1316.000,7.812,4.883,-47.852,-9.766,0.000
1320.000,-4.883,6.348,-47.852,-19.043,0.000
1324.000,-21.484,12.207,-44.434,-14.160,0.000
1328.000,-4.883,19.043,-42.480,4.883,0.000
1332.000,5.371,16.113,-47.363,1.465,0.000
1336.000,11.230,19.043,-47.363,-6.348,0.000
1340.000,21.973,20.996,-45.898,-1.465,0.000
1344.000,22.461,25.391,-48.340,1.465,0.000
1348.000,22.949,26.367,-55.176,1.465,0.000
1352.000,19.531,22.461,-56.152,5.371,0.000
1355.000,2.441,27.832,-52.246,2.441,0.000
1359.000,-2.930,29.297,-58.594,-0.977,0.000
1363.000,-3.418,23.926,-60.059,7.812,0.000
1367.000,3.418,24.414,-52.734,14.648,0.000
1371.000,23.438,26.855,-53.223,10.254,0.000
1375.000,20.996,18.555,-58.594,0.000,0.000
1379.000,14.160,19.043,-51.758,19.043,0.000
1383.000,26.855,27.832,-54.688,28.320,0.000
1387.000,24.902,31.250,-60.059,9.766,0.000
1391.000,20.996,30.273,-58.105,1.953,0.000
1394.000,33.691,30.273,-58.594,5.859,0.000
1398.000,29.785,28.320,-56.641,-1.953,0.000
1402.000,28.809,25.879,-56.152,-6.836,0.000
1406.000,43.457,31.738,-56.152,-2.930,0.000
1410.000,41.992,37.598,-53.711,-0.488,0.000
1414.000,29.297,30.273,-50.781,-1.465,0.000
1418.000,13.184,25.391,-49.316,-7.324,0.000
1422.000,4.395,26.367,-46.387,-2.930,0.000
1426.000,13.672,21.484,-48.340,2.441,0.000
1430.000,22.461,21.973,-48.828,2.930,0.000
1434.000,28.809,24.902,-50.293,-5.371,0.000
1437.000,21.973,22.461,-58.105,-22.949,0.000
1441.000,9.766,20.508,-57.617,-26.855,0.000
1445.000,8.301,18.066,-56.152,-10.742,0.000
1449.000,-0.488,15.137,-56.152,-8.301,0.000
1453.000,-6.348,17.578,-55.176,-21.484,0.000
1457.000,5.859,15.137,-55.664,-23.438,0.000
1461.000,10.254,17.090,-57.617,-21.973,0.000
1465.000,-19.043,18.555,-53.711,-35.156,0.000
1469.000,-31.250,12.207,-53.711,-45.898,0.000
1473.000,-16.602,14.160,-53.223,-51.758,0.000
1477.000,-18.555,10.742,-52.246,-42.969,0.000
1480.000,-22.461,5.859,-56.152,-27.832,0.000
1484.000,-28.809,4.883,-51.270,-24.414,0.000
1488.000,-24.414,4.395,-45.410,-23.438,0.000
1492.000,-13.184,4.395,-44.434,-22.949,0.000
1496.000,-4.395,4.883,-48.340,-19.531,0.000
1500.000,-8.301,7.324,-46.875,-19.531,0.000
1504.000,-15.625,10.742,-41.504,-22.949,0.000
1508.000,-26.367,6.348,-36.621,-28.809,0.000
1512.000,-44.922,0.488,-33.691,-30.273,0.000
1516.000,-29.297,0.977,-38.574,-22.949,0.000
1519.000,-19.531,-5.371,-43.945,-22.949,0.000
1523.000,-23.438,-2.441,-39.062,-23.926,0.000
1527.000,-16.113,-1.465,-38.086,-21.973,0.000
1531.000,-16.602,-3.418,-44.434,-15.625,0.000
1535.000,-33.691,-5.859,-45.898,-11.719,0.000
1539.000,-40.039,-9.766,-43.945,-18.066,0.000
1543.000,-34.180,-7.324,-37.598,-19.043,0.000
1547.000,-17.578,-5.371,-37.598,-12.207,0.000
1551.000,-12.695,-2.930,-38.086,-10.254,0.000
1555.000,-28.320,-8.301,-40.039,-20.996,0.000
1559.000,-21.973,-9.766,-36.621,-22.461,0.000
1562.000,-14.648,-10.742,-27.832,-10.742,0.000
1566.000,-35.156,-10.742,-32.227,-12.695,0.000
1570.000,-42.969,-13.184,-38.574,-23.926,0.000
1574.000,-31.250,-16.602,-43.945,-29.785,0.000
1578.000,-25.879,-17.578,-39.062,-30.762,0.000
1582.000,-30.762,-23.438,-37.598,-30.273,0.000
1586.000,-43.945,-26.855,-38.086,-32.715,0.000
1590.000,-39.551,-21.484,-35.645,-24.902,0.000
1594.000,-25.391,-18.555,-38.574,-22.461,0.000
1598.000,-42.969,-22.949,-34.668,-30.273,0.000
1602.000,-52.734,-28.320,-35.156,-36.133,0.000
1605.000,-46.875,-33.203,-40.039,-39.062,0.000
1609.000,-59.082,-38.086,-35.645,-41.016,0.000
1613.000,-65.430,-36.621,-29.297,-37.598,0.000
1617.000,-66.406,-36.133,-33.203,-28.809,0.000
1621.000,-53.223,-38.086,-39.062,-37.109,0.000
1625.000,-44.434,-41.016,-33.203,-46.387,0.000
1629.000,-42.480,-42.969,-29.785,-42.969,0.000
1633.000,-19.531,-34.668,-33.203,-37.109,0.000
1637.000,-18.555,-33.691,-27.344,-42.480,0.000
1641.000,-28.809,-35.645,-22.461,-43.945,0.000
1644.000,-29.297,-32.227,-25.391,-34.180,0.000
1648.000,-36.621,-35.645,-26.855,-24.902,0.000
1652.000,-32.715,-32.227,-23.926,-27.344,0.000
1656.000,-27.832,-33.203,-26.855,-32.227,0.000
1660.000,-33.203,-38.086,-30.273,-27.344,0.000
1664.000,-44.922,-50.293,-25.879,-35.156,0.000
1668.000,-41.016,-48.828,-30.273,-27.344,0.000
1672.000,-17.578,-28.809,-26.367,3.418,0.000
1676.000,-26.367,-33.203,-12.695,-6.348,0.000
1680.000,-60.059,-43.945,-9.766,-29.785,0.000
1684.000,-71.289,-49.316,-12.695,-22.461,0.000
1687.000,-56.152,-54.199,-12.695,-20.508,0.000
1691.000,-53.223,-64.453,-12.207,-30.762,0.000
1695.000,-64.453,-68.359,-10.254,-26.855,0.000
1699.000,-52.734,-65.918,-1.953,-4.883,0.000
1703.000,-60.547,-81.543,0.488,-17.578,0.000
1707.000,-83.008,-88.379,-0.488,-34.180,0.000
1711.000,-83.984,-81.055,4.395,-33.203,0.000
1715.000,-79.590,-86.914,1.465,-41.504,0.000
1719.000,-75.195,-90.332,1.953,-45.410,0.000
1723.000,-70.312,-90.820,3.906,-50.781,0.000
1727.000,-71.289,-100.586,7.324,-44.434,0.000
1730.000,-82.520,-105.469,8.789,-34.668,0.000
1734.000,-90.332,-104.492,8.301,-32.715,0.000
1738.000,-95.215,-102.051,9.277,-38.086,0.000
1742.000,-79.590,-97.656,8.301,-30.273,0.000
1746.000,-71.777,-97.656,14.648,-23.926,0.000
1750.000,-70.312,-99.609,16.113,-25.879,0.000
1754.000,-54.199,-94.238,17.090,-20.020,0.000
1758.000,-71.289,-95.215,17.090,-19.043,0.000
1762.000,-85.938,-99.609,13.672,-16.602,0.000
1766.000,-88.867,-103.027,12.695,-17.090,0.000
1769.000,-85.938,-101.562,9.277,-19.043,0.000
1773.000,-86.914,-94.727,5.371,-19.043,0.000
1777.000,-92.285,-93.750,2.441,-20.020,0.000
1781.000,-79.102,-92.773,0.977,-11.230,0.000
1785.000,-64.941,-88.379,0.488,-11.230,0.000
1789.000,-49.805,-83.496,0.000,-18.066,0.000
1793.000,-53.223,-84.473,-2.930,-25.391,0.000
1797.000,-71.777,-82.520,-4.883,-20.996,0.000
1801.000,-71.289,-78.613,-5.859,-14.648,0.000
1805.000,-59.570,-76.660,-9.277,-10.254,0.000
1809.000,-51.270,-72.754,-11.719,-15.137,0.000
1812.000,-37.598,-65.918,-12.695,-20.996,0.000
1816.000,-30.762,-61.523,-14.648,-19.043,0.000
1820.000,-35.645,-59.082,-15.625,-26.367,0.000
1824.000,-44.434,-57.617,-14.160,-23.926,0.000
1828.000,-52.734,-58.105,-12.695,-14.160,0.000
1832.000,-55.176,-58.105,-14.648,-13.184,0.000
1836.000,-60.059,-60.547,-19.043,-16.113,0.000
1840.000,-67.871,-58.105,-19.531,-17.090,0.000
1844.000,-56.152,-59.082,-20.508,-12.207,0.000
1848.000,-31.250,-52.734,-23.438,-12.695,0.000
1852.000,-35.645,-46.875,-22.461,-15.625,0.000
1855.000,-54.688,-41.992,-20.508,-11.719,0.000
1859.000,-66.895,-35.645,-16.602,-11.719,0.000
1863.000,-62.988,-41.504,-17.090,-9.766,0.000
1867.000,-52.734,-47.852,-20.020,-10.742,0.000
1871.000,-54.199,-52.734,-18.555,-14.648,0.000
1875.000,-53.711,-44.922,-19.531,-14.160,0.000
1879.000,-45.410,-39.551,-21.973,-12.695,0.000
1883.000,-44.434,-42.480,-25.879,-17.578,0.000
1887.000,-42.969,-42.480,-26.855,-28.809,0.000
1891.000,-41.504,-50.781,-25.391,-32.715,0.000
1894.000,-38.086,-43.457,-23.926,-25.391,0.000
1898.000,-27.832,-32.227,-24.414,-18.066,0.000
1902.000,-33.691,-32.227,-21.973,-19.531,0.000
1906.000,-37.109,-34.668,-19.531,-26.367,0.000
1910.000,-23.926,-37.109,-21.973,-27.344,0.000
1914.000,-17.578,-32.715,-20.508,-20.508,0.000
1918.000,-21.973,-27.344,-20.996,-26.367,0.000
1922.000,-46.387,-27.832,-23.438,-43.457,0.000
1926.000,-50.293,-29.297,-21.973,-43.457,0.000
1930.000,-29.785,-25.391,-24.414,-35.156,0.000
1934.000,-17.578,-22.461,-23.926,-37.109,0.000
1937.000,-17.578,-24.414,-25.391,-47.363,0.000
1941.000,-23.926,-21.484,-26.855,-51.270,0.000
1945.000,-32.227,-25.879,-30.762,-43.945,0.000
1949.000,-62.500,-45.898,-40.039,-43.457,0.000
1953.000,-76.172,-42.480,-33.203,-42.480,0.000
1957.000,-63.477,-36.621,-25.879,-39.551,0.000
1961.000,-48.340,-28.809,-29.297,-31.250,0.000
1965.000,-38.574,-21.973,-31.738,-15.137,0.000
1969.000,-44.922,-24.902,-35.645,-23.926,0.000
1973.000,-53.711,-23.438,-28.809,-37.598,0.000
1977.000,-53.711,-31.738,-20.020,-24.414,0.000
1980.000,-39.062,-38.086,-19.531,-14.648,0.000
1984.000,-30.762,-29.297,-20.020,-18.066,0.000
1988.000,-29.785,-20.508,-23.438,-19.043,0.000
1992.000,-38.086,-19.531,-25.879,-15.137,0.000
1996.000,-32.715,-19.043,-20.020,-5.371,0.000
2000.000,-21.484,-21.484,-17.578,7.812,0.000
2004.000,-33.203,-23.926,-19.531,0.488,0.000
2008.000,-32.227,-20.020,-21.973,-10.254,0.000
2012.000,-16.113,-20.996,-22.949,-9.766,0.000
2016.000,-11.719,-25.391,-21.484,-16.602,0.000
2019.000,-19.043,-22.461,-18.555,-30.762,0.000
2023.000,-25.391,-25.879,-22.949,-29.785,0.000
2027.000,-33.203,-23.438,-28.320,-18.066,0.000
2031.000,-36.621,-20.996,-25.391,-13.672,0.000
2035.000,-38.086,-22.949,-24.414,-19.043,0.000
2039.000,-33.203,-21.973,-26.367,-34.668,0.000
2043.000,-23.926,-27.344,-28.320,-35.645,0.000
2047.000,-36.621,-30.273,-31.738,-20.508,0.000
2051.000,-56.641,-33.203,-33.203,-31.738,0.000
2055.000,-56.152,-34.668,-34.180,-44.922,0.000
2059.000,-40.527,-30.762,-29.785,-42.969,0.000
2062.000,-16.113,-22.949,-31.738,-40.039,0.000
2066.000,-17.578,-21.484,-32.715,-37.109,0.000
2070.000,-52.246,-31.250,-26.367,-35.156,0.000
2074.000,-63.477,-30.273,-30.762,-34.668,0.000
2078.000,-40.527,-28.809,-32.227,-30.273,0.000
2082.000,-48.340,-26.367,-23.926,-21.973,0.000
2086.000,-76.660,-22.949,-24.414,-22.461,0.000
2090.000,-69.336,-22.461,-26.367,-21.484,0.000
2094.000,-51.270,-21.484,-24.902,-10.742,0.000
2098.000,-39.062,-20.996,-27.832,-18.066,0.000
2102.000,-24.414,-21.484,-30.273,-23.926,0.000
2105.000,-9.277,-19.531,-34.180,-19.043,0.000
2109.000,-20.020,-17.578,-32.227,-10.254,0.000
2113.000,-29.297,-21.973,-31.738,3.906,0.000
2117.000,-37.598,-18.066,-34.668,-9.277,0.000
2121.000,-60.547,-15.625,-34.180,-40.527,0.000
2125.000,-44.434,-16.113,-39.551,-43.457,0.000
2129.000,-23.926,-17.578,-41.016,-21.484,0.000
2133.000,-7.812,-17.090,-41.992,-14.160,0.000
2137.000,-16.113,-14.160,-43.945,-24.414,0.000
2141.000,-41.016,-16.602,-51.270,-32.715,0.000
2144.000,-36.133,-13.184,-54.688,-27.344,0.000
2148.000,-20.020,-7.812,-45.898,-17.090,0.000
2152.000,0.000,-8.301,-50.293,-22.949,0.000
2156.000,-2.930,-1.953,-54.688,-32.227,0.000
2160.000,3.906,6.348,-53.223,-20.996,0.000
2164.000,16.602,7.812,-57.129,-9.277,0.000
2168.000,8.789,5.371,-57.617,-7.324,0.000
2172.000,1.465,10.742,-59.570,-3.906,0.000
2176.000,-12.207,17.578,-57.617,-6.348,0.000
2180.000,1.465,16.602,-57.617,-3.906,0.000
2184.000,27.832,19.531,-61.523,-4.883,0.000
2187.000,54.688,20.508,-60.547,-18.066,0.000
2191.000,60.547,20.508,-62.988,-20.996,0.000
2195.000,33.691,24.414,-61.035,-9.277,0.000
2199.000,-6.836,20.508,-54.688,0.977,0.000
2203.000,-13.672,18.555,-54.199,-2.930,0.000
2207.000,-3.906,20.508,-58.594,-6.348,0.000
2211.000,-8.789,13.672,-57.617,3.906,0.000
2215.000,-7.324,16.602,-53.223,6.836,0.000
2219.000,-21.973,21.973,-48.828,7.324,0.000
2223.000,-11.719,20.996,-44.922,8.301,0.000
2227.000,-12.207,20.020,-44.434,2.441,0.000
2230.000,-16.113,19.043,-47.363,4.883,0.000
2234.000,4.883,21.484,-53.223,17.090,0.000
2238.000,9.277,23.438,-51.270,15.137,0.000
2242.000,13.672,19.043,-53.711,-0.488,0.000
2246.000,5.371,17.090,-52.246,-1.465,0.000
2250.000,19.043,14.160,-39.062,15.137,0.000
2254.000,45.898,9.766,-35.156,15.625,0.000
2258.000,43.945,17.578,-44.922,9.766,0.000
2262.000,41.504,34.668,-51.270,16.602,0.000
2266.000,30.273,30.762,-50.781,-0.977,0.000
2269.000,22.949,18.066,-49.316,-24.902,0.000
2273.000,22.461,20.020,-50.781,-23.438,0.000
2277.000,31.250,22.949,-52.246,-22.461,0.000
2281.000,58.594,31.738,-52.246,-12.695,0.000
2285.000,58.105,38.086,-55.176,-15.137,0.000
2289.000,7.324,29.297,-55.176,-23.438,0.000
2293.000,-13.672,23.926,-51.270,-21.973,0.000
2297.000,-12.695,19.043,-49.316,-10.742,0.000
2301.000,-20.020,15.137,-53.223,-1.953,0.000
2305.000,-15.625,12.207,-56.641,-11.230,0.000
2309.000,-21.973,8.301,-50.293,-15.625,0.000
2312.000,-39.062,4.883,-47.363,-6.836,0.000
2316.000,-48.340,-2.930,-51.270,1.953,0.000
2320.000,-44.922,-7.812,-49.316,4.883,0.000
2324.000,-30.762,-2.930,-39.551,15.137,0.000
2328.000,-27.344,0.977,-43.945,19.531,0.000
2332.000,-24.414,0.977,-49.805,-15.625,0.000
2336.000,-19.043,-3.906,-47.852,-49.316,0.000
2340.000,-17.090,-10.742,-46.387,-68.359,0.000
2344.000,-8.789,-10.254,-46.387,-72.754,0.000
2348.000,-5.859,-6.836,-48.340,-53.711,0.000
2352.000,-14.160,-10.254,-42.969,-47.363,0.000
2355.000,-6.348,-8.301,-38.086,-38.574,0.000
2359.000,2.441,-5.371,-34.668,-31.250,0.000
2363.000,11.230,-6.836,-32.715,-35.645,0.000
2367.000,0.000,-4.883,-31.738,-41.016,0.000
2371.000,-33.203,-4.395,-34.180,-38.086,0.000
2375.000,-38.574,-10.254,-41.992,-36.133,0.000
2379.000,-52.734,-15.137,-42.480,-32.715,0.000
2383.000,-63.965,-10.742,-38.086,-21.484,0.000
2387.000,-53.223,-5.859,-34.668,-19.531,0.000
2391.000,-29.785,-9.766,-41.016,-16.113,0.000
2394.000,-29.297,-14.160,-41.992,-12.207,0.000
2398.000,-47.363,-18.066,-35.156,-21.973,0.000
2402.000,-32.715,-19.043,-36.133,-21.973,0.000
2406.000,-27.832,-12.695,-40.039,-16.602,0.000
2410.000,-30.273,-11.719,-40.527,-15.625,0.000
2414.000,-9.277,-21.484,-40.527,-10.254,0.000
2418.000,-4.883,-14.160,-40.039,-9.766,0.000
2422.000,-12.695,-6.348,-41.016,-19.043,0.000
2426.000,-9.766,-10.254,-37.109,-28.809,0.000
2430.000,-24.414,-13.184,-34.668,-29.297,0.000
2434.000,-32.715,-17.578,-40.527,-28.320,0.000
2437.000,-24.902,-20.020,-40.527,-29.297,0.000
2441.000,-21.973,-22.461,-40.527,-21.973,0.000
2445.000,-22.949,-22.949,-39.551,-16.602,0.000
2449.000,-25.879,-24.414,-35.156,-16.602,0.000
2453.000,-23.438,-23.926,-34.180,-16.113,0.000
2457.000,-21.973,-24.902,-33.691,-25.879,0.000
2461.000,-14.160,-24.902,-29.785,-22.461,0.000
2465.000,-7.812,-20.996,-25.879,-11.230,0.000
2469.000,-22.461,-22.461,-30.762,-14.648,0.000
2473.000,-42.969,-25.391,-35.645,-22.949,0.000
2476.000,-43.945,-32.227,-36.621,-19.531,0.000
2480.000,-43.457,-38.086,-39.551,-12.695,0.000
2484.000,-41.016,-25.391,-41.992,-11.230,0.000
2488.000,-24.414,-8.789,-38.574,-10.254,0.000
2492.000,-25.391,-7.324,-35.156,-1.465,0.000
2496.000,-29.297,-12.695,-33.203,10.254,0.000
2500.000,-29.785,-13.672,-27.344,4.883,0.000
2504.000,-22.949,-15.137,-26.367,5.371,0.000
2508.000,-11.230,-18.555,-30.273,-1.465,0.000
2512.000,-4.395,-20.020,-32.227,-7.812,0.000
2516.000,-1.953,-22.461,-31.250,-14.160,0.000
2519.000,-1.465,-16.602,-26.855,-22.461,0.000
2523.000,-8.301,-21.484,-25.879,-22.949,0.000
2527.000,-23.438,-28.809,-27.832,-18.555,0.000
2531.000,-29.297,-27.344,-27.344,-12.207,0.000
2535.000,-19.531,-34.668,-29.785,-13.184,0.000
2539.000,0.488,-29.297,-35.645,-22.461,0.000
2543.000,4.395,-24.902,-40.039,-28.809,0.000
2547.000,0.977,-26.367,-32.715,-25.391,0.000
2551.000,-18.555,-21.973,-23.926,-21.973,0.000
2555.000,-43.945,-20.996,-24.414,-27.832,0.000
2559.000,-37.109,-22.949,-26.367,-35.645,0.000
2562.000,-25.879,-25.879,-31.250,-34.180,0.000
2566.000,-21.484,-24.902,-32.227,-29.297,0.000
2570.000,-18.555,-24.414,-27.344,-27.832,0.000
2574.000,-47.363,-29.785,-29.785,-25.391,0.000
2578.000,-72.754,-34.180,-34.668,-22.461,0.000
2582.000,-55.176,-29.785,-32.227,-24.414,0.000
2586.000,-51.270,-36.621,-32.715,-29.785,0.000
2590.000,-64.941,-38.086,-35.645,-32.227,0.000
2594.000,-56.152,-23.438,-35.645,-35.156,0.000
2598.000,-44.434,-21.973,-33.691,-35.645,0.000
2601.000,-41.992,-28.809,-34.180,-43.945,0.000
2605.000,-43.457,-28.320,-34.668,-63.477,0.000
2609.000,-26.367,-26.367,-38.086,-61.035,0.000
2613.000,6.348,-21.484,-38.086,-24.902,0.000
2617.000,-6.836,-32.227,-27.832,-23.438,0.000
2621.000,-44.922,-48.828,-28.809,-62.500,0.000
2625.000,-36.133,-40.039,-29.297,-63.965,0.000
2629.000,-18.066,-43.945,-22.949,-50.293,0.000
2633.000,-46.875,-58.594,-20.996,-59.082,0.000
2637.000,-92.773,-57.617,-20.020,-67.871,0.000
2641.000,-96.191,-60.547,-16.602,-72.754,0.000
2644.000,-78.125,-68.848,-12.207,-64.941,0.000
2648.000,-100.098,-78.125,-8.301,-69.824,0.000
2652.000,-118.652,-89.844,-4.395,-84.473,0.000
2656.000,-101.562,-84.961,1.953,-76.660,0.000
2660.000,-94.727,-89.844,3.418,-66.895,0.000
2664.000,-93.750,-98.145,-4.395,-72.754,0.000
2668.000,-91.309,-95.215,-3.418,-80.078,0.000
2672.000,-83.008,-105.469,2.441,-85.449,0.000
2676.000,-73.242,-107.910,4.883,-77.637,0.000
2680.000,-102.051,-105.957,11.719,-68.848,0.000
2684.000,-123.535,-100.586,18.066,-72.266,0.000
2687.000,-124.512,-99.121,20.020,-60.547,0.000
2691.000,-116.699,-100.586,23.438,-49.316,0.000
2695.000,-102.539,-99.609,20.996,-53.711,0.000
2699.000,-104.492,-97.656,15.137,-57.129,0.000
2703.000,-97.168,-97.168,16.113,-41.016,0.000
2707.000,-90.820,-99.121,20.020,-39.551,0.000
2711.000,-81.055,-97.168,16.602,-54.688,0.000
2715.000,-71.289,-95.703,12.207,-50.781,0.000
2719.000,-67.871,-96.680,6.836,-44.922,0.000
2723.000,-67.383,-91.797,3.418,-47.852,0.000
2726.000,-80.078,-85.449,5.859,-50.293,0.000
2730.000,-54.199,-81.055,4.883,-45.410,0.000
2734.000,-47.363,-77.637,0.000,-34.180,0.000
2738.000,-50.293,-75.195,-2.441,-28.809,0.000
2742.000,-23.438,-71.289,-7.324,-24.902,0.000
2746.000,-30.273,-76.172,-12.207,-19.043,0.000
2750.000,-49.316,-71.289,-3.418,-12.207,0.000
2754.000,-84.473,-64.453,-1.953,-13.184,0.000
2758.000,-84.473,-69.824,-17.578,-15.625,0.000
2762.000,-62.012,-64.453,-20.996,-9.277,0.000
2766.000,-57.129,-57.617,-11.230,-8.301,0.000
2769.000,-54.199,-60.059,-12.207,-9.277,0.000
2773.000,-56.641,-58.594,-18.555,-18.066,0.000
2777.000,-46.875,-53.223,-20.996,-16.602,0.000
2781.000,-44.434,-52.734,-20.020,-0.977,0.000
2785.000,-43.945,-50.781,-12.207,-1.953,0.000
2789.000,-28.809,-48.340,-8.789,-18.066,0.000
2793.000,-18.066,-43.457,-17.578,-20.996,0.000
2797.000,-28.809,-40.039,-20.020,-15.625,0.000
2801.000,-42.969,-40.527,-14.160,-22.461,0.000
2805.000,-36.133,-42.480,-11.719,-33.691,0.000
2809.000,-28.809,-43.945,-13.184,-30.762,0.000
2812.000,-17.578,-40.039,-11.230,-18.066,0.000
2816.000,-21.484,-34.180,-3.418,-11.719,0.000
2820.000,-28.320,-41.504,-0.488,-19.531,0.000
2824.000,-25.879,-43.945,-3.418,-28.320,0.000
2828.000,-39.551,-36.621,-10.742,-24.902,0.000
2832.000,-41.504,-37.109,-13.672,-26.367,0.000
2836.000,-31.250,-46.387,-12.207,-32.715,0.000
2840.000,-28.809,-50.293,-10.254,-25.391,0.000
2844.000,-44.434,-42.480,-11.719,-15.137,0.000
2848.000,-43.945,-41.504,-14.648,-22.461,0.000
2851.000,-41.992,-38.574,-17.578,-21.484,0.000
2855.000,-58.105,-36.133,-21.973,-26.855,0.000
2859.000,-62.988,-41.992,-21.973,-33.203,0.000
2863.000,-54.688,-42.480,-20.508,-23.438,0.000
2867.000,-49.316,-36.621,-21.484,-25.879,0.000
2871.000,-40.527,-37.109,-21.973,-23.926,0.000
2875.000,-47.363,-41.016,-20.508,-22.461,0.000
2879.000,-60.059,-36.133,-25.879,-27.344,0.000
2883.000,-58.594,-28.809,-32.715,-33.691,0.000
2887.000,-51.758,-30.273,-27.832,-31.738,0.000
2891.000,-44.434,-23.926,-29.297,-30.273,0.000
2894.000,-38.086,-21.973,-33.691,-28.809,0.000
2898.000,-45.898,-36.133,-30.273,-22.949,0.000
2902.000,-45.898,-38.086,-26.367,-24.902,0.000
2906.000,-40.039,-32.227,-29.785,-34.180,0.000
2910.000,-33.691,-27.344,-31.250,-38.086,0.000
2914.000,-45.898,-28.320,-32.715,-34.668,0.000
2918.000,-39.551,-31.738,-35.156,-41.992,0.000
2922.000,-11.230,-29.297,-35.156,-44.922,0.000
2926.000,-18.066,-36.133,-34.668,-39.062,0.000
2930.000,-31.738,-40.039,-33.691,-36.621,0.000
2934.000,-39.551,-34.180,-32.227,-32.715,0.000
2937.000,-43.457,-28.320,-31.250,-28.809,0.000
2941.000,-45.410,-29.297,-28.320,-24.902,0.000
2945.000,-54.199,-41.504,-32.715,-23.438,0.000
2949.000,-62.012,-36.133,-39.062,-22.949,0.000
2953.000,-57.617,-22.461,-37.109,-23.926,0.000
2957.000,-56.152,-28.320,-37.598,-25.879,0.000
2961.000,-44.922,-32.715,-36.621,-30.273,0.000
2965.000,-28.320,-25.879,-31.738,-30.273,0.000
2969.000,-34.180,-22.461,-30.762,-24.414,0.000
2973.000,-27.344,-21.973,-32.227,-28.320,0.000
2976.000,-26.855,-28.809,-33.203,-24.414,0.000
2980.000,-29.785,-31.250,-34.180,-17.578,0.000
2984.000,-25.879,-26.855,-33.203,-28.809,0.000
2988.000,-0.977,-26.855,-27.832,-30.273,0.000
2992.000,21.484,-20.508,-21.973,-20.508,0.000
2996.000,-48.828,-20.508,-27.832,-35.156,0.000
3000.000,-67.383,-24.414,-35.156,-37.598,0.000
3004.000,-10.742,-16.602,-33.691,-23.926,0.000
3008.000,21.973,-9.766,-38.086,-36.621,0.000
3012.000,-5.859,-14.160,-45.410,-42.969,0.000
3016.000,-56.641,-11.230,-46.387,-29.297,0.000
3019.000,-52.246,-2.441,-43.945,-9.766,0.000
3023.000,-41.504,-0.977,-42.969,-9.766,0.000
3027.000,-40.527,0.488,-48.828,-19.043,0.000
3031.000,-30.273,3.418,-49.316,-10.254,0.000
3035.000,-34.668,8.301,-49.805,-4.883,0.000
3039.000,-23.438,8.301,-49.316,-13.184,0.000
3043.000,-6.348,4.883,-54.688,-17.090,0.000
3047.000,-8.301,7.812,-56.641,4.883,0.000
3051.000,-9.277,15.625,-48.340,18.066,0.000
3055.000,4.395,23.438,-49.805,-2.441,0.000
3059.000,12.207,25.391,-49.316,-1.465,0.000
3062.000,18.555,28.809,-47.852,0.977,0.000
3066.000,34.180,28.809,-54.688,-26.367,0.000
3070.000,35.645,25.879,-60.059,-49.805,0.000
3074.000,22.949,31.738,-61.035,-40.527,0.000
3078.000,8.301,34.668,-61.035,-13.672,0.000
3082.000,25.879,32.227,-62.988,1.953,0.000
3086.000,38.086,31.250,-68.848,-17.090,0.000
3090.000,56.641,33.203,-63.965,-38.086,0.000
3094.000,51.758,34.180,-64.941,-26.855,0.000
3098.000,27.344,33.203,-68.359,-2.930,0.000
3101.000,2.930,33.203,-59.570,2.930,0.000
3105.000,-18.555,29.297,-58.594,-4.883,0.000
3109.000,-26.367,22.949,-57.617,1.953,0.000
3113.000,-35.156,26.367,-56.152,3.418,0.000
3117.000,-29.297,30.762,-61.523,6.836,0.000
3121.000,-23.926,23.438,-62.988,-0.977,0.000
3125.000,-7.812,21.973,-62.500,-3.906,0.000
3129.000,5.859,25.391,-62.012,7.812,0.000
3133.000,7.812,21.973,-54.688,5.371,0.000
3137.000,13.672,21.484,-50.293,4.883,0.000
3141.000,11.230,27.832,-50.781,-4.395,0.000
3144.000,5.371,33.691,-52.246,-6.836,0.000
3148.000,9.277,31.250,-53.223,-12.207,0.000
3152.000,20.508,26.367,-54.199,-22.949,0.000
3156.000,20.020,26.855,-56.152,-24.414,0.000
3160.000,12.695,21.973,-55.664,-17.090,0.000
3164.000,20.508,18.066,-57.617,-18.066,0.000
3168.000,24.414,19.531,-54.688,-27.344,0.000
3172.000,15.625,22.461,-47.363,-23.926,0.000
3176.000,9.766,22.949,-44.434,-24.902,0.000
3180.000,6.348,14.648,-46.387,-20.020,0.000
3184.000,6.836,16.113,-47.363,-6.836,0.000
3187.000,-9.766,17.090,-45.898,-14.160,0.000
3191.000,-12.695,13.672,-45.410,-18.555,0.000
3195.000,-10.742,11.719,-47.852,-11.719,0.000
3199.000,-23.438,10.254,-44.434,-9.766,0.000
3203.000,-16.602,11.719,-38.574,-4.883,0.000
3207.000,1.953,10.254,-37.598,4.395,0.000
3211.000,-8.789,6.348,-40.527,-5.371,0.000
3215.000,-18.066,3.906,-39.551,-4.395,0.000
3219.000,-7.324,0.488,-38.086,4.395,0.000
3223.000,-8.789,-7.324,-47.852,-8.789,0.000
3226.000,-7.324,-4.883,-47.852,-12.695,0.000
3230.000,-5.859,-1.465,-41.504,-3.906,0.000
3234.000,-5.371,-4.395,-41.992,-11.230,0.000
3238.000,0.977,-8.301,-41.992,-38.574,0.000
3242.000,8.789,-8.301,-33.203,-33.203,0.000
3246.000,17.090,-10.254,-27.832,-10.742,0.000
3250.000,11.719,-11.719,-32.715,-11.719,0.000
3254.000,-9.277,-15.137,-36.621,-15.625,0.000
3258.000,-14.648,-16.602,-39.062,-13.184,0.000
3262.000,-14.160,-14.160,-40.527,-16.602,0.000
3266.000,-11.230,-19.043,-40.527,-16.113,0.000
3269.000,-9.277,-18.066,-35.156,-31.250,0.000
3273.000,-20.508,-18.555,-26.855,-46.387,0.000
3277.000,-52.734,-20.508,-26.367,-39.551,0.000
3281.000,-67.871,-20.996,-30.273,-31.738,0.000
3285.000,-61.035,-27.832,-35.645,-29.297,0.000
3289.000,-50.293,-36.133,-34.668,-36.133,0.000
3293.000,-46.875,-35.156,-33.203,-35.156,0.000
3297.000,-53.711,-32.227,-27.344,-32.715,0.000
3301.000,-50.293,-37.109,-22.461,-33.203,0.000
3305.000,-53.711,-36.621,-27.832,-31.250,0.000
3309.000,-40.039,-37.109,-29.785,-29.785,0.000
3312.000,-20.020,-38.574,-27.344,-30.273,0.000
3316.000,-21.484,-41.504,-28.320,-34.180,0.000
3320.000,-33.203,-41.504,-27.832,-40.527,0.000
3324.000,-24.902,-39.062,-21.484,-24.902,0.000
3328.000,-14.160,-42.480,-17.090,-25.879,0.000
3332.000,-27.832,-37.598,-17.090,-24.902,0.000
3336.000,-23.438,-39.551,-20.508,-17.090,0.000
3340.000,-12.207,-52.246,-25.879,-20.508,0.000
3344.000,-9.277,-55.664,-24.902,-29.297,0.000
3348.000,-4.883,-43.945,-22.949,-35.156,0.000
3351.000,-13.672,-35.156,-24.902,-28.320,0.000
3355.000,-17.578,-43.457,-28.320,-25.879,0.000
3359.000,-15.625,-53.223,-29.785,-36.621,0.000
3363.000,-34.180,-51.758,-24.902,-38.574,0.000
3367.000,-51.270,-59.082,-26.855,-32.715,0.000
3371.000,-56.641,-57.129,-28.320,-36.133,0.000
3375.000,-39.062,-41.504,-20.020,-39.062,0.000
3379.000,-22.949,-37.109,-18.066,-32.715,0.000
3383.000,-25.391,-36.621,-24.414,-28.809,0.000
3387.000,-32.227,-53.711,-32.227,-44.922,0.000
3391.000,-31.738,-54.199,-41.016,-32.227,0.000
3394.000,-27.832,-39.551,-36.133,-8.301,0.000
3398.000,-48.340,-45.898,-21.484,-22.949,0.000
3402.000,-63.477,-48.828,-18.555,-43.945,0.000
3406.000,-50.293,-47.363,-23.438,-49.316,0.000
3410.000,-43.945,-52.246,-19.531,-39.551,0.000
3414.000,-54.688,-58.105,-8.301,-39.551,0.000
3418.000,-56.641,-62.988,-11.719,-61.523,0.000
3422.000,-41.992,-66.406,-11.719,-70.312,0.000
3426.000,-36.621,-64.453,0.977,-58.594,0.000
3430.000,-48.340,-68.848,1.465,-67.383,0.000
3434.000,-54.199,-77.637,0.488,-64.941,0.000
3437.000,-65.918,-90.332,2.441,-57.129,0.000
3441.000,-76.172,-92.285,-1.953,-66.406,0.000
3445.000,-100.098,-85.449,3.906,-62.012,0.000
3449.000,-117.188,-86.426,11.230,-57.617,0.000
3453.000,-113.281,-92.285,12.207,-61.523,0.000
3457.000,-121.094,-99.609,9.277,-67.383,0.000
3461.000,-111.816,-100.098,11.230,-61.035,0.000
3465.000,-96.680,-98.633,15.137,-62.012,0.000
3469.000,-84.961,-100.098,13.672,-62.500,0.000
3473.000,-88.379,-103.516,13.184,-64.941,0.000
3476.000,-111.816,-104.004,10.742,-67.383,0.000
3480.000,-110.840,-102.051,14.648,-50.293,0.000
3484.000,-102.539,-100.586,26.855,-38.086,0.000
3488.000,-93.262,-98.145,31.738,-40.527,0.000
3492.000,-109.375,-103.516,24.414,-52.734,0.000
3496.000,-121.582,-113.770,15.625,-57.617,0.000
3500.000,-105.957,-115.723,6.348,-52.246,0.000
3504.000,-107.422,-110.352,2.441,-60.059,0.000
3508.000,-98.145,-105.957,5.859,-59.082,0.000
3512.000,-87.891,-104.980,6.836,-45.898,0.000
3516.000,-90.332,-102.539,0.488,-40.039,0.000
3519.000,-82.520,-95.215,0.000,-37.598,0.000
3523.000,-58.594,-85.449,7.324,-36.133,0.000
3527.000,-46.387,-81.543,6.836,-24.902,0.000
3531.000,-63.477,-84.473,-2.441,-17.090,0.000
3535.000,-75.684,-89.355,-2.441,-20.020,0.000
3539.000,-59.570,-82.520,-3.906,-25.879,0.000
3543.000,-43.457,-71.289,-6.836,-25.879,0.000
3547.000,-37.598,-70.312,-9.277,-20.020,0.000
3551.000,-54.688,-62.988,-14.160,-12.695,0.000
3555.000,-64.941,-57.617,-9.766,-17.090,0.000
3558.000,-50.293,-57.129,-11.719,-20.508,0.000
3562.000,-55.176,-55.176,-16.602,-10.742,0.000
3566.000,-49.316,-46.875,-8.789,-4.395,0.000
3570.000,-35.645,-45.898,-9.766,-11.230,0.000
3574.000,-29.785,-50.781,-12.695,-12.207,0.000
3578.000,-41.504,-46.875,-12.207,2.930,0.000
3582.000,-55.176,-53.223,-17.578,0.488,0.000
3586.000,-66.895,-58.594,-16.113,-14.160,0.000
3590.000,-61.523,-55.176,-21.973,-11.719,0.000
3594.000,-50.781,-51.758,-22.461,-9.766,0.000
3598.000,-48.340,-47.363,-18.066,-9.277,0.000
3601.000,-44.922,-43.457,-22.949,-12.207,0.000
3605.000,-42.969,-49.316,-24.414,-19.043,0.000
3609.000,-38.574,-54.199,-27.344,-34.180,0.000
3613.000,-34.180,-46.875,-33.691,-36.621,0.000
3617.000,-30.762,-42.480,-30.762,-31.250,0.000
3621.000,-27.344,-32.227,-21.973,-30.273,0.000
3625.000,-41.504,-30.273,-20.996,-30.762,0.000
3629.000,-47.852,-29.785,-19.043,-21.484,0.000
3633.000,-41.504,-30.273,-19.531,-14.160,0.000
3637.000,-39.062,-42.969,-27.344,-31.738,0.000
3641.000,-37.109,-39.062,-29.785,-40.039,0.000
3644.000,-46.875,-36.621,-28.809,-37.598,0.000
3648.000,-52.734,-40.039,-29.297,-28.320,0.000
3652.000,-50.781,-34.180,-26.367,-25.391,0.000
3656.000,-49.805,-32.715,-28.320,-35.645,0.000
3660.000,-41.992,-40.039,-26.855,-36.133,0.000
3664.000,-36.133,-43.945,-27.344,-28.320,0.000
3668.000,-39.551,-34.668,-29.785,-26.855,0.000
3672.000,-48.340,-30.762,-29.297,-39.062,0.000
3676.000,-57.617,-36.621,-31.738,-40.039,0.000
3680.000,-58.105,-38.086,-24.902,-36.133,0.000
3683.000,-54.199,-30.273,-17.578,-42.480,0.000
3687.000,-40.527,-27.344,-14.160,-34.180,0.000
3691.000,-29.785,-27.344,-16.113,-36.621,0.000
3695.000,-27.344,-29.785,-17.090,-32.715,0.000
3699.000,-36.133,-33.203,-16.113,-20.020,0.000
3703.000,-53.223,-30.762,-20.996,-24.414,0.000
3707.000,-41.016,-35.645,-24.414,-26.855,0.000
3711.000,-28.320,-36.133,-24.902,-26.855,0.000
3715.000,-30.762,-33.691,-23.438,-33.203,0.000
3719.000,-34.668,-35.156,-25.879,-34.668,0.000
3723.000,-58.594,-34.668,-24.414,-31.738,0.000
3726.000,-69.824,-36.133,-25.391,-35.645,0.000
3730.000,-61.523,-36.133,-30.762,-29.297,0.000
3734.000,-60.547,-33.691,-25.879,-27.344,0.000
3738.000,-48.828,-26.855,-23.926,-29.785,0.000
3742.000,-36.133,-25.879,-25.391,-25.391,0.000
3746.000,-41.504,-25.879,-24.902,-28.320,0.000
3750.000,-35.645,-25.391,-24.414,-29.297,0.000
3754.000,-29.297,-20.020,-26.367,-35.156,0.000
3758.000,-31.250,-21.973,-26.855,-41.992,0.000
3762.000,-27.832,-26.367,-24.902,-33.691,0.000
3766.000,-32.715,-27.832,-27.344,-25.879,0.000
3769.000,-37.598,-24.902,-28.320,-26.855,0.000
3773.000,-36.133,-23.438,-25.391,-24.902,0.000
3777.000,-41.016,-26.855,-21.973,-6.348,0.000
3781.000,-23.438,-28.809,-21.973,14.160,0.000
3785.000,0.977,-27.344,-23.438,25.391,0.000
3789.000,-22.461,-19.043,-25.879,-0.977,0.000
3793.000,-47.363,-20.508,-30.273,-25.391,0.000
3797.000,-18.066,-20.996,-30.762,-13.672,0.000
3801.000,10.254,-15.137,-34.668,-16.113,0.000
3805.000,19.043,-13.184,-37.598,-31.738,0.000
3808.000,6.836,-5.859,-38.574,-40.039,0.000
3812.000,-14.648,-4.395,-36.133,-28.809,0.000
3816.000,4.883,-2.441,-38.086,-16.602,0.000
3820.000,10.254,0.977,-47.363,-24.414,0.000
3824.000,-11.230,3.906,-51.758,-35.645,0.000
3828.000,0.488,6.348,-50.781,-31.738,0.000
3832.000,-13.184,9.766,-52.246,-19.531,0.000
3836.000,-37.598,7.812,-53.223,-17.578,0.000
3840.000,-21.973,4.395,-55.176,-23.926,0.000
3844.000,-19.043,7.324,-54.199,-12.695,0.000
3848.000,-24.414,7.812,-52.246,-8.789,0.000
3851.000,-10.254,5.859,-53.223,-15.625,0.000
3855.000,10.254,12.695,-56.152,-23.926,0.000
3859.000,18.555,17.090,-62.012,-27.344,0.000
3863.000,11.719,8.301,-65.918,-23.926,0.000
3867.000,10.254,10.742,-62.500,-25.879,0.000
3871.000,8.301,20.508,-59.082,-30.762,0.000
3875.000,28.809,20.996,-59.570,-19.043,0.000
3879.000,10.742,19.531,-62.012,-3.906,0.000
3883.000,-23.926,19.043,-62.012,-11.719,0.000
3887.000,-10.742,16.602,-57.617,-2.930,0.000
3891.000,10.742,18.555,-57.129,3.906,0.000
3894.000,30.762,27.832,-58.105,-2.441,0.000
3898.000,31.250,25.879,-61.523,-8.301,0.000
3902.000,21.973,24.414,-63.965,-19.043,0.000
3906.000,31.738,31.250,-59.082,-15.137,0.000
3910.000,24.902,25.391,-56.641,-7.324,0.000
3914.000,8.789,22.949,-57.617,-2.441,0.000
3918.000,1.953,28.320,-56.152,0.977,0.000
3922.000,-20.508,25.879,-55.664,-8.789,0.000
3926.000,-8.301,28.320,-54.199,-18.066,0.000
3930.000,17.090,31.250,-51.758,-22.461,0.000
3933.000,16.113,35.645,-52.246,-8.789,0.000
3937.000,6.836,31.738,-54.199,-10.254,0.000
3941.000,15.625,29.297,-51.758,-8.301,0.000
3945.000,19.531,38.086,-49.805,2.441,0.000
3949.000,5.371,33.691,-51.270,0.000,0.000
3953.000,16.113,33.203,-55.176,-3.906,0.000
3957.000,13.184,32.715,-59.082,-11.230,0.000
3961.000,-0.488,24.414,-59.082,-8.301,0.000
3965.000,14.160,23.926,-57.617,-1.465,0.000
3969.000,21.973,31.738,-59.570,-9.277,0.000
3973.000,18.555,32.227,-61.035,-25.879,0.000
3976.000,7.812,26.855,-55.664,-12.695,0.000
3980.000,-14.648,27.344,-56.152,7.812,0.000
3984.000,-22.949,23.926,-56.641,3.418,0.000
3988.000,-4.395,14.648,-50.293,-2.441,0.000
3992.000,-0.977,14.648,-54.199,-8.789,0.000
3996.000,-5.371,12.207,-50.781,0.488,0.000
4000.000,-3.418,9.277,-41.016,11.230,0.000
4004.000,-9.766,12.207,-40.527,-3.906,0.000
4008.000,-7.324,9.766,-42.969,-15.625,0.000
4012.000,-5.859,9.277,-45.898,-8.301,0.000
4016.000,-8.789,3.906,-44.922,-5.859,0.000
4019.000,-6.836,5.859,-45.898,-5.859,0.000
4023.000,-7.812,12.207,-45.410,-4.395,0.000
4027.000,-9.277,10.254,-39.062,-4.395,0.000
4031.000,-19.043,3.906,-39.551,-4.395,0.000
4035.000,-26.367,0.000,-44.434,-10.742,0.000
4039.000,-12.207,-0.488,-46.875,-18.066,0.000
4043.000,1.953,-0.488,-48.340,-19.043,0.000
4047.000,-7.812,-1.953,-45.410,-2.930,0.000
4051.000,-15.625,-3.906,-39.062,-2.930,0.000
4055.000,-21.484,-8.301,-45.898,-26.367,0.000
4058.000,-1.465,-7.324,-47.363,-29.785,0.000
4062.000,8.789,-1.953,-44.922,-24.902,0.000
4066.000,-20.996,-7.324,-41.992,-25.391,0.000
4070.000,-20.020,-8.301,-37.109,-18.555,0.000
4074.000,-16.113,-12.207,-40.527,-16.602,0.000
4078.000,-34.668,-20.996,-44.922,-9.277,0.000
4082.000,-38.086,-14.160,-39.062,-1.953,0.000
4086.000,-36.133,-13.184,-35.645,-10.254,0.000
4090.000,-28.809,-11.719,-34.668,-18.066,0.000
4094.000,-13.672,-11.230,-34.180,-24.902,0.000
4098.000,-11.719,-16.113,-30.762,-14.648,0.000
4101.000,-7.812,-11.230,-28.809,9.766,0.000
4105.000,-29.785,-12.207,-32.715,0.000,0.000
4109.000,-60.547,-20.508,-33.691,-3.906,0.000
4113.000,-40.527,-16.113,-32.715,8.301,0.000
4117.000,-15.625,-15.625,-32.227,5.371,0.000
4121.000,-15.137,-16.602,-33.691,1.465,0.000
4125.000,-9.277,-16.602,-35.156,-6.348,0.000
4129.000,-3.906,-18.066,-31.738,-14.160,0.000
4133.000,-13.184,-22.461,-33.203,-11.719,0.000
4137.000,-16.602,-21.484,-36.133,-12.207,0.000
4141.000,-18.066,-17.578,-37.109,-25.391,0.000
4144.000,-19.043,-24.902,-31.250,-10.742,0.000
4148.000,-20.508,-28.320,-27.832,-8.301,0.000
4152.000,-19.531,-27.832,-34.180,-34.668,0.000
4156.000,-13.184,-31.250,-35.645,-31.250,0.000
4160.000,-16.602,-37.109,-35.645,-20.508,0.000
4164.000,-7.812,-29.785,-39.551,-15.625,0.000
4168.000,-5.859,-25.879,-40.039,-11.719,0.000
4172.000,-32.715,-35.156,-40.039,-5.859,0.000
4176.000,-39.062,-38.574,-35.156,-1.465,0.000
4180.000,-21.484,-38.086,-30.273,-2.930,0.000
4183.000,-28.809,-35.156,-31.250,-9.277,0.000
4187.000,-28.320,-34.180,-33.203,-11.230,0.000
4191.000,-7.812,-33.203,-33.203,-11.719,0.000
4195.000,-5.371,-32.715,-31.738,-12.207,0.000
4199.000,-7.812,-38.574,-31.738,-4.883,0.000
4203.000,-14.160,-33.203,-30.762,-5.371,0.000
4207.000,-32.715,-29.297,-24.902,-4.883,0.000
4211.000,-59.570,-35.645,-25.391,-5.859,0.000
4215.000,-62.012,-35.645,-32.227,-6.836,0.000
4219.000,-35.645,-29.785,-34.180,3.906,0.000
4223.000,-18.555,-28.320,-30.762,8.789,0.000
4226.000,-28.809,-42.969,-19.531,2.441,0.000
4230.000,-49.316,-47.363,-17.090,-3.906,0.000
4234.000,-38.574,-41.016,-19.531,-10.742,0.000
4238.000,-29.297,-40.527,-11.719,-14.160,0.000
4242.000,-37.598,-47.363,-11.719,-22.949,0.000
4246.000,-50.781,-58.594,-11.230,-32.715,0.000
4250.000,-47.363,-58.594,-4.883,-17.090,0.000
4254.000,-43.945,-65.430,-2.441,-20.020,0.000
4258.000,-55.664,-73.242,-3.906,-36.133,0.000
4262.000,-59.082,-76.172,-1.953,-32.715,0.000
4266.000,-60.059,-83.496,7.324,-36.133,0.000
4269.000,-50.293,-88.867,9.277,-44.922,0.000
4273.000,-33.203,-87.891,7.324,-34.180,0.000
4277.000,-50.293,-84.473,15.137,-28.809,0.000
4281.000,-104.980,-91.309,12.695,-33.203,0.000
4285.000,-123.535,-97.168,13.184,-20.508,0.000
4289.000,-109.863,-96.191,17.578,-22.949,0.000
4293.000,-87.891,-102.539,18.066,-28.320,0.000
4297.000,-66.406,-102.539,19.531,-24.414,0.000
4301.000,-77.148,-100.586,17.578,-41.504,0.000
4305.000,-78.125,-102.051,15.625,-41.504,0.000
4308.000,-87.402,-101.562,16.602,-30.762,0.000
4312.000,-99.121,-100.098,16.113,-35.156,0.000
4316.000,-82.031,-98.145,16.113,-43.457,0.000
4320.000,-73.242,-99.609,14.648,-46.875,0.000
4324.000,-93.262,-100.098,15.625,-42.969,0.000
4328.000,-107.910,-97.656,16.113,-37.598,0.000
4332.000,-95.703,-99.121,17.090,-35.645,0.000
4336.000,-71.777,-95.215,16.113,-30.762,0.000
4340.000,-53.223,-89.844,14.648,-21.973,0.000
4344.000,-82.520,-90.820,18.066,-19.043,0.000
4348.000,-99.121,-89.844,17.090,-22.461,0.000
4351.000,-75.684,-86.914,16.602,-26.367,0.000
4355.000,-63.477,-84.961,11.719,-35.645,0.000
4359.000,-76.172,-82.031,8.789,-35.645,0.000
4363.000,-63.477,-80.078,8.789,-26.855,0.000
4367.000,-45.410,-81.055,-2.441,-21.973,0.000
4371.000,-42.969,-79.102,-6.348,-23.438,0.000
4375.000,-41.016,-77.637,-2.930,-34.180,0.000
4379.000,-71.777,-79.102,-6.836,-34.180,0.000
4383.000,-83.496,-75.684,-8.301,-21.484,0.000
4387.000,-69.336,-70.801,-6.348,-20.996,0.000
4391.000,-81.543,-64.941,-9.766,-26.855,0.000
4394.000,-85.449,-59.082,-10.742,-19.531,0.000
4398.000,-71.777,-62.988,-11.230,-12.695,0.000
4402.000,-61.035,-61.035,-13.184,-12.695,0.000
4406.000,-62.988,-57.617,-15.137,-10.742,0.000
4410.000,-63.965,-58.594,-16.113,-9.277,0.000
4414.000,-56.641,-60.059,-14.648,-4.395,0.000
4418.000,-49.316,-58.105,-15.625,-8.301,0.000
4422.000,-48.828,-51.758,-19.531,-11.719,0.000
4426.000,-46.387,-46.387,-20.996,-16.602,0.000
4430.000,-41.016,-50.781,-23.926,-19.043,0.000
4433.000,-33.691,-55.664,-25.391,-23.438,0.000
4437.000,-25.879,-46.387,-20.508,-32.715,0.000
4441.000,-23.438,-33.691,-18.555,-38.574,0.000
4445.000,-14.160,-28.320,-18.555,-28.320,0.000
4449.000,-21.973,-32.715,-20.508,-8.301,0.000
4453.000,-45.410,-37.109,-18.555,-13.184,0.000
4457.000,-22.949,-32.227,-16.602,-25.879,0.000
4461.000,-7.324,-31.738,-19.531,-25.879,0.000
4465.000,-15.137,-31.250,-24.414,-22.949,0.000
4469.000,-1.465,-26.367,-20.996,-24.414,0.000
4473.000,-11.230,-31.250,-14.160,-28.320,0.000
4476.000,-34.180,-34.180,-16.602,-13.184,0.000
4480.000,-42.480,-31.738,-23.926,-6.836,0.000
4484.000,-51.758,-31.738,-26.367,-15.137,0.000
4488.000,-53.223,-33.203,-26.855,-16.113,0.000
4492.000,-52.246,-36.621,-33.203,-17.090,0.000
4496.000,-50.293,-36.621,-29.785,-25.391,0.000
4500.000,-55.664,-28.809,-24.414,-22.949,0.000
4504.000,-55.664,-27.344,-24.902,-16.602,0.000
4508.000,-43.945,-30.273,-23.926,-20.996,0.000
4512.000,-44.922,-32.715,-28.320,-18.066,0.000
4516.000,-52.734,-29.785,-33.691,-18.555,0.000
4519.000,-44.922,-24.902,-32.715,-25.879,0.000
4523.000,-31.250,-25.879,-28.809,-28.320,0.000
4527.000,-26.855,-28.809,-26.367,-26.367,0.000
4531.000,-41.504,-25.879,-25.879,-20.020,0.000
4535.000,-49.316,-19.043,-28.320,-23.438,0.000
4539.000,-36.621,-22.461,-33.203,-30.762,0.000
4543.000,-32.715,-29.297,-33.203,-33.691,0.000
4547.000,-31.250,-26.855,-31.250,-28.320,0.000
4551.000,-26.855,-28.809,-31.738,-19.043,0.000
4555.000,-12.207,-31.250,-30.762,-25.391,0.000
4558.000,-18.555,-27.832,-30.762,-28.809,0.000
4562.000,-56.641,-33.691,-32.227,-23.926,0.000
4566.000,-68.848,-34.668,-33.691,-27.344,0.000
4570.000,-47.363,-29.297,-32.715,-27.832,0.000
4574.000,-29.297,-33.691,-31.250,-31.738,0.000
4578.000,-35.645,-33.203,-29.297,-23.926,0.000
4582.000,-50.781,-36.621,-28.320,-15.625,0.000
4586.000,-54.199,-36.621,-27.344,-16.602,0.000
4590.000,-68.359,-34.180,-25.879,-14.160,0.000
4594.000,-69.336,-36.133,-26.367,-10.254,0.000
4598.000,-44.922,-35.645,-20.996,0.000,0.000
4601.000,-22.949,-33.203,-28.809,1.465,0.000
4605.000,-19.531,-27.344,-39.551,-17.090,0.000
4609.000,-28.809,-21.973,-36.621,-30.273,0.000
4613.000,-34.180,-9.766,-38.086,-23.438,0.000
4617.000,-24.902,-4.883,-40.527,-17.090,0.000
4621.000,-12.695,-1.465,-41.016,-17.090,0.000
4625.000,-11.230,8.789,-43.457,-14.648,0.000
4629.000,-8.789,11.719,-48.340,-14.160,0.000
4633.000,-12.695,7.812,-50.781,-24.414,0.000
4637.000,4.395,18.066,-53.223,-21.973,0.000
4641.000,24.902,25.391,-51.758,-16.602,0.000
4644.000,3.906,19.043,-54.199,-27.832,0.000
4648.000,-13.184,11.719,-60.059,-33.203,0.000
4652.000,-1.953,18.555,-62.012,-33.203,0.000
4656.000,11.230,27.832,-63.965,-38.574,0.000
4660.000,4.883,28.320,-60.547,-26.855,0.000
4664.000,25.879,33.691,-61.035,-13.184,0.000
4668.000,34.668,42.969,-63.477,-16.602,0.000
4672.000,-17.578,37.109,-57.129,-18.555,0.000
4676.000,-39.062,26.855,-62.988,-18.066,0.000
4680.000,-23.926,23.438,-68.848,-20.996,0.000
4683.000,-13.672,20.020,-62.500,-13.184,0.000
4687.000,-10.254,21.973,-64.453,-15.625,0.000
4691.000,-13.184,26.367,-64.453,-23.926,0.000
4695.000,-11.719,30.273,-62.500,-18.555,0.000
4699.000,11.230,33.691,-65.918,-20.996,0.000
4703.000,26.367,39.062,-66.895,-28.809,0.000
4707.000,31.738,36.621,-66.406,-25.391,0.000
4711.000,15.625,33.203,-67.383,-20.020,0.000
4715.000,-7.324,29.297,-65.918,-19.043,0.000
4719.000,-3.418,22.949,-62.500,-26.855,0.000
4723.000,-5.371,23.926,-59.570,-36.133,0.000
4726.000,8.301,27.832,-57.129,-29.785,0.000
4730.000,10.254,21.484,-56.641,-22.461,0.000
4734.000,0.977,18.066,-53.711,-19.531,0.000
4738.000,10.742,24.902,-51.758,-22.461,0.000
4742.000,0.488,19.043,-50.293,-19.043,0.000
4746.000,3.418,13.184,-49.805,0.977,0.000
4750.000,-3.418,17.578,-54.688,2.441,0.000
4754.000,8.789,21.484,-48.828,0.977,0.000
4758.000,30.273,20.508,-41.016,2.930,0.000
4762.000,26.367,19.043,-42.969,0.488,0.000
4765.000,26.367,21.973,-41.504,6.348,0.000
4769.000,22.949,20.996,-44.434,7.324,0.000
4773.000,24.414,18.066,-50.781,3.418,0.000
4777.000,38.574,16.602,-54.199,5.859,0.000
4781.000,24.902,15.625,-54.199,14.648,0.000
4785.000,11.230,13.184,-52.246,13.184,0.000
4789.000,13.672,14.648,-52.246,-1.465,0.000
4793.000,-12.695,15.137,-48.340,-3.418,0.000
4797.000,-16.602,11.230,-43.945,7.324,0.000
4801.000,-13.672,9.277,-42.969,6.348,0.000
4805.000,-10.742,11.230,-47.363,-8.301,0.000
4808.000,10.254,16.602,-46.875,-13.184,0.000
4812.000,15.625,19.531,-45.410,-9.277,0.000
4816.000,0.000,11.719,-44.434,-10.742,0.000
4820.000,-10.742,3.418,-45.898,-11.719,0.000
4824.000,-24.902,4.883,-49.316,-13.672,0.000
4828.000,-18.555,1.465,-51.758,-18.555,0.000
4832.000,3.418,-0.488,-52.734,-12.695,0.000
4836.000,20.020,-0.977,-46.875,-8.301,0.000
4840.000,4.883,0.000,-45.898,-22.461,0.000
4844.000,-12.207,-2.930,-43.457,-27.832,0.000
4848.000,-6.348,-11.719,-38.574,-14.160,0.000
4851.000,-25.391,-10.254,-39.551,-8.789,0.000
4855.000,-30.273,-10.742,-33.691,-5.859,0.000
4859.000,-23.926,-7.812,-31.738,-16.602,0.000
4863.000,-9.766,-7.812,-30.273,-14.648,0.000
4867.000,0.000,-11.719,-32.227,-3.906,0.000
4871.000,-3.418,-6.348,-35.645,-17.578,0.000
4875.000,-14.648,-3.418,-29.785,-24.902,0.000
4879.000,-23.438,-11.719,-32.227,-24.902,0.000
4883.000,0.488,-10.254,-35.645,-23.438,0.000
4887.000,2.930,-3.418,-32.227,-20.020,0.000
4890.000,-9.277,-9.766,-33.203,-23.926,0.000
4894.000,-13.672,-13.184,-34.180,-20.996,0.000
4898.000,-25.879,-12.695,-33.203,-12.207,0.000
4902.000,-38.086,-13.672,-34.668,-17.578,0.000
4906.000,-44.434,-14.160,-36.621,-21.973,0.000
4910.000,-26.367,-14.648,-33.691,-12.695,0.000
4914.000,-20.020,-15.137,-36.621,-12.207,0.000
4918.000,-41.992,-11.230,-34.668,-26.855,0.000
4922.000,-36.621,-9.277,-29.785,-21.484,0.000
4926.000,-35.156,-17.090,-36.621,-20.996,0.000
4930.000,-62.988,-22.461,-41.504,-43.945,0.000
4933.000,-56.152,-25.391,-41.016,-39.062,0.000
4937.000,-24.902,-26.855,-38.086,-20.996,0.000
4941.000,-32.715,-23.438,-40.039,-21.484,0.000
4945.000,-34.668,-23.926,-41.016,-29.785,0.000
4949.000,-15.137,-25.879,-36.133,-24.414,0.000
4953.000,-20.996,-32.227,-32.715,-23.438,0.000
4957.000,-40.527,-38.574,-38.086,-27.832,0.000
4961.000,-19.531,-35.156,-32.227,-28.320,0.000
4965.000,-1.953,-30.762,-26.367,-37.598,0.000
4969.000,-11.230,-31.738,-31.738,-36.133,0.000
4973.000,-30.273,-30.762,-24.414,-30.762,0.000
4976.000,-39.551,-30.273,-23.926,-32.227,0.000
4980.000,-35.645,-29.297,-26.367,-26.855,0.000
4984.000,-42.480,-26.855,-23.926,-27.832,0.000
4988.000,-34.668,-33.691,-28.320,-46.875,0.000
4992.000,-20.508,-36.133,-30.762,-47.363,0.000
4996.000,-21.973,-37.109,-28.809,-37.109,0.000
5000.000,-48.340,-37.109,-25.391,-29.785,0.000
5004.000,-58.594,-40.527,-21.484,-25.391,0.000
5008.000,-51.270,-40.527,-21.973,-32.715,0.000
5012.000,-32.227,-31.250,-22.949,-32.715,0.000
5015.000,-34.668,-30.273,-25.391,-25.879,0.000
5019.000,-48.828,-34.180,-23.438,-28.320,0.000
5023.000,-29.297,-38.574,-19.531,-32.715,0.000
5027.000,-18.555,-40.527,-24.902,-27.344,0.000
5031.000,-19.531,-41.992,-30.273,-25.391,0.000
5035.000,-39.551,-41.016,-31.738,-29.297,0.000
5039.000,-55.664,-39.062,-27.832,-33.203,0.000
5043.000,-46.875,-39.551,-24.902,-35.156,0.000
5047.000,-52.734,-39.062,-26.367,-28.320,0.000
5051.000,-60.059,-38.574,-32.227,-32.227,0.000
5055.000,-30.762,-34.180,-31.738,-31.738,0.000
5058.000,5.859,-30.762,-18.555,-8.301,0.000
5062.000,-32.227,-39.062,-7.324,-10.254,0.000
5066.000,-73.730,-52.734,-13.672,-42.480,0.000
5070.000,-62.012,-58.594,-17.578,-42.480,0.000
5074.000,-57.617,-60.547,-13.672,-35.645,0.000
5078.000,-63.477,-64.941,-9.277,-50.781,0.000
5082.000,-54.688,-69.824,-2.441,-46.387,0.000
5086.000,-65.430,-74.707,3.418,-48.340,0.000
5090.000,-87.891,-73.242,2.441,-41.504,0.000
5094.000,-94.238,-78.613,4.395,-36.133,0.000
5098.000,-94.727,-87.891,6.836,-57.617,0.000
5101.000,-76.172,-91.797,3.418,-59.082,0.000
5105.000,-74.219,-86.914,5.859,-61.523,0.000
5109.000,-100.586,-88.379,6.836,-70.801,0.000
5113.000,-114.258,-96.191,5.371,-63.965,0.000
5117.000,-104.492,-100.098,5.371,-51.758,0.000
5121.000,-90.332,-97.656,11.230,-48.828,0.000
5125.000,-102.051,-100.098,16.113,-61.035,0.000
5129.000,-112.793,-101.074,15.625,-51.270,0.000
5133.000,-106.934,-100.098,14.648,-46.875,0.000
5137.000,-96.680,-106.445,10.742,-58.105,0.000
5140.000,-83.984,-105.469,12.207,-59.570,0.000
5144.000,-87.891,-103.516,7.324,-62.500,0.000
5148.000,-84.473,-101.074,9.277,-53.223,0.000
5152.000,-73.242,-94.727,13.672,-46.875,0.000
5156.000,-63.477,-101.074,6.836,-51.758,0.000
5160.000,-70.801,-101.562,5.371,-49.805,0.000
5164.000,-70.312,-94.238,5.859,-44.434,0.000
5168.000,-54.688,-99.609,2.930,-51.758,0.000
5172.000,-68.848,-99.609,0.977,-46.387,0.000
5176.000,-119.141,-95.215,-5.859,-41.016,0.000
5180.000,-118.652,-91.797,-4.883,-29.297,0.000
5183.000,-76.660,-84.961,-0.488,-15.137,0.000
5187.000,-63.965,-77.637,-6.836,-22.461,0.000
5191.000,-61.035,-75.684,-11.230,-24.902,0.000
5195.000,-33.203,-72.266,-14.160,-20.508,0.000
5199.000,-38.574,-69.824,-17.090,-17.578,0.000
5203.000,-71.777,-68.848,-15.137,-25.879,0.000
5207.000,-79.102,-61.523,-14.160,-18.555,0.000
5211.000,-70.312,-62.988,-18.066,-13.184,0.000
5215.000,-54.688,-66.895,-21.484,-24.902,0.000
5219.000,-63.477,-60.059,-20.996,-26.367,0.000
5223.000,-52.734,-55.664,-20.020,-20.996,0.000
5226.000,-44.922,-54.199,-18.066,-12.695,0.000
5230.000,-54.199,-52.734,-13.672,-8.789,0.000
5234.000,-54.688,-50.781,-13.672,-13.184,0.000
5238.000,-50.781,-47.852,-13.672,-15.137,0.000
5242.000,-38.574,-42.480,-12.695,-15.137,0.000
5246.000,-27.832,-35.156,-13.184,-4.883,0.000
5250.000,-19.531,-34.668,-14.648,5.371,0.000
5254.000,-26.855,-37.109,-19.531,-10.742,0.000
5258.000,-34.180,-41.016,-19.531,-27.832,0.000
5262.000,-26.855,-39.551,-17.578,-20.020,0.000
5265.000,-20.020,-36.133,-18.066,-18.555,0.000
5269.000,-18.555,-37.109,-16.113,-10.742,0.000
5273.000,-24.902,-38.086,-17.090,-0.488,0.000
5277.000,-41.992,-39.062,-15.137,-16.602,0.000
5281.000,-40.527,-42.969,-18.555,-26.367,0.000
5285.000,-20.508,-38.574,-24.414,-28.809,0.000
5289.000,-16.602,-33.691,-19.531,-33.691,0.000
5293.000,-37.109,-39.551,-18.555,-29.785,0.000
5297.000,-42.969,-41.504,-17.578,-16.113,0.000
5301.000,-47.363,-35.156,-15.625,-13.672,0.000
5305.000,-49.805,-29.297,-17.090,-18.066,0.000
5308.000,-25.879,-27.344,-17.578,-15.625,0.000
5312.000,-28.809,-25.879,-17.578,-8.301,0.000
5316.000,-40.039,-30.273,-20.508,-12.695,0.000
5320.000,-27.832,-31.738,-19.043,-27.344,0.000
5324.000,-38.574,-30.273,-17.578,-29.297,0.000
5328.000,-41.992,-29.297,-18.066,-20.996,0.000
5332.000,-21.973,-26.855,-15.625,-15.625,0.000
5336.000,-39.062,-27.832,-20.996,-22.949,0.000
5340.000,-46.875,-27.344,-20.508,-28.320,0.000
5344.000,-35.645,-30.273,-17.578,-20.020,0.000
5348.000,-23.926,-32.227,-22.949,-12.207,0.000
5351.000,-39.551,-29.297,-24.902,-15.137,0.000
5355.000,-57.129,-26.367,-22.949,-21.973,0.000
5359.000,-41.504,-31.250,-30.762,-25.879,0.000
5363.000,-41.992,-35.645,-36.621,-24.902,0.000
5367.000,-40.039,-29.297,-32.227,-27.832,0.000
5371.000,-46.875,-30.762,-27.832,-34.668,0.000
5375.000,-57.617,-31.738,-23.926,-22.461,0.000
5379.000,-42.969,-28.809,-24.902,-16.602,0.000
5383.000,-43.457,-31.250,-24.414,-25.391,0.000
5387.000,-54.199,-29.785,-25.391,-27.344,0.000
5390.000,-57.617,-26.367,-31.250,-27.344,0.000
5394.000,-54.688,-25.879,-29.297,-22.949,0.000
5398.000,-51.758,-28.809,-29.297,-33.691,0.000
5402.000,-43.945,-29.785,-30.273,-48.340,0.000
5406.000,-20.996,-29.297,-24.414,-42.480,0.000
5410.000,-21.973,-26.855,-26.367,-36.133,0.000
5414.000,-32.227,-25.391,-31.250,-33.203,0.000
5418.000,-31.738,-27.832,-27.344,-29.297,0.000
5422.000,-40.039,-27.832,-24.902,-28.809,0.000
5426.000,-41.504,-27.832,-22.461,-30.273,0.000
5430.000,-33.691,-31.738,-21.484,-26.855,0.000
5433.000,-22.461,-25.879,-30.273,-27.832,0.000
5437.000,-6.836,-17.578,-35.156,-34.668,0.000
5441.000,-15.137,-26.855,-35.156,-36.621,0.000
5445.000,-56.152,-33.691,-31.250,-29.297,0.000
5449.000,-69.824,-29.297,-29.297,-21.973,0.000
5453.000,-54.688,-26.855,-32.715,-23.438,0.000
5457.000,-45.410,-27.832,-31.250,-33.691,0.000
5461.000,-39.551,-27.344,-30.273,-36.133,0.000
5465.000,-31.738,-24.902,-29.297,-28.809,0.000
5469.000,-27.832,-26.855,-29.785,-27.344,0.000
5473.000,-42.480,-28.320,-31.250,-33.203,0.000
5476.000,-42.480,-24.902,-28.320,-35.156,0.000
5480.000,-41.016,-30.273,-27.344,-30.762,0.000
5484.000,-68.848,-34.668,-33.203,-27.832,0.000
5488.000,-63.477,-30.273,-35.645,-28.320,0.000
5492.000,-21.973,-26.855,-31.738,-17.578,0.000
5496.000,-18.555,-17.090,-28.320,-26.367,0.000
5500.000,-33.691,-12.695,-26.855,-32.715,0.000
5504.000,-31.738,-15.137,-27.832,-33.203,0.000
5508.000,-19.531,-14.160,-27.832,-36.621,0.000
5512.000,-19.043,-12.695,-33.203,-25.879,0.000
5515.000,-26.855,-16.602,-42.969,-26.855,0.000
5519.000,-17.090,-8.789,-44.922,-20.508,0.000
5523.000,-6.348,0.488,-47.852,-26.855,0.000
5527.000,6.836,4.883,-52.246,-23.438,0.000
5531.000,24.414,14.160,-49.316,-13.184,0.000
5535.000,35.156,15.137,-47.852,-29.297,0.000
5539.000,22.949,17.090,-50.781,-26.367,0.000
5543.000,0.488,21.484,-59.082,-17.090,0.000
5547.000,0.488,20.996,-67.383,-12.695,0.000
5551.000,2.441,23.926,-63.965,-6.348,0.000
5555.000,8.789,37.598,-52.246,-1.465,0.000
5558.000,28.809,42.969,-46.875,2.441,0.000
5562.000,34.180,38.086,-54.199,6.836,0.000
5566.000,13.184,33.203,-62.012,12.695,0.000
5570.000,-0.977,31.250,-61.523,18.555,0.000
5574.000,9.277,30.273,-62.500,16.113,0.000
5578.000,29.785,34.180,-62.988,14.160,0.000
5582.000,38.574,37.109,-65.918,14.160,0.000
5586.000,35.645,37.109,-67.871,13.184,0.000
5590.000,34.180,37.109,-59.082,16.602,0.000
5594.000,33.691,33.691,-58.105,16.602,0.000
5598.000,10.742,31.738,-59.570,17.578,0.000
5601.000,21.484,31.250,-54.688,28.320,0.000
5605.000,33.203,26.855,-61.035,17.090,0.000
5609.000,18.066,26.855,-59.082,8.789,0.000
5613.000,12.207,28.809,-50.293,17.578,0.000
5617.000,9.277,25.879,-51.270,12.207,0.000
5621.000,4.883,25.879,-54.199,-1.465,0.000
5625.000,16.113,24.902,-53.711,-5.859,0.000
5629.000,42.969,28.320,-48.828,10.254,0.000
5633.000,60.059,27.832,-44.434,18.066,0.000
5637.000,46.875,22.949,-49.316,0.000,0.000
5640.000,18.066,22.949,-46.387,-7.324,0.000
5644.000,12.207,22.949,-41.504,5.371,0.000
5648.000,9.766,18.066,-42.969,1.953,0.000
5652.000,18.555,15.137,-44.434,-9.277,0.000
5656.000,37.598,19.043,-40.527,-13.672,0.000
5660.000,21.973,14.648,-44.922,-19.531,0.000
5664.000,27.344,10.742,-55.664,-20.020,0.000
5668.000,20.996,13.672,-52.734,-17.578,0.000
5672.000,-17.578,13.672,-46.387,-31.738,0.000
5676.000,-31.250,10.254,-47.852,-30.273,0.000
5680.000,-50.293,10.254,-50.293,-13.672,0.000
5683.000,-41.992,5.371,-49.805,-13.184,0.000
5687.000,-24.414,-0.977,-50.293,-33.691,0.000
5691.000,-39.551,-3.906,-51.758,-47.363,0.000
5695.000,-38.086,-5.859,-51.758,-27.344,0.000
5699.000,-18.066,-1.953,-44.922,-20.020,0.000
5703.000,-15.137,0.000,-44.922,-27.344,0.000
5707.000,-14.648,-7.812,-48.340,-33.203,0.000
5711.000,-24.902,-5.859,-46.387,-30.762,0.000
5715.000,-20.020,4.395,-43.457,-20.020,0.000
5719.000,-8.301,3.418,-40.527,-17.090,0.000
5723.000,-16.113,-4.395,-34.668,-20.508,0.000
5726.000,0.977,-5.859,-34.668,-21.973,0.000
5730.000,16.113,-2.441,-41.992,-35.645,0.000
5734.000,-10.254,-2.441,-45.410,-36.133,0.000
5738.000,-31.738,-6.348,-42.480,-23.926,0.000
5742.000,-32.715,-8.301,-41.504,-17.090,0.000
5746.000,-31.250,-7.324,-39.551,-18.066,0.000
5750.000,-20.020,-11.230,-38.086,-27.832,0.000
5754.000,-27.832,-10.254,-39.551,-26.855,0.000
5758.000,-27.344,-8.301,-36.133,-28.809,0.000
5762.000,-24.414,-14.160,-34.180,-34.180,0.000
5765.000,-20.508,-15.625,-35.156,-33.691,0.000
5769.000,-5.859,-10.742,-32.227,-30.762,0.000
5773.000,-31.250,-12.207,-30.273,-27.832,0.000
5777.000,-24.414,-12.695,-29.297,-13.672,0.000
5781.000,-11.719,-14.648,-32.715,-19.043,0.000
5785.000,-30.273,-16.602,-30.762,-20.020,0.000
5789.000,-39.062,-22.461,-33.203,-15.137,0.000
5793.000,-37.598,-28.320,-39.062,-20.996,0.000
5797.000,-41.992,-25.391,-37.598,-23.438,0.000
5801.000,-57.129,-26.855,-37.598,-43.945,0.000
5805.000,-47.852,-23.438,-39.062,-42.480,0.000
5808.000,-23.926,-17.090,-41.504,-21.484,0.000
5812.000,-20.020,-20.508,-36.133,-16.602,0.000
5816.000,-19.043,-17.090,-31.738,-13.184,0.000
5820.000,-22.949,-11.719,-33.203,-12.695,0.000
5824.000,-25.879,-21.973,-40.527,-29.785,0.000
5828.000,-20.020,-31.738,-41.504,-28.809,0.000
5832.000,-13.184,-28.809,-35.156,-17.578,0.000
5836.000,-12.207,-27.344,-36.621,-20.508,0.000
5840.000,-5.371,-25.391,-35.156,-21.973,0.000
5844.000,-3.418,-24.414,-30.762,-21.484,0.000
5847.000,10.254,-27.832,-29.785,-23.438,0.000
5851.000,9.766,-27.832,-28.320,-25.391,0.000
5855.000,-19.531,-32.715,-30.273,-19.043,0.000
5859.000,-29.297,-35.645,-34.180,-20.020,0.000
5863.000,-13.672,-31.738,-37.109,-23.926,0.000
5867.000,-24.414,-35.156,-35.156,-12.695,0.000
5871.000,-32.715,-37.109,-27.832,-6.348,0.000
5875.000,-21.973,-34.668,-29.785,-13.672,0.000
5879.000,-33.691,-33.691,-32.227,-17.578,0.000
5883.000,-40.527,-28.320,-28.320,-20.020,0.000
5887.000,-35.156,-27.344,-27.832,-20.996,0.000
5890.000,-42.480,-30.762,-28.809,-19.531,0.000
5894.000,-52.246,-30.273,-27.832,-16.113,0.000
5898.000,-47.363,-33.691,-23.438,-9.766,0.000
5902.000,-46.875,-39.062,-24.414,-9.277,0.000
5906.000,-43.945,-32.715,-25.391,-20.508,0.000
5910.000,-41.016,-41.504,-26.367,-20.020,0.000
5914.000,-30.762,-62.012,-33.203,-18.066,0.000
5918.000,-37.598,-50.293,-32.715,-22.949,0.000
5922.000,-54.199,-32.227,-27.344,-27.344,0.000
5926.000,-50.781,-34.180,-28.320,-33.203,0.000
5930.000,-44.434,-35.156,-29.297,-27.832,0.000
5933.000,-56.152,-31.250,-32.227,-35.156,0.000
5937.000,-47.363,-33.691,-38.086,-34.668,0.000
5941.000,-0.977,-29.297,-33.203,-8.301,0.000
5945.000,-2.441,-36.133,-15.625,-2.441,0.000
5949.000,-33.691,-42.969,-14.648,-29.297,0.000
5953.000,-34.668,-45.410,-23.438,-51.758,0.000
5957.000,-36.621,-58.105,-22.461,-52.734,0.000
5961.000,-43.457,-62.988,-16.113,-47.852,0.000
5965.000,-48.340,-65.918,-13.672,-48.828,0.000
5969.000,-43.457,-69.336,-11.230,-42.480,0.000
5972.000,-50.293,-66.895,-3.906,-53.711,0.000
5976.000,-65.430,-67.383,-8.301,-67.871,0.000
5980.000,-54.688,-76.172,-6.348,-52.246,0.000
5984.000,-44.434,-81.055,3.418,-49.316,0.000
5988.000,-100.098,-86.426,3.906,-65.918,0.000
5992.000,-127.930,-89.355,6.836,-57.129,0.000
5996.000,-106.934,-93.262,11.230,-52.246,0.000
6000.000,-90.820,-98.145,13.184,-46.875,0.000
6004.000,-74.219,-94.727,15.137,-48.340,0.000
6008.000,-72.754,-97.656,17.578,-57.129,0.000
6012.000,-68.359,-104.492,19.043,-46.387,0.000
6015.000,-74.707,-106.934,18.066,-35.156,0.000
6019.000,-115.723,-110.352,16.113,-37.109,0.000
6023.000,-139.160,-110.840,16.113,-40.527,0.000
6027.000,-125.488,-112.305,13.184,-38.086,0.000
6031.000,-102.539,-109.863,12.207,-30.273,0.000
6035.000,-89.844,-104.004,15.625,-30.273,0.000
6039.000,-89.355,-103.516,17.090,-41.016,0.000
6043.000,-67.383,-102.539,11.230,-30.273,0.000
6047.000,-61.035,-105.469,10.254,-16.602,0.000
6051.000,-82.520,-100.098,9.277,-22.461,0.000
6055.000,-78.613,-92.773,5.371,-19.531,0.000
6058.000,-73.242,-93.750,3.418,-18.555,0.000
6062.000,-70.312,-93.750,1.953,-23.438,0.000
6066.000,-53.711,-92.773,1.465,-21.484,0.000
6070.000,-46.875,-85.449,-4.395,-30.273,0.000
6074.000,-60.059,-81.543,-6.348,-36.621,0.000
6078.000,-41.992,-78.125,-1.465,-18.555,0.000
6082.000,-12.695,-69.824,0.000,-14.160,0.000
6086.000,-20.996,-66.406,-5.859,-31.738,0.000
6090.000,-8.301,-62.500,-8.789,-40.039,0.000
6094.000,-68.848,-64.453,-2.441,-23.438,0.000
6097.000,-132.812,-66.895,-5.371,-6.348,0.000
6101.000,-100.098,-59.082,-8.789,-8.301,0.000
6105.000,-78.125,-55.664,-5.859,-19.043,0.000
6109.000,-64.453,-52.734,-7.812,-17.578,0.000
6113.000,-47.852,-52.246,-14.160,-11.719,0.000
6117.000,-37.109,-48.828,-16.113,-11.230,0.000
6121.000,-44.434,-44.434,-14.648,-7.812,0.000
6125.000,-46.875,-48.340,-16.113,-7.324,0.000
6129.000,-46.387,-54.199,-20.996,-16.602,0.000
6133.000,-51.270,-53.711,-23.438,-25.391,0.000
6137.000,-35.156,-46.387,-20.020,-14.160,0.000
6140.000,-24.414,-40.039,-12.695,-6.348,0.000
6144.000,-26.855,-36.621,-8.301,-4.395,0.000
6148.000,-25.879,-35.645,-15.137,-9.277,0.000
6152.000,-24.902,-36.133,-18.555,-19.531,0.000
6156.000,-19.531,-35.156,-15.137,-28.809,0.000
6160.000,-16.602,-31.738,-14.160,-32.227,0.000
6164.000,-22.461,-31.738,-16.113,-25.879,0.000
6168.000,-33.691,-36.133,-19.531,-32.227,0.000
6172.000,-28.809,-36.621,-19.043,-35.156,0.000
6176.000,-13.184,-32.715,-20.020,-26.855,0.000
6180.000,-5.371,-36.133,-20.996,-29.785,0.000
6183.000,-14.160,-41.504,-24.414,-35.645,0.000
6187.000,-15.137,-38.574,-21.973,-44.434,0.000
6191.000,-7.812,-37.109,-19.531,-41.992,0.000
6195.000,-55.176,-42.480,-24.414,-24.414,0.000
6199.000,-75.684,-45.898,-23.926,-16.602,0.000
6203.000,-67.383,-44.922,-21.484,-19.043,0.000
6207.000,-91.309,-44.434,-22.461,-22.949,0.000
6211.000,-85.449,-40.039,-24.902,-30.273,0.000
6215.000,-61.523,-33.203,-23.438,-15.625,0.000
6219.000,-62.500,-33.203,-24.414,-5.859,0.000
6222.000,-59.570,-34.668,-24.414,-24.902,0.000
6226.000,-32.227,-40.527,-24.414,-17.578,0.000
6230.000,-14.160,-37.109,-26.855,-8.789,0.000
6234.000,-28.320,-29.785,-34.668,-37.598,0.000
6238.000,-43.945,-26.367,-40.527,-58.105,0.000
6242.000,-42.480,-22.949,-36.621,-55.176,0.000
6246.000,-26.855,-20.020,-34.668,-43.945,0.000
6250.000,-8.301,-14.160,-41.016,-34.668,0.000
6254.000,-0.488,-5.371,-38.086,-35.645,0.000
6258.000,9.766,-0.488,-38.086,-35.645,0.000
6262.000,5.859,3.418,-48.340,-23.926,0.000
6265.000,-18.066,4.395,-51.270,-14.160,0.000
6269.000,-21.973,2.930,-49.805,-14.160,0.000
6273.000,-5.859,5.859,-49.316,-14.648,0.000
6277.000,-1.465,7.812,-50.781,-8.789,0.000
6281.000,5.859,15.137,-54.688,-12.695,0.000
6285.000,3.906,21.973,-55.664,-16.113,0.000
6289.000,-20.020,20.996,-59.570,-7.812,0.000
6293.000,-17.090,17.578,-62.012,-4.395,0.000
6297.000,0.488,22.461,-57.617,14.648,0.000
6301.000,-0.977,32.227,-53.711,23.926,0.000
6305.000,-0.977,26.367,-54.199,1.465,0.000
6308.000,11.719,23.926,-54.199,0.000,0.000
6312.000,18.555,27.832,-55.664,1.465,0.000
6316.000,18.555,29.297,-55.664,-16.113,0.000
6320.000,21.973,31.738,-48.340,-33.691,0.000
6324.000,18.555,33.691,-48.828,-38.086,0.000
6328.000,20.996,37.598,-55.176,-30.273,0.000
6332.000,39.062,35.156,-53.711,-29.297,0.000
6336.000,52.734,32.715,-55.664,-33.691,0.000
6340.000,47.363,33.203,-55.664,-38.574,0.000
6344.000,21.973,31.738,-52.246,-27.344,0.000
6347.000,-20.508,27.832,-49.805,-16.113,0.000
6351.000,-37.109,23.438,-49.805,-15.137,0.000
6355.000,-24.902,25.391,-52.734,-9.277,0.000
6359.000,-8.301,22.949,-55.664,-19.043,0.000
6363.000,4.395,20.996,-57.129,-21.973,0.000
6367.000,6.836,22.461,-56.152,-23.926,0.000
6371.000,16.113,19.531,-60.547,-34.668,0.000
6375.000,6.348,18.555,-64.453,-21.484,0.000
6379.000,-7.324,19.531,-60.059,-7.812,0.000
6383.000,-2.930,20.508,-55.664,-11.719,0.000
6387.000,-12.695,20.996,-56.152,-20.508,0.000
6390.000,-19.531,16.602,-57.129,-23.926,0.000
6394.000,-11.719,13.184,-51.270,-17.090,0.000
6398.000,-9.766,12.695,-53.711,-14.648,0.000
6402.000,-10.254,8.789,-58.594,-20.996,0.000
6406.000,-13.672,6.348,-55.176,-35.645,0.000
6410.000,-6.836,8.789,-50.781,-42.480,0.000
6414.000,2.441,7.812,-51.270,-29.297,0.000
6418.000,3.906,10.254,-54.688,-30.762,0.000
6422.000,-14.160,14.648,-52.734,-44.434,0.000
6426.000,-20.508,5.859,-47.852,-41.504,0.000
6430.000,0.488,9.277,-43.457,-20.508,0.000
6433.000,-1.953,8.789,-39.062,-26.855,0.000
6437.000,-22.461,4.395,-42.480,-42.969,0.000
6441.000,-40.039,4.883,-37.598,-30.273,0.000
6445.000,-41.016,2.930,-40.039,-27.344,0.000
6449.000,-36.621,1.953,-42.969,-33.691,0.000
6453.000,-30.273,-0.488,-37.598,-39.551,0.000
6457.000,-30.273,3.906,-42.969,-38.574,0.000
6461.000,-38.574,4.883,-43.457,-38.086,0.000
6465.000,-47.363,3.418,-40.527,-42.480,0.000
6469.000,-45.410,3.906,-41.992,-43.945,0.000
6472.000,-33.691,2.930,-46.875,-41.992,0.000
6476.000,-24.414,1.953,-44.434,-21.973,0.000
6480.000,-21.484,-2.441,-42.969,-16.602,0.000
6484.000,-43.945,-8.301,-43.945,-25.391,0.000
6488.000,-54.199,-8.789,-44.922,-23.438,0.000
6492.000,-45.410,-4.395,-44.922,-10.742,0.000
6496.000,-34.668,1.953,-37.109,-5.371,0.000
6500.000,-17.090,1.465,-38.086,-13.672,0.000
6504.000,-31.250,-2.930,-40.527,-12.695,0.000
6508.000,-27.832,-6.348,-38.574,-11.230,0.000
6512.000,-26.367,-12.695,-34.180,-1.465,0.000
6515.000,-27.344,-17.578,-35.645,4.883,0.000
6519.000,-12.695,-20.996,-36.133,-2.441,0.000
6523.000,-14.160,-25.879,-35.156,-7.324,0.000
6527.000,-14.648,-18.555,-36.621,-5.371,0.000
6531.000,-19.531,-20.508,-35.645,5.859,0.000
6535.000,-9.766,-25.879,-35.645,8.301,0.000
6539.000,-16.602,-20.020,-34.180,1.465,0.000
6543.000,-21.973,-17.578,-30.762,1.953,0.000
6547.000,-0.977,-15.625,-30.273,-3.906,0.000
6551.000,11.230,-11.230,-31.250,-12.207,0.000
6555.000,8.301,-13.184,-33.203,-11.230,0.000
6558.000,-1.465,-20.020,-35.645,-9.766,0.000
6562.000,-7.812,-24.414,-35.645,-19.043,0.000
6566.000,-19.531,-24.414,-28.320,-13.184,0.000
6570.000,-25.879,-16.113,-25.879,-2.930,0.000
6574.000,-14.160,-15.137,-26.855,-3.418,0.000
6578.000,-15.137,-21.973,-21.484,2.441,0.000
6582.000,-33.691,-21.484,-20.020,3.418,0.000
6586.000,-33.691,-20.508,-20.020,-2.441,0.000
6590.000,-16.602,-16.602,-17.090,5.371,0.000
6594.000,-20.996,-11.719,-17.090,15.625,0.000
6597.000,-20.020,-15.137,-21.973,11.230,0.000
6601.000,-18.066,-17.578,-24.902,7.812,0.000
6605.000,-27.344,-16.113,-24.414,0.488,0.000
6609.000,-19.043,-20.020,-25.391,-7.324,0.000
6613.000,-29.297,-20.996,-27.344,-0.488,0.000
6617.000,-31.250,-19.043,-21.973,3.418,0.000
6621.000,-13.672,-20.508,-18.066,-13.184,0.000
6625.000,-3.906,-26.855,-17.578,-20.020,0.000
6629.000,5.371,-26.855,-22.949,-24.902,0.000
6633.000,0.488,-25.391,-26.855,-34.668,0.000
6637.000,-15.625,-26.855,-28.320,-36.133,0.000
6640.000,-31.738,-25.391,-29.297,-38.086,0.000
6644.000,-39.062,-32.715,-31.738,-42.480,0.000
6648.000,-34.180,-38.574,-33.691,-40.527,0.000
6652.000,-20.020,-37.109,-36.133,-35.645,0.000
6656.000,-26.367,-35.156,-36.621,-40.527,0.000
6660.000,-47.852,-37.109,-34.180,-44.922,0.000
6664.000,-53.223,-41.992,-34.668,-37.109,0.000
6668.000,-40.039,-44.434,-34.668,-30.762,0.000
6672.000,-32.227,-44.922,-35.156,-38.086,0.000
6676.000,-45.898,-39.062,-30.762,-33.203,0.000
6680.000,-64.941,-43.457,-25.391,-20.508,0.000
6683.000,-62.988,-46.387,-24.902,-23.438,0.000
6687.000,-55.664,-40.527,-25.391,-21.973,0.000
6691.000,-58.105,-44.434,-26.367,-24.902,0.000
6695.000,-50.781,-45.410,-31.738,-28.320,0.000
6699.000,-40.039,-40.039,-34.668,-15.137,0.000
6703.000,-42.480,-37.598,-34.180,-20.508,0.000
6707.000,-34.668,-33.691,-34.668,-30.273,0.000
6711.000,-4.395,-29.785,-33.203,-20.020,0.000
6715.000,-9.766,-32.715,-31.250,-26.367,0.000
6719.000,-34.668,-30.273,-31.738,-39.062,0.000
6722.000,-17.578,-26.855,-36.133,-21.484,0.000
6726.000,10.742,-25.391,-30.762,11.230,0.000
6730.000,3.418,-28.809,-16.602,4.883,0.000
6734.000,-13.672,-32.227,-14.160,-24.902,0.000
6738.000,-3.418,-33.203,-17.090,-30.273,0.000
6742.000,-2.930,-41.504,-17.090,-28.809,0.000
6746.000,-43.457,-52.246,-9.766,-30.762,0.000
6750.000,-82.520,-58.105,-5.371,-32.715,0.000
6754.000,-72.754,-69.824,-4.883,-34.180,0.000
6758.000,-63.477,-75.195,-4.395,-37.598,0.000
6762.000,-65.430,-66.895,-4.395,-29.785,0.000
6765.000,-69.336,-74.219,1.465,-24.902,0.000
6769.000,-84.961,-83.984,9.766,-32.227,0.000
6773.000,-85.449,-83.496,10.742,-28.320,0.000
6777.000,-80.078,-83.008,7.812,-36.621,0.000
6781.000,-83.496,-92.773,7.812,-42.969,0.000
6785.000,-85.449,-96.191,9.766,-43.945,0.000
6789.000,-90.820,-96.680,8.301,-55.664,0.000
6793.000,-91.797,-94.727,14.648,-62.500,0.000
6797.000,-86.426,-91.797,17.578,-53.223,0.000
6801.000,-85.938,-95.215,14.160,-39.062,0.000
6805.000,-88.379,-97.656,14.160,-46.875,0.000
6808.000,-90.332,-99.121,12.695,-46.387,0.000
6812.000,-95.215,-106.445,10.254,-39.551,0.000
6816.000,-88.379,-111.816,10.742,-25.879,0.000
6820.000,-88.379,-111.328,13.184,-24.902,0.000
6824.000,-89.844,-107.422,11.719,-46.875,0.000
6828.000,-69.824,-109.863,9.766,-40.039,0.000
6832.000,-61.523,-116.699,3.906,-40.527,0.000
6836.000,-61.035,-108.398,0.000,-52.734,0.000
6840.000,-95.215,-107.910,6.836,-49.316,0.000
6844.000,-132.324,-110.352,8.301,-49.805,0.000
6847.000,-104.004,-104.492,3.418,-39.062,0.000
6851.000,-88.379,-104.492,0.488,-27.832,0.000
6855.000,-75.684,-99.609,-0.977,-29.785,0.000
6859.000,-40.039,-92.773,-3.418,-34.668,0.000
6863.000,-24.414,-89.844,-5.371,-31.250,0.000
6867.000,-47.852,-89.844,-9.277,-25.879,0.000
6871.000,-106.445,-86.426,-6.348,-26.855,0.000
6875.000,-122.559,-84.961,-6.348,-15.137,0.000
6879.000,-104.492,-86.914,-13.672,-3.906,0.000
6883.000,-99.121,-83.008,-15.625,-8.301,0.000
6887.000,-79.102,-77.148,-10.742,-14.160,0.000
6890.000,-60.547,-70.801,-7.812,-18.066,0.000
6894.000,-55.664,-62.500,-11.719,-18.066,0.000
6898.000,-62.012,-61.035,-12.207,-19.531,0.000
6902.000,-60.059,-57.617,-7.812,-22.461,0.000
6906.000,-44.434,-54.199,-10.742,-25.391,0.000
6910.000,-40.039,-56.641,-16.602,-29.297,0.000
6914.000,-53.711,-50.293,-18.555,-27.832,0.000
6918.000,-52.246,-43.945,-14.648,-22.949,0.000
6922.000,-44.922,-43.457,-10.254,-26.367,0.000
6926.000,-42.480,-36.133,-13.184,-38.574,0.000
6930.000,-46.875,-34.668,-16.113,-39.551,0.000
6933.000,-56.641,-39.062,-18.066,-31.250,0.000
6937.000,-50.781,-39.062,-22.949,-34.180,0.000
6941.000,-53.711,-40.039,-27.832,-34.668,0.000
6945.000,-43.457,-39.551,-34.180,-25.879,0.000
6949.000,-35.645,-38.086,-39.551,-20.508,0.000
6953.000,-47.852,-33.691,-41.992,-31.250,0.000
6957.000,-47.852,-35.645,-41.992,-47.852,0.000
6961.000,-50.293,-39.551,-43.457,-47.363,0.000
6965.000,-45.898,-39.551,-43.457,-34.668,0.000
6969.000,-49.316,-37.598,-44.434,-35.645,0.000
6972.000,-62.988,-37.598,-43.457,-41.016,0.000
6976.000,-59.082,-34.180,-33.691,-29.785,0.000
6980.000,-40.039,-36.621,-33.203,-31.738,0.000
6984.000,-26.367,-42.480,-34.180,-42.480,0.000
6988.000,-19.531,-37.598,-33.203,-46.875,0.000
6992.000,-34.180,-36.621,-37.598,-41.504,0.000
6996.000,-57.129,-42.480,-38.574,-37.109,0.000
7000.000,-81.055,-45.898,-34.180,-36.621,0.000
7004.000,-68.359,-40.039,-31.250,-31.738,0.000
7008.000,-50.781,-38.086,-29.297,-27.832,0.000
7012.000,-52.246,-39.062,-29.785,-16.113,0.000
7015.000,-43.945,-34.668,-23.926,-17.578,0.000
7019.000,-33.203,-34.668,-22.461,-34.180,0.000
7023.000,-24.902,-38.574,-22.949,-36.133,0.000
7027.000,-32.715,-38.086,-22.949,-27.832,0.000
7031.000,-46.875,-33.203,-24.902,-18.555,0.000
7035.000,-53.223,-39.062,-25.879,-17.090,0.000
7039.000,-49.316,-40.527,-21.973,-14.648,0.000
7043.000,-45.898,-39.062,-20.508,-12.695,0.000
7047.000,-46.387,-37.109,-20.508,-14.648,0.000
7051.000,-21.484,-25.391,-21.484,-18.555,0.000
7054.000,-6.836,-26.855,-24.414,-23.926,0.000
7058.000,-16.602,-29.785,-21.973,-28.809,0.000
7062.000,-18.066,-26.855,-26.855,-32.715,0.000
7066.000,-12.207,-26.367,-29.785,-21.484,0.000
7070.000,-10.742,-23.926,-18.555,-13.672,0.000
7074.000,-16.113,-24.902,-20.508,-19.043,0.000
7078.000,-9.766,-24.414,-27.832,-18.066,0.000
7082.000,-16.602,-21.484,-25.391,-11.230,0.000
7086.000,-32.715,-21.973,-25.879,-14.648,0.000
7090.000,-31.250,-21.973,-25.879,-21.484,0.000
7094.000,-28.320,-15.625,-21.973,-13.672,0.000
7097.000,-31.738,-17.578,-20.020,-15.137,0.000
7101.000,-44.434,-22.461,-20.996,-12.695,0.000
7105.000,-58.105,-20.996,-22.949,-14.648,0.000
7109.000,-53.223,-24.902,-24.902,-25.879,0.000
7113.000,-39.551,-27.344,-24.902,-31.250,0.000
7117.000,-37.109,-22.949,-24.414,-26.367,0.000
7121.000,-37.598,-21.484,-24.414,-31.738,0.000
7125.000,-40.527,-21.973,-30.273,-46.387,0.000
7129.000,-31.738,-23.926,-27.832,-48.828,0.000
7133.000,-17.578,-23.926,-21.484,-41.016,0.000
7137.000,-22.461,-25.391,-26.855,-32.227,0.000
7140.000,-23.926,-27.832,-25.879,-18.066,0.000
7144.000,-7.324,-26.367,-21.484,-10.742,0.000
7148.000,-18.555,-30.762,-26.367,-29.785,0.000
7152.000,-50.781,-30.762,-34.668,-50.781,0.000
7156.000,-62.012,-28.809,-36.621,-52.734,0.000
7160.000,-37.109,-23.438,-31.250,-30.762,0.000
7164.000,-22.461,-17.578,-40.039,-27.832,0.000
7168.000,-14.648,-20.020,-49.316,-51.758,0.000
7172.000,-17.090,-19.531,-48.828,-61.035,0.000
7176.000,-17.578,-7.324,-51.758,-41.504,0.000
7179.000,-8.301,1.465,-54.199,-23.438,0.000
7183.000,-15.137,-1.953,-50.293,-30.762,0.000
7187.000,-7.324,1.465,-48.340,-39.551,0.000
7191.000,-18.555,5.371,-50.293,-37.109,0.000
7195.000,-18.066,2.930,-53.711,-29.785,0.000
7199.000,-3.906,5.371,-58.594,-22.461,0.000
7203.000,-12.695,7.324,-58.105,-30.273,0.000
7207.000,1.465,9.766,-61.035,-34.668,0.000
7211.000,9.766,15.137,-62.988,-39.062,0.000
7215.000,-0.488,17.090,-60.059,-37.598,0.000
7219.000,-3.906,17.578,-59.082,-33.691,0.000
7222.000,14.648,19.043,-58.105,-31.738,0.000
7226.000,28.320,19.531,-58.594,-20.996,0.000
7230.000,34.668,22.461,-58.594,-18.555,0.000
7234.000,29.297,24.414,-55.664,-21.973,0.000
7238.000,7.812,30.273,-55.176,-17.090,0.000
7242.000,-21.973,25.391,-58.594,-9.766,0.000
7246.000,-28.809,20.508,-61.035,-9.766,0.000
7250.000,-1.465,27.832,-55.664,1.953,0.000
7254.000,11.719,30.273,-55.664,-1.953,0.000
7258.000,8.789,34.180,-57.617,-10.254,0.000
7262.000,9.277,36.621,-51.270,-4.883,0.000
7265.000,1.953,33.691,-52.246,-1.953,0.000
7269.000,27.832,32.715,-55.664,0.000,0.000
7273.000,34.180,33.203,-53.711,-9.277,0.000
7277.000,13.672,31.250,-53.711,-5.371,0.000
7281.000,13.184,30.762,-51.758,4.395,0.000
7285.000,30.762,35.156,-49.805,2.930,0.000
7289.000,28.809,38.574,-51.758,-8.301,0.000
7293.000,10.742,33.691,-52.246,-7.324,0.000
7297.000,24.414,29.785,-51.758,8.789,0.000
7301.000,33.203,30.762,-55.664,13.672,0.000
7304.000,28.809,23.926,-59.082,-1.465,0.000
7308.000,3.906,20.508,-56.152,-13.672,0.000
7312.000,5.371,19.043,-55.176,6.836,0.000
7316.000,19.043,20.508,-56.152,19.531,0.000
7320.000,7.812,19.531,-51.270,9.277,0.000
7324.000,-14.648,15.625,-47.852,2.441,0.000
7328.000,-26.855,11.719,-47.852,-0.488,0.000
7332.000,-10.742,11.230,-47.852,-0.977,0.000
7336.000,5.371,15.137,-50.781,-5.371,0.000
7340.000,26.367,10.254,-48.828,-9.766,0.000
7344.000,20.508,4.395,-46.387,-10.254,0.000
7347.000,-17.578,2.441,-51.270,-20.508,0.000
7351.000,-31.738,2.930,-48.340,-21.973,0.000
7355.000,-1.465,4.883,-44.434,-12.695,0.000
7359.000,11.719,6.836,-47.363,-18.555,0.000
7363.000,0.977,6.836,-46.387,-19.043,0.000
7367.000,-15.625,4.883,-43.945,-21.484,0.000
7371.000,-22.461,-5.859,-47.852,-31.250,0.000
7375.000,-10.742,-7.324,-52.734,-16.602,0.000
7379.000,-38.086,-8.301,-46.387,-16.602,0.000
7383.000,-43.457,-10.254,-41.504,-23.926,0.000
7387.000,-22.949,-6.836,-42.969,-29.297,0.000
7390.000,-13.672,-6.348,-43.945,-36.133,0.000
7394.000,-1.465,-6.348,-41.016,-26.367,0.000
7398.000,-29.785,-6.348,-41.016,-15.625,0.000
7402.000,-58.105,-10.254,-41.504,-17.578,0.000
