timestamp,TP9,AF7,AF8,TP10,Right AUX
0.000,-83.984,-41.016,-60.059,-44.922,0.000
4.000,-66.406,-38.574,-60.059,-45.898,0.000
8.000,-57.129,-41.016,-60.547,-41.992,0.000
12.000,-65.918,-43.457,-56.152,-51.270,0.000
16.000,-74.219,-34.180,-54.199,-56.641,0.000
20.000,-74.707,-29.297,-56.152,-54.199,0.000
23.000,-77.637,-36.621,-52.246,-40.527,0.000
27.000,-77.637,-41.016,-50.781,-26.367,0.000
31.000,-79.102,-39.062,-55.176,-34.668,0.000
35.000,-70.801,-38.574,-57.617,-48.340,0.000
39.000,-60.547,-38.574,-55.176,-44.922,0.000
43.000,-60.547,-35.645,-47.852,-52.734,0.000
47.000,-60.547,-35.645,-44.922,-60.547,0.000
51.000,-68.359,-38.574,-47.363,-58.105,0.000
55.000,-81.543,-35.156,-48.340,-55.176,0.000
59.000,-82.520,-32.227,-43.945,-40.039,0.000
62.000,-80.566,-30.762,-39.062,-24.902,0.000
66.000,-84.473,-33.691,-44.434,-35.645,0.000
70.000,-89.844,-35.156,-49.805,-51.758,0.000
74.000,-84.961,-29.297,-47.852,-49.805,0.000
78.000,-65.918,-28.320,-48.828,-42.480,0.000
82.000,-54.688,-26.367,-49.805,-38.574,0.000
86.000,-65.918,-27.344,-49.316,-41.992,0.000
90.000,-76.172,-34.180,-46.387,-36.133,0.000
94.000,-71.777,-32.715,-41.992,-28.320,0.000
98.000,-62.500,-28.809,-38.574,-30.762,0.000
102.000,-60.059,-30.762,-34.668,-30.273,0.000
105.000,-62.500,-31.738,-37.598,-30.762,0.000
109.000,-51.758,-30.273,-39.062,-29.785,0.000
113.000,-49.316,-32.227,-39.551,-20.020,0.000
117.000,-53.711,-36.621,-42.480,-26.855,0.000
121.000,-41.992,-36.133,-44.434,-32.227,0.000
125.000,-52.246,-35.156,-45.410,-32.715,0.000
129.000,-67.871,-38.574,-44.434,-46.387,0.000
133.000,-63.477,-38.574,-51.270,-55.664,0.000
137.000,-64.453,-39.551,-51.270,-46.387,0.000
141.000,-69.336,-34.668,-44.922,-37.109,0.000
145.000,-78.613,-31.250,-50.781,-35.645,0.000
148.000,-90.332,-30.762,-53.223,-38.574,0.000
152.000,-85.449,-34.180,-50.781,-45.410,0.000
156.000,-76.660,-39.062,-50.781,-37.598,0.000
160.000,-74.219,-35.645,-55.664,-35.645,0.000
164.000,-62.012,-32.715,-61.523,-49.316,0.000
168.000,-60.059,-41.016,-58.105,-45.410,0.000
172.000,-64.453,-41.504,-55.664,-50.293,0.000
176.000,-60.547,-27.832,-66.895,-53.223,0.000
180.000,-70.801,-25.391,-63.965,-41.992,0.000
184.000,-69.336,-27.832,-47.363,-35.645,0.000
187.000,-58.594,-25.391,-40.527,-29.297,0.000
191.000,-58.105,-26.367,-41.504,-22.461,0.000
195.000,-50.781,-30.762,-42.480,-29.297,0.000
199.000,-44.434,-27.832,-37.109,-35.156,0.000
203.000,-54.688,-27.832,-36.621,-33.203,0.000
207.000,-68.359,-30.762,-44.434,-40.527,0.000
211.000,-63.965,-29.785,-45.898,-42.969,0.000
215.000,-55.664,-29.297,-43.457,-46.875,0.000
219.000,-51.270,-32.227,-41.992,-54.199,0.000
223.000,-52.246,-38.574,-44.922,-54.199,0.000
227.000,-67.383,-37.109,-45.410,-43.945,0.000
230.000,-82.520,-34.668,-46.875,-44.434,0.000
234.000,-72.754,-34.668,-47.363,-47.852,0.000
238.000,-59.570,-38.574,-48.340,-42.480,0.000
242.000,-59.082,-37.598,-46.387,-43.945,0.000
246.000,-66.406,-37.598,-42.480,-48.340,0.000
250.000,-71.777,-42.969,-44.922,-53.223,0.000
254.000,-69.336,-35.645,-43.945,-55.664,0.000
258.000,-64.941,-26.855,-44.922,-47.363,0.000
262.000,-52.246,-28.320,-46.387,-34.180,0.000
266.000,-49.316,-31.738,-47.363,-42.969,0.000
270.000,-58.594,-34.668,-48.340,-51.270,0.000
273.000,-63.965,-35.156,-44.922,-38.086,0.000
277.000,-64.453,-29.785,-47.363,-41.016,0.000
281.000,-63.965,-32.715,-48.340,-45.410,0.000
285.000,-60.547,-37.598,-43.945,-38.574,0.000
289.000,-63.477,-35.645,-47.852,-38.086,0.000
293.000,-65.918,-34.180,-49.805,-36.133,0.000
297.000,-69.824,-41.992,-47.363,-39.551,0.000
301.000,-71.289,-36.133,-49.316,-38.574,0.000
305.000,-71.289,-23.926,-49.805,-29.297,0.000
309.000,-70.312,-33.203,-49.805,-41.016,0.000
312.000,-66.895,-38.086,-51.270,-56.641,0.000
316.000,-72.266,-37.109,-51.270,-56.641,0.000
320.000,-72.266,-37.598,-53.223,-55.664,0.000
324.000,-71.289,-37.598,-51.758,-52.246,0.000
328.000,-66.406,-42.480,-50.781,-61.035,0.000
332.000,-52.734,-42.480,-47.852,-65.430,0.000
336.000,-57.129,-40.039,-43.945,-68.359,0.000
340.000,-69.824,-33.691,-43.945,-62.988,0.000
344.000,-63.965,-20.508,-41.016,-56.641,0.000
348.000,-54.688,-21.973,-41.016,-60.059,0.000
352.000,-53.711,-27.832,-44.922,-46.387,0.000
355.000,-65.918,-28.320,-40.527,-37.598,0.000
359.000,-76.172,-31.738,-41.992,-40.039,0.000
363.000,-73.242,-29.297,-43.457,-33.691,0.000
367.000,-69.824,-24.902,-38.574,-24.902,0.000
371.000,-57.129,-28.809,-37.109,-17.578,0.000
375.000,-48.828,-29.785,-36.133,-20.508,0.000
379.000,-47.363,-24.902,-33.203,-20.996,0.000
383.000,-47.363,-24.902,-36.621,-17.090,0.000
387.000,-49.316,-23.926,-41.016,-22.949,0.000
391.000,-59.082,-26.367,-43.457,-28.809,0.000
395.000,-70.801,-28.320,-48.828,-33.203,0.000
398.000,-70.801,-28.809,-50.781,-33.203,0.000
402.000,-62.988,-27.832,-49.316,-41.504,0.000
406.000,-64.453,-29.785,-42.969,-57.129,0.000
410.000,-63.965,-33.691,-44.922,-53.223,0.000
414.000,-61.035,-30.273,-46.875,-46.875,0.000
418.000,-69.824,-26.855,-44.434,-50.781,0.000
422.000,-57.129,-25.879,-45.898,-46.875,0.000
426.000,-47.363,-24.902,-48.828,-44.434,0.000
430.000,-60.059,-23.438,-48.340,-43.945,0.000
434.000,-74.707,-30.273,-43.945,-38.574,0.000
437.000,-77.148,-28.320,-42.969,-36.133,0.000
441.000,-65.918,-22.461,-42.969,-35.645,0.000
445.000,-62.988,-25.879,-47.852,-51.270,0.000
449.000,-60.547,-24.414,-50.293,-52.246,0.000
453.000,-41.504,-19.531,-51.270,-29.297,0.000
457.000,-43.945,-24.902,-55.664,-29.785,0.000
461.000,-57.129,-29.297,-56.152,-40.039,0.000
465.000,-62.500,-26.367,-52.246,-32.227,0.000
469.000,-51.270,-26.367,-46.875,-20.508,0.000
473.000,-47.363,-28.320,-49.805,-23.438,0.000
477.000,-63.965,-33.203,-53.711,-28.320,0.000
480.000,-59.570,-30.762,-52.734,-28.320,0.000
484.000,-43.457,-23.438,-53.223,-38.086,0.000
488.000,-41.504,-20.996,-49.805,-43.457,0.000
492.000,-54.199,-24.414,-50.781,-32.715,0.000
496.000,-60.059,-28.320,-56.641,-37.598,0.000
500.000,-51.270,-26.855,-55.664,-50.781,0.000
504.000,-55.664,-31.738,-56.152,-55.176,0.000
508.000,-67.383,-34.668,-59.570,-55.664,0.000
512.000,-74.219,-30.762,-56.152,-46.875,0.000
516.000,-61.523,-33.203,-52.246,-42.480,0.000
520.000,-44.922,-32.227,-50.781,-45.410,0.000
523.000,-60.547,-28.320,-52.246,-41.992,0.000
527.000,-69.824,-25.391,-53.223,-41.016,0.000
531.000,-66.406,-25.879,-51.270,-53.711,0.000
535.000,-57.617,-33.203,-46.875,-53.223,0.000
539.000,-40.527,-32.227,-48.340,-35.645,0.000
543.000,-56.641,-26.367,-48.828,-18.066,0.000
547.000,-82.520,-28.320,-49.805,-20.508,0.000
551.000,-83.984,-33.203,-56.641,-32.715,0.000
555.000,-79.102,-33.203,-57.129,-35.156,0.000
559.000,-75.195,-36.621,-57.129,-29.785,0.000
562.000,-77.637,-39.551,-54.688,-21.973,0.000
566.000,-80.566,-41.992,-47.852,-26.367,0.000
570.000,-83.496,-44.434,-46.387,-28.809,0.000
574.000,-77.148,-40.039,-49.316,-26.367,0.000
578.000,-67.871,-37.598,-49.316,-30.762,0.000
582.000,-67.383,-41.992,-50.781,-44.922,0.000
586.000,-76.172,-41.504,-51.270,-48.340,0.000
590.000,-79.590,-39.062,-43.945,-38.086,0.000
594.000,-72.754,-42.480,-41.504,-30.273,0.000
598.000,-63.477,-38.574,-42.969,-45.898,0.000
602.000,-45.898,-37.598,-44.922,-64.453,0.000
605.000,-41.992,-40.039,-53.223,-58.594,0.000
609.000,-57.617,-41.504,-52.734,-41.504,0.000
613.000,-72.754,-43.457,-46.875,-44.434,0.000
617.000,-66.406,-43.457,-44.922,-48.340,0.000
621.000,-61.035,-43.457,-42.969,-38.574,0.000
625.000,-55.664,-39.551,-41.992,-43.945,0.000
629.000,-47.852,-36.621,-42.969,-48.340,0.000
633.000,-47.363,-41.016,-44.922,-38.086,0.000
637.000,-41.016,-40.039,-42.480,-29.297,0.000
641.000,-47.852,-33.203,-39.062,-19.043,0.000
645.000,-75.684,-37.598,-42.480,-8.301,0.000
648.000,-77.148,-43.457,-40.039,-7.812,0.000
652.000,-67.383,-39.062,-35.645,-15.137,0.000
656.000,-68.848,-38.086,-37.598,-13.184,0.000
660.000,-68.848,-32.715,-37.598,-7.324,0.000
664.000,-73.242,-34.668,-38.574,-9.277,0.000
668.000,-65.918,-38.086,-41.504,-16.113,0.000
672.000,-55.664,-33.203,-40.527,-29.785,0.000
676.000,-64.941,-28.809,-39.551,-43.457,0.000
680.000,-72.266,-28.320,-40.527,-47.852,0.000
684.000,-70.801,-35.645,-44.434,-63.477,0.000
687.000,-73.730,-39.551,-47.363,-62.988,0.000
691.000,-79.102,-38.574,-43.457,-62.012,0.000
695.000,-80.078,-35.156,-44.922,-61.035,0.000
699.000,-83.496,-36.133,-48.340,-56.152,0.000
703.000,-75.195,-39.062,-44.922,-60.059,0.000
707.000,-55.664,-35.156,-43.457,-48.340,0.000
711.000,-60.547,-31.738,-43.457,-39.551,0.000
715.000,-75.195,-29.785,-41.992,-34.668,0.000
719.000,-75.195,-31.738,-37.109,-40.039,0.000
723.000,-65.430,-36.133,-38.574,-37.598,0.000
727.000,-64.941,-34.668,-40.039,-28.320,0.000
730.000,-62.012,-30.273,-36.621,-35.156,0.000
734.000,-53.711,-33.691,-37.109,-48.340,0.000
738.000,-39.062,-37.109,-36.621,-42.480,0.000
742.000,-41.016,-32.227,-40.527,-20.996,0.000
746.000,-59.082,-33.203,-42.969,-25.879,0.000
750.000,-55.664,-33.691,-41.016,-41.016,0.000
754.000,-76.172,-33.691,-40.039,-43.945,0.000
758.000,-83.496,-37.109,-44.434,-39.551,0.000
762.000,-80.078,-41.016,-47.852,-39.062,0.000
766.000,-84.473,-35.645,-43.945,-42.480,0.000
770.000,-76.172,-28.809,-45.410,-48.340,0.000
773.000,-82.031,-35.156,-50.293,-51.758,0.000
777.000,-69.824,-37.598,-49.805,-46.387,0.000
781.000,-61.523,-36.621,-52.246,-45.898,0.000
785.000,-74.219,-38.574,-55.176,-49.805,0.000
789.000,-61.035,-39.062,-53.711,-46.875,0.000
793.000,-61.523,-32.715,-48.340,-42.480,0.000
797.000,-62.012,-25.391,-43.945,-42.969,0.000
801.000,-54.688,-28.320,-44.922,-43.945,0.000
805.000,-60.547,-30.762,-46.875,-38.574,0.000
809.000,-54.199,-32.227,-48.828,-24.902,0.000
812.000,-44.922,-33.691,-47.363,-23.926,0.000
816.000,-50.293,-31.738,-48.828,-35.156,0.000
820.000,-46.875,-25.879,-48.340,-30.762,0.000
824.000,-44.922,-29.785,-43.945,-26.855,0.000
828.000,-50.293,-32.227,-42.480,-23.438,0.000
832.000,-48.828,-28.809,-47.363,-24.902,0.000
836.000,-52.734,-24.902,-51.270,-34.668,0.000
840.000,-79.102,-27.832,-46.387,-39.551,0.000
844.000,-84.473,-31.738,-43.945,-41.504,0.000
848.000,-66.406,-31.738,-47.363,-44.434,0.000
852.000,-70.801,-38.574,-49.805,-47.852,0.000
855.000,-86.914,-40.527,-44.922,-41.504,0.000
859.000,-81.055,-39.062,-44.434,-27.344,0.000
863.000,-77.637,-41.504,-44.434,-28.809,0.000
867.000,-72.754,-41.504,-44.434,-43.457,0.000
871.000,-70.801,-32.227,-48.340,-42.480,0.000
875.000,-75.684,-28.320,-48.828,-38.086,0.000
879.000,-65.430,-31.250,-43.457,-34.668,0.000
883.000,-78.613,-35.645,-44.434,-48.340,0.000
887.000,-86.914,-35.645,-50.781,-54.199,0.000
891.000,-77.637,-40.527,-51.270,-53.711,0.000
895.000,-75.684,-41.016,-46.387,-37.598,0.000
898.000,-70.312,-39.062,-49.805,-24.902,0.000
902.000,-70.801,-43.945,-51.270,-32.715,0.000
906.000,-65.918,-39.551,-44.922,-20.508,0.000
910.000,-49.805,-33.691,-45.898,-11.719,0.000
914.000,-44.434,-27.832,-45.898,-16.602,0.000
918.000,-42.480,-26.367,-44.922,-16.602,0.000
922.000,-46.875,-35.645,-48.340,-23.926,0.000
926.000,-64.453,-40.039,-51.758,-33.203,0.000
930.000,-74.707,-38.086,-50.293,-35.645,0.000
934.000,-66.895,-34.668,-51.758,-36.621,0.000
937.000,-68.848,-29.297,-54.688,-42.969,0.000
941.000,-62.012,-31.738,-46.387,-35.645,0.000
945.000,-61.035,-34.180,-44.922,-28.809,0.000
949.000,-76.172,-28.809,-44.922,-31.250,0.000
953.000,-82.031,-28.320,-40.527,-27.344,0.000
957.000,-89.844,-35.156,-42.969,-28.809,0.000
961.000,-80.078,-31.250,-42.480,-33.203,0.000
965.000,-60.059,-24.902,-36.621,-32.715,0.000
969.000,-55.176,-27.344,-37.109,-29.297,0.000
973.000,-58.594,-27.344,-42.969,-36.133,0.000
977.000,-61.035,-28.809,-43.945,-45.898,0.000
980.000,-62.500,-31.250,-44.434,-36.621,0.000
984.000,-63.965,-31.250,-48.340,-50.781,0.000
988.000,-54.688,-27.832,-53.223,-57.129,0.000
992.000,-48.340,-26.855,-52.734,-48.828,0.000
996.000,-52.734,-30.273,-51.270,-44.434,0.000
1000.000,-50.293,-31.738,-51.758,-37.109,0.000
1004.000,-61.035,-33.203,-52.246,-32.715,0.000
1008.000,-64.941,-28.809,-48.828,-23.438,0.000
1012.000,-57.617,-23.438,-47.852,-25.879,0.000
1016.000,-61.035,-26.855,-52.734,-37.598,0.000
1020.000,-74.707,-31.738,-50.293,-40.527,0.000
1023.000,-67.383,-33.691,-45.898,-33.691,0.000
1027.000,-62.012,-36.133,-43.945,-27.344,0.000
1031.000,-60.059,-35.645,-39.062,-26.855,0.000
1035.000,-62.988,-41.016,-48.340,-30.762,0.000
1039.000,-63.477,-41.504,-51.758,-34.180,0.000
1043.000,-57.617,-36.621,-44.434,-40.039,0.000
1047.000,-48.340,-36.133,-45.410,-38.086,0.000
1051.000,-60.547,-36.133,-42.969,-43.457,0.000
1055.000,-66.406,-33.203,-35.156,-38.086,0.000
1059.000,-69.824,-35.156,-37.109,-21.973,0.000
1062.000,-72.266,-38.086,-41.504,-30.273,0.000
1066.000,-58.105,-30.762,-36.621,-39.551,0.000
1070.000,-53.711,-29.297,-40.527,-30.273,0.000
1074.000,-49.316,-31.738,-46.875,-25.391,0.000
1078.000,-36.621,-25.879,-46.387,-27.832,0.000
1082.000,-41.016,-21.484,-41.504,-26.855,0.000
1086.000,-60.547,-30.273,-41.016,-14.160,0.000
1090.000,-60.547,-36.621,-46.875,-9.766,0.000
1094.000,-54.199,-34.668,-45.410,-11.230,0.000
1098.000,-53.711,-33.691,-44.434,-26.367,0.000
1102.000,-62.012,-38.574,-44.922,-31.250,0.000
1105.000,-50.781,-31.250,-41.016,-25.391,0.000
1109.000,-47.852,-30.762,-44.922,-24.902,0.000
1113.000,-57.617,-34.668,-50.293,-33.691,0.000
1117.000,-59.082,-27.832,-50.781,-47.363,0.000
1121.000,-62.012,-25.879,-49.805,-41.016,0.000
1125.000,-62.500,-28.809,-50.781,-34.668,0.000
1129.000,-64.941,-30.273,-49.316,-30.273,0.000
1133.000,-59.082,-25.879,-50.293,-43.457,0.000
1137.000,-48.340,-24.414,-51.270,-50.293,0.000
1141.000,-54.199,-25.879,-51.270,-52.734,0.000
1145.000,-77.637,-27.832,-50.781,-57.129,0.000
1148.000,-85.449,-26.855,-50.293,-45.410,0.000
1152.000,-65.430,-28.320,-48.828,-53.711,0.000
1156.000,-67.383,-22.461,-45.898,-55.176,0.000
1160.000,-70.801,-16.113,-49.805,-60.059,0.000
1164.000,-74.707,-19.043,-53.711,-59.570,0.000
1168.000,-84.473,-20.996,-50.293,-52.734,0.000
1172.000,-79.102,-18.555,-44.922,-45.898,0.000
1176.000,-64.941,-17.578,-44.922,-24.414,0.000
1180.000,-59.570,-17.578,-44.922,-20.508,0.000
1184.000,-58.594,-17.090,-41.016,-29.297,0.000
1187.000,-49.805,-17.090,-41.504,-27.344,0.000
1191.000,-53.711,-22.949,-42.480,-15.625,0.000
1195.000,-57.129,-26.855,-44.434,-15.625,0.000
1199.000,-53.711,-23.438,-42.480,-26.367,0.000
1203.000,-48.828,-24.414,-40.039,-29.297,0.000
1207.000,-51.758,-21.973,-43.457,-20.020,0.000
1211.000,-60.059,-21.973,-37.109,-15.137,0.000
1215.000,-50.781,-26.367,-33.691,-19.531,0.000
1219.000,-33.203,-24.902,-37.109,-19.531,0.000
1223.000,-33.691,-25.879,-36.133,-22.461,0.000
1227.000,-42.969,-28.809,-39.551,-21.484,0.000
1230.000,-58.105,-26.367,-39.551,-28.320,0.000
1234.000,-59.570,-26.367,-41.016,-30.762,0.000
1238.000,-56.152,-31.250,-50.293,-31.250,0.000
1242.000,-53.223,-34.668,-47.852,-37.109,0.000
1246.000,-51.270,-31.738,-40.527,-42.480,0.000
1250.000,-53.223,-26.367,-39.062,-30.273,0.000
1254.000,-55.664,-28.809,-38.574,-19.043,0.000
1258.000,-61.035,-32.715,-37.598,-27.344,0.000
1262.000,-68.359,-31.250,-42.969,-24.902,0.000
1266.000,-74.219,-37.598,-47.363,-30.762,0.000
1270.000,-64.941,-40.039,-46.875,-43.945,0.000
1273.000,-74.707,-42.480,-49.316,-32.227,0.000
1277.000,-77.148,-41.504,-43.457,-13.672,0.000
1281.000,-75.195,-32.227,-39.551,-22.461,0.000
1285.000,-86.914,-29.785,-41.992,-32.715,0.000
1289.000,-88.379,-31.738,-41.016,-26.855,0.000
1293.000,-74.219,-33.691,-37.109,-20.020,0.000
1297.000,-68.848,-32.227,-39.062,-20.020,0.000
1301.000,-56.641,-30.762,-34.668,-18.066,0.000
1305.000,-51.758,-33.691,-36.621,-33.691,0.000
1309.000,-58.105,-35.156,-41.504,-38.086,0.000
1312.000,-51.270,-37.598,-40.527,-28.320,0.000
1316.000,-52.734,-40.527,-38.574,-31.250,0.000
1320.000,-59.570,-32.715,-35.645,-26.855,0.000
1324.000,-56.152,-23.926,-42.969,-20.508,0.000
1328.000,-57.617,-27.832,-47.363,-33.691,0.000
1332.000,-47.852,-28.809,-46.875,-34.180,0.000
1336.000,-46.387,-24.902,-48.828,-38.086,0.000
1340.000,-50.781,-30.762,-50.293,-45.898,0.000
1344.000,-42.480,-24.902,-47.363,-41.016,0.000
1348.000,-46.387,-18.555,-48.828,-52.246,0.000
1352.000,-46.875,-23.438,-53.223,-48.828,0.000
1355.000,-57.129,-24.902,-56.641,-41.504,0.000
1359.000,-77.637,-30.762,-51.758,-43.945,0.000
1363.000,-82.031,-33.691,-53.711,-49.316,0.000
1367.000,-64.941,-30.273,-58.594,-48.340,0.000
1371.000,-61.523,-29.297,-55.176,-50.293,0.000
1375.000,-65.430,-30.273,-57.617,-42.480,0.000
1379.000,-78.613,-30.273,-59.570,-20.508,0.000
1383.000,-89.844,-29.297,-56.152,-29.785,0.000
1387.000,-74.219,-29.785,-53.223,-38.574,0.000
1391.000,-73.242,-28.809,-51.270,-23.438,0.000
1395.000,-74.707,-29.297,-45.898,-22.461,0.000
1398.000,-68.359,-29.297,-47.363,-38.086,0.000
1402.000,-63.965,-27.832,-46.387,-45.410,0.000
1406.000,-56.641,-24.902,-41.504,-32.715,0.000
1410.000,-63.965,-25.879,-41.992,-24.902,0.000
1414.000,-64.453,-28.320,-41.992,-22.949,0.000
1418.000,-51.758,-24.902,-42.969,-28.809,0.000
1422.000,-49.805,-27.832,-42.480,-43.457,0.000
1426.000,-53.223,-26.855,-43.945,-37.598,0.000
1430.000,-68.359,-20.996,-43.457,-35.156,0.000
1434.000,-72.754,-23.438,-46.387,-40.039,0.000
1437.000,-47.852,-22.949,-47.852,-34.668,0.000
1441.000,-39.062,-23.926,-43.945,-33.203,0.000
1445.000,-55.664,-24.902,-44.922,-29.297,0.000
1449.000,-70.801,-17.578,-46.875,-31.250,0.000
1453.000,-70.312,-18.555,-46.875,-28.320,0.000
1457.000,-62.988,-23.438,-47.852,-17.578,0.000
1461.000,-62.012,-29.785,-49.805,-21.484,0.000
1465.000,-63.477,-33.203,-51.758,-42.969,0.000
1469.000,-62.988,-27.344,-56.152,-47.363,0.000
1473.000,-62.988,-23.926,-55.176,-42.480,0.000
1477.000,-63.477,-25.879,-50.781,-39.062,0.000
1480.000,-65.918,-22.949,-49.316,-41.016,0.000
1484.000,-61.523,-20.996,-49.805,-39.551,0.000
1488.000,-56.152,-27.832,-41.992,-36.133,0.000
1492.000,-69.824,-38.086,-38.574,-32.227,0.000
1496.000,-70.312,-34.180,-42.480,-30.762,0.000
1500.000,-57.617,-21.484,-45.410,-30.762,0.000
1504.000,-50.293,-21.484,-41.504,-31.250,0.000
1508.000,-48.340,-22.461,-39.551,-36.621,0.000
1512.000,-51.270,-24.902,-41.504,-32.227,0.000
1516.000,-53.711,-19.043,-39.551,-29.297,0.000
1520.000,-48.828,-18.555,-40.039,-32.227,0.000
1523.000,-56.152,-24.902,-43.457,-32.227,0.000
1527.000,-62.988,-20.996,-39.551,-36.621,0.000
1531.000,-49.805,-22.949,-35.645,-37.598,0.000
1535.000,-54.688,-27.832,-37.109,-30.273,0.000
1539.000,-64.941,-29.297,-37.598,-21.973,0.000
1543.000,-67.383,-30.762,-37.109,-20.996,0.000
1547.000,-63.477,-28.320,-39.551,-20.508,0.000
1551.000,-49.316,-28.320,-41.992,-33.203,0.000
1555.000,-48.828,-27.832,-41.992,-40.527,0.000
1559.000,-54.688,-29.297,-40.039,-25.879,0.000
1562.000,-53.711,-31.250,-41.992,-27.832,0.000
1566.000,-50.293,-34.180,-46.875,-44.922,0.000
1570.000,-60.059,-40.039,-48.828,-41.016,0.000
1574.000,-70.312,-38.086,-44.434,-36.133,0.000
1578.000,-63.965,-33.203,-40.527,-31.250,0.000
1582.000,-63.477,-33.203,-41.992,-31.738,0.000
1586.000,-71.289,-33.203,-38.574,-39.551,0.000
1590.000,-66.406,-34.180,-39.062,-41.504,0.000
1594.000,-62.012,-34.180,-44.434,-41.504,0.000
1598.000,-59.082,-30.762,-42.480,-44.434,0.000
1602.000,-54.199,-25.879,-38.574,-45.410,0.000
1605.000,-68.848,-32.715,-41.016,-45.410,0.000
1609.000,-81.543,-35.156,-44.922,-38.086,0.000
1613.000,-78.125,-25.391,-43.945,-24.902,0.000
1617.000,-66.895,-33.691,-46.875,-30.273,0.000
1621.000,-55.664,-36.621,-49.316,-34.668,0.000
1625.000,-42.480,-26.367,-47.363,-42.480,0.000
1629.000,-50.781,-24.414,-47.852,-31.250,0.000
1633.000,-65.430,-32.227,-53.711,-30.273,0.000
1637.000,-56.152,-32.227,-52.734,-48.828,0.000
1641.000,-49.805,-28.320,-46.875,-45.410,0.000
1645.000,-43.945,-28.320,-44.434,-32.227,0.000
1648.000,-51.758,-26.855,-41.992,-27.832,0.000
1652.000,-61.035,-24.902,-40.039,-26.367,0.000
1656.000,-48.340,-33.203,-43.457,-33.691,0.000
1660.000,-35.156,-26.855,-43.457,-34.180,0.000
1664.000,-34.668,-21.484,-43.945,-45.410,0.000
1668.000,-45.410,-35.645,-48.340,-53.711,0.000
1672.000,-60.547,-38.574,-47.852,-29.297,0.000
1676.000,-60.059,-31.738,-45.410,-34.180,0.000
1680.000,-57.129,-24.902,-42.480,-34.180,0.000
1684.000,-56.152,-23.926,-36.621,-27.832,0.000
1687.000,-55.176,-29.785,-40.039,-36.133,0.000
1691.000,-64.941,-36.621,-44.922,-45.410,0.000
1695.000,-53.711,-29.297,-39.551,-36.621,0.000
1699.000,-43.457,-26.855,-35.156,-32.715,0.000
1703.000,-48.828,-28.320,-37.598,-40.527,0.000
1707.000,-57.617,-21.484,-38.574,-27.344,0.000
1711.000,-71.777,-17.578,-36.133,-28.809,0.000
1715.000,-78.613,-21.484,-40.527,-35.645,0.000
1719.000,-66.895,-27.832,-41.016,-32.227,0.000
1723.000,-52.246,-28.809,-41.992,-24.414,0.000
1727.000,-52.734,-31.250,-46.387,-20.020,0.000
1730.000,-53.711,-33.203,-47.852,-13.672,0.000
1734.000,-62.988,-31.250,-48.828,-12.695,0.000
1738.000,-62.988,-33.691,-48.828,-21.484,0.000
1742.000,-56.641,-36.133,-48.340,-33.691,0.000
1746.000,-49.316,-30.762,-52.246,-32.227,0.000
1750.000,-46.387,-28.809,-50.781,-33.691,0.000
1754.000,-42.969,-25.879,-41.992,-43.945,0.000
1758.000,-48.340,-25.391,-41.016,-35.645,0.000
1762.000,-49.805,-26.367,-42.969,-37.598,0.000
1766.000,-46.387,-20.508,-40.527,-46.387,0.000
1770.000,-51.758,-23.438,-41.504,-49.316,0.000
1773.000,-49.805,-25.879,-41.016,-43.945,0.000
1777.000,-49.316,-26.855,-43.457,-39.062,0.000
1781.000,-63.477,-30.273,-43.945,-63.965,0.000
1785.000,-61.523,-30.762,-41.504,-66.406,0.000
1789.000,-59.082,-28.320,-43.945,-35.645,0.000
1793.000,-59.570,-31.250,-43.945,-33.691,0.000
1797.000,-56.152,-29.297,-41.504,-39.062,0.000
1801.000,-61.523,-31.250,-45.410,-42.969,0.000
1805.000,-56.641,-35.156,-48.828,-46.387,0.000
1809.000,-48.828,-34.180,-47.852,-37.109,0.000
1812.000,-63.965,-30.762,-49.805,-36.621,0.000
1816.000,-67.383,-23.438,-47.852,-36.133,0.000
1820.000,-59.570,-19.531,-45.410,-23.438,0.000
1824.000,-67.383,-26.367,-52.246,-26.367,0.000
1828.000,-69.336,-31.250,-54.199,-37.109,0.000
1832.000,-69.824,-31.250,-49.805,-27.832,0.000
1836.000,-65.430,-30.762,-47.363,-28.809,0.000
1840.000,-51.270,-22.949,-44.922,-28.320,0.000
1844.000,-44.434,-25.391,-43.945,-15.625,0.000
1848.000,-49.316,-33.203,-46.387,-20.508,0.000
1852.000,-49.316,-31.250,-44.922,-29.297,0.000
1855.000,-47.363,-32.227,-44.922,-27.344,0.000
1859.000,-57.617,-35.645,-45.898,-20.508,0.000
1863.000,-71.289,-30.762,-43.457,-18.555,0.000
1867.000,-70.312,-28.320,-45.898,-31.738,0.000
1871.000,-62.500,-30.273,-47.852,-35.156,0.000
1875.000,-68.848,-21.973,-48.828,-36.133,0.000
1879.000,-69.824,-19.043,-43.945,-28.809,0.000
1883.000,-62.988,-19.043,-42.480,-26.367,0.000
1887.000,-58.594,-23.926,-48.340,-48.340,0.000
1891.000,-54.199,-25.879,-45.410,-41.016,0.000
1895.000,-43.457,-29.297,-41.504,-30.273,0.000
1898.000,-35.156,-27.344,-41.016,-38.086,0.000
1902.000,-47.363,-21.484,-39.062,-35.156,0.000
1906.000,-54.688,-22.461,-40.039,-29.297,0.000
1910.000,-50.293,-19.531,-38.086,-29.785,0.000
1914.000,-52.246,-28.320,-37.109,-39.062,0.000
1918.000,-50.293,-39.062,-39.062,-41.016,0.000
1922.000,-35.156,-35.156,-43.945,-32.715,0.000
1926.000,-39.062,-28.809,-43.457,-13.184,0.000
1930.000,-43.457,-32.715,-46.875,-15.137,0.000
1934.000,-33.203,-30.273,-53.223,-22.949,0.000
1937.000,-33.203,-25.391,-45.410,-9.277,0.000
1941.000,-37.598,-32.227,-45.410,-11.719,0.000
1945.000,-47.852,-29.785,-45.898,-15.137,0.000
1949.000,-55.664,-26.367,-44.434,-18.555,0.000
1953.000,-56.152,-30.762,-46.387,-23.926,0.000
1957.000,-51.270,-31.738,-44.922,-25.391,0.000
1961.000,-54.199,-28.320,-53.223,-20.020,0.000
1965.000,-58.594,-25.391,-54.199,-17.090,0.000
1969.000,-60.547,-25.391,-46.387,-22.949,0.000
1973.000,-55.176,-27.344,-42.969,-13.184,0.000
1977.000,-55.176,-39.062,-46.875,-11.230,0.000
1980.000,-60.059,-36.621,-45.898,-28.809,0.000
1984.000,-48.340,-28.320,-44.434,-37.109,0.000
1988.000,-41.992,-33.203,-48.828,-39.551,0.000
1992.000,-38.086,-31.738,-50.293,-41.992,0.000
1996.000,-28.809,-30.762,-44.922,-42.480,0.000
2000.000,-38.086,-36.133,-41.016,-32.715,0.000
2004.000,-53.711,-38.574,-41.504,-24.902,0.000
2008.000,-56.641,-39.062,-40.039,-9.766,0.000
2012.000,-54.199,-33.691,-37.109,-3.906,0.000
2016.000,-49.805,-28.320,-38.574,-29.297,0.000
2020.000,-45.410,-29.297,-40.039,-34.668,0.000
2023.000,-49.805,-31.250,-38.574,-15.625,0.000
2027.000,-56.152,-30.273,-33.203,-21.973,0.000
2031.000,-59.082,-32.715,-35.645,-23.926,0.000
2035.000,-56.152,-33.691,-43.945,-20.508,0.000
2039.000,-51.758,-30.273,-44.434,-33.203,0.000
2043.000,-54.199,-29.785,-39.551,-30.762,0.000
2047.000,-66.406,-30.762,-36.621,-35.156,0.000
2051.000,-66.406,-32.715,-38.574,-42.480,0.000
2055.000,-58.594,-34.180,-39.551,-32.227,0.000
2059.000,-58.594,-31.738,-38.086,-22.949,0.000
2062.000,-56.641,-32.227,-32.227,-31.250,0.000
2066.000,-62.012,-31.250,-35.645,-46.875,0.000
2070.000,-42.969,-25.879,-35.645,-41.992,0.000
2074.000,-25.879,-28.320,-30.762,-29.785,0.000
2078.000,-33.691,-27.832,-37.109,-26.855,0.000
2082.000,-36.621,-28.809,-41.016,-31.738,0.000
2086.000,-37.598,-32.227,-35.645,-33.691,0.000
2090.000,-48.828,-31.250,-27.832,-21.973,0.000
2094.000,-48.340,-29.297,-31.738,-11.719,0.000
2098.000,-45.898,-35.156,-38.086,-16.602,0.000
2102.000,-46.875,-34.668,-39.062,-29.297,0.000
2105.000,-44.922,-22.949,-37.598,-15.625,0.000
2109.000,-44.922,-20.508,-35.156,-8.789,0.000
2113.000,-34.180,-18.555,-38.574,-29.785,0.000
2117.000,-33.691,-17.090,-36.133,-29.297,0.000
2121.000,-55.176,-14.648,-33.691,-23.438,0.000
2125.000,-56.152,-21.484,-37.598,-20.996,0.000
2129.000,-41.016,-25.879,-36.133,-17.578,0.000
2133.000,-41.504,-16.113,-35.156,-19.531,0.000
2137.000,-38.086,-16.602,-37.598,-15.625,0.000
2141.000,-46.387,-20.996,-41.504,-25.879,0.000
2144.000,-62.988,-23.926,-45.410,-41.504,0.000
2148.000,-55.664,-23.926,-43.945,-47.363,0.000
2152.000,-57.129,-21.973,-41.992,-46.875,0.000
2156.000,-75.684,-27.344,-47.363,-31.250,0.000
2160.000,-82.520,-29.297,-45.410,-22.949,0.000
2164.000,-67.871,-28.320,-33.203,-19.043,0.000
2168.000,-54.688,-25.391,-30.273,-20.996,0.000
2172.000,-52.734,-20.508,-35.645,-21.484,0.000
2176.000,-52.734,-24.902,-38.086,-24.414,0.000
2180.000,-61.035,-27.344,-35.156,-26.855,0.000
2184.000,-58.594,-24.902,-35.645,-25.391,0.000
2187.000,-48.828,-24.902,-40.527,-19.531,0.000
2191.000,-55.176,-27.344,-41.992,-18.066,0.000
2195.000,-53.223,-27.832,-43.945,-26.855,0.000
2199.000,-44.434,-26.855,-42.480,-21.484,0.000
2203.000,-45.410,-31.250,-42.480,-21.484,0.000
2207.000,-49.316,-34.180,-42.969,-26.855,0.000
2211.000,-48.340,-31.250,-43.945,-26.367,0.000
2215.000,-49.316,-28.320,-46.875,-25.391,0.000
2219.000,-47.852,-23.926,-42.480,-33.691,0.000
2223.000,-49.316,-25.879,-41.504,-35.156,0.000
2227.000,-50.781,-35.156,-45.898,-24.902,0.000
2230.000,-39.062,-28.809,-44.434,-26.367,0.000
2234.000,-55.176,-27.832,-47.363,-44.922,0.000
2238.000,-73.730,-37.598,-48.340,-40.039,0.000
2242.000,-62.500,-32.227,-42.969,-24.902,0.000
2246.000,-54.199,-31.738,-44.922,-30.273,0.000
2250.000,-53.711,-34.180,-46.875,-47.363,0.000
2254.000,-49.805,-30.762,-47.363,-49.316,0.000
2258.000,-38.086,-25.391,-46.387,-35.645,0.000
2262.000,-32.715,-27.344,-41.016,-39.062,0.000
2266.000,-47.852,-29.785,-39.062,-44.922,0.000
2269.000,-70.801,-23.926,-40.527,-32.715,0.000
2273.000,-72.266,-21.973,-37.598,-19.531,0.000
2277.000,-60.547,-25.391,-38.086,-15.625,0.000
2281.000,-59.570,-30.273,-39.062,-19.531,0.000
2285.000,-54.199,-31.250,-40.039,-29.297,0.000
2289.000,-57.617,-29.785,-41.016,-30.762,0.000
2293.000,-59.570,-27.344,-38.574,-22.949,0.000
2297.000,-48.340,-29.785,-41.016,-23.926,0.000
2301.000,-41.504,-32.715,-43.945,-33.691,0.000
2305.000,-50.293,-31.738,-45.898,-29.785,0.000
2309.000,-57.129,-27.832,-41.504,-24.902,0.000
2312.000,-62.012,-36.621,-40.527,-38.086,0.000
2316.000,-64.941,-43.457,-43.945,-41.016,0.000
2320.000,-48.340,-36.133,-47.363,-40.527,0.000
2324.000,-37.109,-27.832,-51.758,-45.410,0.000
2328.000,-51.270,-27.832,-52.734,-48.828,0.000
2332.000,-62.988,-24.902,-49.805,-39.062,0.000
2336.000,-46.387,-20.020,-44.922,-35.156,0.000
2340.000,-46.875,-30.762,-43.945,-36.133,0.000
2344.000,-62.500,-35.156,-43.945,-25.879,0.000
2348.000,-53.223,-30.762,-40.527,-37.109,0.000
2352.000,-48.828,-31.738,-40.527,-52.734,0.000
2355.000,-60.547,-32.227,-44.922,-48.828,0.000
2359.000,-72.266,-28.320,-47.363,-37.109,0.000
2363.000,-68.359,-27.344,-43.457,-29.297,0.000
2367.000,-58.594,-31.738,-42.480,-30.762,0.000
2371.000,-58.105,-37.109,-44.922,-30.762,0.000
2375.000,-47.363,-28.809,-43.457,-20.508,0.000
2379.000,-43.945,-23.926,-39.062,-16.602,0.000
2383.000,-49.805,-28.320,-42.969,-17.578,0.000
2387.000,-38.086,-23.926,-47.852,-17.090,0.000
2391.000,-41.992,-27.344,-48.340,-25.391,0.000
2394.000,-46.875,-31.738,-47.852,-28.320,0.000
2398.000,-48.340,-26.367,-45.410,-17.578,0.000
2402.000,-59.570,-26.367,-44.434,-11.719,0.000
2406.000,-57.129,-30.762,-45.410,-8.301,0.000
2410.000,-54.688,-31.250,-45.898,-3.418,0.000
2414.000,-56.641,-31.250,-47.363,-6.836,0.000
2418.000,-47.363,-34.668,-48.828,-17.578,0.000
2422.000,-44.434,-23.926,-43.945,-14.648,0.000
2426.000,-50.781,-20.508,-42.480,-11.719,0.000
2430.000,-45.410,-26.855,-45.410,-16.113,0.000
2434.000,-41.992,-24.414,-45.410,-28.809,0.000
2437.000,-49.805,-29.785,-46.875,-29.297,0.000
2441.000,-50.781,-36.621,-48.828,-17.090,0.000
2445.000,-47.363,-27.832,-47.363,-21.973,0.000
2449.000,-39.551,-25.391,-46.875,-28.320,0.000
2453.000,-37.598,-27.344,-50.781,-35.156,0.000
2457.000,-41.504,-18.555,-45.898,-23.926,0.000
2461.000,-41.504,-19.531,-46.387,-19.043,0.000
2465.000,-43.945,-22.461,-51.758,-26.367,0.000
2469.000,-46.387,-24.902,-48.340,-23.438,0.000
2473.000,-34.668,-31.250,-45.410,-20.508,0.000
2477.000,-37.598,-28.320,-40.527,-11.230,0.000
2480.000,-55.664,-20.996,-40.527,-10.254,0.000
2484.000,-41.016,-20.508,-41.992,-19.043,0.000
2488.000,-33.203,-26.855,-40.527,-26.367,0.000
2492.000,-50.293,-27.344,-37.109,-38.574,0.000
2496.000,-68.359,-26.367,-40.039,-40.527,0.000
2500.000,-61.035,-29.785,-46.387,-25.879,0.000
2504.000,-61.035,-34.668,-47.852,-23.438,0.000
2508.000,-62.500,-31.250,-48.828,-29.297,0.000
2512.000,-45.898,-25.391,-45.898,-18.066,0.000
2516.000,-57.129,-27.832,-44.434,-16.602,0.000
2519.000,-67.383,-31.738,-48.340,-42.480,0.000
2523.000,-64.941,-30.273,-46.875,-45.410,0.000
2527.000,-66.406,-34.180,-43.945,-39.062,0.000
2531.000,-60.547,-35.156,-44.434,-40.039,0.000
2535.000,-56.641,-36.133,-42.969,-44.434,0.000
2539.000,-58.594,-42.480,-44.922,-45.410,0.000
2543.000,-46.875,-44.434,-48.340,-41.016,0.000
2547.000,-43.457,-41.504,-48.828,-44.434,0.000
2551.000,-57.617,-44.434,-47.852,-47.363,0.000
2555.000,-59.570,-40.527,-39.062,-34.668,0.000
2559.000,-51.758,-28.320,-34.668,-24.902,0.000
2562.000,-56.641,-24.414,-37.598,-31.738,0.000
2566.000,-52.734,-27.832,-35.645,-31.250,0.000
2570.000,-40.527,-30.762,-36.133,-29.785,0.000
2574.000,-36.133,-30.762,-41.016,-33.203,0.000
2578.000,-42.480,-31.738,-40.527,-35.645,0.000
2582.000,-45.410,-31.738,-40.527,-45.898,0.000
2586.000,-50.781,-32.715,-41.992,-41.992,0.000
2590.000,-43.457,-32.227,-39.551,-39.551,0.000
2594.000,-49.805,-31.738,-40.527,-48.828,0.000
2598.000,-57.129,-27.832,-40.527,-35.645,0.000
2602.000,-46.875,-26.367,-42.480,-28.320,0.000
2605.000,-48.340,-24.902,-41.504,-28.320,0.000
2609.000,-41.016,-18.066,-38.086,-24.902,0.000
2613.000,-41.016,-19.531,-44.922,-35.645,0.000
2617.000,-55.664,-21.973,-47.852,-40.039,0.000
2621.000,-59.570,-18.066,-44.922,-34.180,0.000
2625.000,-52.246,-26.367,-46.875,-40.039,0.000
2629.000,-56.152,-28.320,-46.875,-48.340,0.000
2633.000,-59.082,-24.902,-46.875,-38.574,0.000
2637.000,-55.664,-29.785,-44.922,-28.320,0.000
2641.000,-58.594,-33.203,-41.016,-27.344,0.000
2644.000,-55.664,-29.297,-39.062,-25.391,0.000
2648.000,-47.852,-30.762,-42.480,-21.973,0.000
2652.000,-44.922,-33.691,-46.875,-33.203,0.000
2656.000,-42.969,-38.086,-46.875,-33.203,0.000
2660.000,-36.133,-37.109,-50.781,-29.297,0.000
2664.000,-24.902,-22.949,-52.734,-38.574,0.000
2668.000,-35.156,-22.461,-52.734,-35.156,0.000
2672.000,-56.641,-25.391,-49.805,-19.531,0.000
2676.000,-49.805,-22.949,-43.457,-8.789,0.000
2680.000,-44.922,-26.367,-42.480,-2.441,0.000
2684.000,-49.316,-25.391,-48.340,-15.625,0.000
2687.000,-47.363,-22.949,-44.922,-30.762,0.000
2691.000,-42.969,-26.367,-38.574,-28.809,0.000
2695.000,-42.480,-24.414,-42.480,-39.551,0.000
2699.000,-55.176,-28.809,-46.387,-53.223,0.000
2703.000,-68.359,-31.738,-45.898,-52.734,0.000
2707.000,-62.988,-30.762,-42.480,-41.992,0.000
2711.000,-50.781,-32.227,-37.109,-28.320,0.000
2715.000,-44.922,-33.203,-33.691,-40.039,0.000
2719.000,-45.410,-29.297,-35.156,-48.828,0.000
2723.000,-50.293,-28.809,-37.598,-41.504,0.000
2727.000,-50.781,-33.691,-44.434,-46.387,0.000
2730.000,-50.293,-34.180,-49.805,-49.805,0.000
2734.000,-41.992,-29.785,-41.504,-40.039,0.000
2738.000,-36.133,-33.691,-37.109,-40.039,0.000
2742.000,-41.992,-29.297,-37.598,-35.645,0.000
2746.000,-42.480,-20.996,-36.133,-27.832,0.000
2750.000,-44.434,-28.809,-32.227,-26.367,0.000
2754.000,-57.129,-30.762,-30.273,-24.902,0.000
2758.000,-57.129,-27.832,-36.621,-20.996,0.000
2762.000,-62.988,-38.086,-41.016,-22.461,0.000
2766.000,-66.895,-41.992,-45.410,-26.855,0.000
2769.000,-57.617,-32.715,-42.969,-18.555,0.000
2773.000,-40.039,-25.391,-35.156,-14.648,0.000
2777.000,-35.645,-32.227,-39.062,-23.926,0.000
2781.000,-42.480,-39.062,-42.480,-30.273,0.000
2785.000,-37.109,-32.715,-42.969,-23.926,0.000
2789.000,-39.551,-29.785,-45.898,-22.461,0.000
2793.000,-48.828,-30.762,-44.922,-20.020,0.000
2797.000,-48.340,-31.738,-41.504,-26.855,0.000
2801.000,-51.270,-33.691,-43.457,-34.180,0.000
2805.000,-48.828,-32.227,-42.480,-27.344,0.000
2809.000,-46.875,-31.738,-42.480,-29.297,0.000
2812.000,-46.387,-35.156,-44.922,-27.344,0.000
2816.000,-37.109,-37.109,-45.410,-31.250,0.000
2820.000,-46.875,-38.086,-40.039,-28.320,0.000
2824.000,-51.270,-41.992,-35.156,-20.508,0.000
2828.000,-45.898,-40.039,-33.691,-29.297,0.000
2832.000,-53.223,-34.668,-37.109,-30.273,0.000
2836.000,-58.105,-34.180,-38.574,-35.645,0.000
2840.000,-62.988,-36.133,-40.039,-29.297,0.000
2844.000,-72.266,-40.039,-47.852,-24.902,0.000
2848.000,-76.172,-45.410,-47.852,-28.320,0.000
2852.000,-60.547,-38.086,-46.875,-29.785,0.000
2855.000,-47.852,-27.344,-48.828,-28.320,0.000
2859.000,-62.500,-30.273,-46.387,-25.391,0.000
2863.000,-66.406,-34.668,-44.434,-23.438,0.000
2867.000,-48.828,-37.598,-43.457,-22.461,0.000
2871.000,-41.992,-25.391,-44.922,-24.414,0.000
2875.000,-47.363,-17.578,-44.434,-25.879,0.000
2879.000,-45.410,-22.949,-43.457,-33.203,0.000
2883.000,-35.645,-22.461,-44.434,-36.133,0.000
2887.000,-27.832,-21.484,-45.898,-41.016,0.000
2891.000,-36.621,-21.973,-39.551,-36.621,0.000
2894.000,-58.105,-28.320,-41.016,-30.273,0.000
2898.000,-54.688,-25.391,-47.363,-42.480,0.000
2902.000,-40.527,-25.391,-44.434,-45.898,0.000
2906.000,-35.645,-27.344,-46.875,-30.762,0.000
2910.000,-40.039,-21.973,-44.922,-28.320,0.000
2914.000,-43.457,-26.367,-42.969,-36.621,0.000
2918.000,-36.133,-24.414,-43.945,-40.527,0.000
2922.000,-33.691,-20.020,-41.016,-33.691,0.000
2926.000,-41.504,-22.461,-36.621,-31.250,0.000
2930.000,-52.734,-27.344,-37.109,-31.250,0.000
2934.000,-51.270,-35.156,-41.992,-35.156,0.000
2937.000,-54.688,-36.133,-44.922,-40.527,0.000
2941.000,-62.012,-31.250,-42.969,-30.273,0.000
2945.000,-58.594,-30.273,-44.922,-23.926,0.000
2949.000,-50.781,-28.809,-43.457,-23.926,0.000
2953.000,-43.945,-28.809,-42.969,-28.320,0.000
2957.000,-39.551,-32.227,-44.434,-20.508,0.000
2961.000,-42.480,-31.738,-46.875,-10.742,0.000
2965.000,-49.805,-20.996,-44.922,-19.531,0.000
2969.000,-42.480,-18.555,-40.527,-20.996,0.000
2973.000,-41.016,-25.879,-36.621,-11.230,0.000
2977.000,-49.316,-24.902,-37.109,-16.602,0.000
2980.000,-51.758,-25.879,-42.969,-28.809,0.000
2984.000,-56.641,-24.902,-42.480,-21.484,0.000
2988.000,-45.410,-21.973,-41.992,-13.672,0.000
2992.000,-29.785,-31.738,-42.969,-13.672,0.000
2996.000,-26.367,-32.227,-39.062,-21.973,0.000
3000.000,-20.996,-26.855,-42.480,-31.738,0.000
3004.000,-4.395,-30.762,-49.805,-37.109,0.000
3008.000,-9.766,-30.273,-52.246,-35.156,0.000
3012.000,-25.879,-33.203,-44.434,-21.973,0.000
3016.000,-40.039,-37.598,-38.086,-25.879,0.000
3019.000,-58.105,-31.738,-38.574,-29.297,0.000
3023.000,-52.734,-29.297,-38.086,-21.973,0.000
3027.000,-51.270,-32.715,-34.668,-18.555,0.000
3031.000,-46.387,-31.738,-31.738,-20.020,0.000
3035.000,-41.504,-27.344,-32.715,-19.531,0.000
3039.000,-55.176,-27.344,-34.668,-4.883,0.000
3043.000,-52.734,-33.691,-34.180,-13.184,0.000
3047.000,-44.922,-36.621,-34.668,-21.973,0.000
3051.000,-46.875,-29.297,-37.109,-18.555,0.000
3055.000,-51.270,-22.461,-38.086,-24.902,0.000
3059.000,-48.340,-25.391,-35.645,-32.715,0.000
3062.000,-34.180,-32.715,-34.668,-34.180,0.000
3066.000,-33.203,-30.273,-37.109,-28.320,0.000
3070.000,-49.805,-27.832,-35.156,-25.391,0.000
3074.000,-63.965,-38.086,-38.086,-27.832,0.000
3078.000,-67.383,-42.969,-38.574,-27.344,0.000
3082.000,-59.082,-38.086,-36.133,-24.902,0.000
3086.000,-40.527,-36.133,-38.086,-28.809,0.000
3090.000,-35.156,-32.227,-38.574,-26.855,0.000
3094.000,-34.668,-21.484,-43.457,-20.508,0.000
3098.000,-32.715,-20.996,-42.969,-32.715,0.000
3102.000,-43.457,-32.715,-40.527,-40.527,0.000
3105.000,-39.062,-36.133,-40.039,-30.762,0.000
3109.000,-28.809,-35.156,-33.203,-28.809,0.000
3113.000,-32.715,-32.227,-37.598,-25.391,0.000
3117.000,-34.668,-30.273,-46.387,-35.156,0.000
3121.000,-49.316,-27.344,-46.387,-35.645,0.000
3125.000,-50.781,-24.902,-46.387,-27.832,0.000
3129.000,-43.945,-22.461,-49.316,-31.738,0.000
3133.000,-46.875,-23.926,-49.316,-34.668,0.000
3137.000,-40.527,-27.344,-50.293,-32.715,0.000
3141.000,-47.363,-25.879,-51.270,-30.273,0.000
3144.000,-49.805,-27.344,-50.781,-27.344,0.000
3148.000,-43.457,-26.855,-50.781,-31.250,0.000
3152.000,-40.039,-29.297,-54.688,-41.016,0.000
3156.000,-46.875,-28.320,-55.176,-29.785,0.000
3160.000,-56.152,-18.066,-53.223,-20.020,0.000
3164.000,-46.875,-22.461,-51.758,-33.691,0.000
3168.000,-34.668,-25.879,-50.781,-43.457,0.000
3172.000,-37.598,-20.020,-47.363,-36.621,0.000
3176.000,-51.270,-21.973,-47.852,-28.809,0.000
3180.000,-52.734,-26.367,-48.340,-30.762,0.000
3184.000,-46.387,-26.855,-39.551,-28.320,0.000
3187.000,-38.086,-31.250,-43.457,-22.949,0.000
3191.000,-29.785,-27.344,-47.852,-16.113,0.000
3195.000,-33.691,-18.555,-45.898,-23.926,0.000
3199.000,-21.484,-23.926,-46.875,-35.156,0.000
3203.000,-31.738,-28.809,-46.875,-20.996,0.000
3207.000,-53.711,-23.926,-42.480,-18.555,0.000
3211.000,-59.570,-25.879,-42.969,-26.855,0.000
3215.000,-52.246,-30.762,-47.852,-25.879,0.000
3219.000,-43.945,-27.832,-50.781,-24.414,0.000
3223.000,-46.387,-24.414,-45.898,-12.207,0.000
3227.000,-39.062,-25.879,-42.480,-15.137,0.000
3230.000,-40.039,-25.879,-43.945,-31.738,0.000
3234.000,-33.691,-25.879,-45.898,-25.391,0.000
3238.000,-28.809,-25.879,-45.898,-21.484,0.000
3242.000,-23.438,-28.320,-45.898,-22.461,0.000
3246.000,-28.320,-27.832,-50.781,-23.926,0.000
3250.000,-34.180,-32.227,-48.340,-32.227,0.000
3254.000,-27.344,-33.691,-47.852,-33.203,0.000
3258.000,-31.738,-26.855,-48.340,-22.461,0.000
3262.000,-36.621,-27.832,-43.457,-8.301,0.000
3266.000,-29.785,-29.785,-43.945,-19.531,0.000
3269.000,-41.016,-31.250,-48.828,-26.367,0.000
3273.000,-58.105,-30.762,-47.852,-19.043,0.000
3277.000,-50.293,-35.156,-45.898,-29.297,0.000
3281.000,-50.781,-36.133,-45.898,-33.203,0.000
3285.000,-48.340,-27.832,-46.387,-34.668,0.000
3289.000,-37.598,-26.367,-45.898,-38.574,0.000
3293.000,-32.227,-22.949,-45.898,-33.691,0.000
3297.000,-40.527,-18.066,-41.504,-21.973,0.000
3301.000,-50.293,-21.973,-35.156,-20.996,0.000
3305.000,-46.387,-26.367,-35.156,-32.227,0.000
3309.000,-33.203,-25.391,-38.574,-27.344,0.000
3312.000,-32.715,-28.320,-40.527,-24.902,0.000
3316.000,-42.480,-24.902,-36.621,-27.344,0.000
3320.000,-51.758,-20.508,-32.227,-28.809,0.000
3324.000,-50.293,-19.531,-30.762,-22.949,0.000
3328.000,-41.016,-20.508,-33.691,-23.926,0.000
3332.000,-42.480,-23.926,-33.691,-30.273,0.000
3336.000,-55.176,-23.926,-30.762,-26.367,0.000
3340.000,-31.738,-19.531,-34.668,-24.414,0.000
3344.000,-23.926,-20.508,-38.574,-38.574,0.000
3348.000,-41.504,-27.832,-39.551,-45.410,0.000
3352.000,-45.898,-28.320,-39.062,-28.809,0.000
3355.000,-51.270,-30.762,-40.527,-22.949,0.000
3359.000,-56.152,-29.297,-36.621,-14.648,0.000
3363.000,-60.547,-22.461,-33.203,-2.441,0.000
3367.000,-42.480,-26.855,-35.156,-10.254,0.000
3371.000,-35.645,-28.809,-42.480,-11.719,0.000
