timestamp,TP9,AF7,AF8,TP10,Right AUX
0.000,-10.254,-25.391,-31.738,-14.160,0.000
4.000,-10.742,-23.926,-29.297,-11.719,0.000
8.000,-4.395,-13.672,-20.996,0.000,0.000
12.000,-2.441,-8.789,-20.996,-7.812,0.000
16.000,-17.578,-15.137,-23.926,-16.602,0.000
20.000,-17.090,-21.484,-25.879,-15.137,0.000
23.000,-9.766,-20.996,-29.297,-10.254,0.000
27.000,-13.184,-22.949,-27.344,-12.695,0.000
31.000,-34.180,-29.297,-25.879,-28.320,0.000
35.000,-48.340,-35.645,-30.273,-32.227,0.000
39.000,-37.598,-36.133,-26.855,-21.973,0.000
43.000,-29.785,-31.250,-25.391,-25.879,0.000
47.000,-30.762,-27.344,-28.809,-36.133,0.000
51.000,-26.855,-29.785,-26.855,-33.203,0.000
55.000,-29.785,-35.645,-24.414,-24.414,0.000
59.000,-44.922,-38.086,-23.438,-20.996,0.000
62.000,-50.293,-39.062,-25.391,-32.227,0.000
66.000,-50.781,-37.109,-24.902,-42.480,0.000
70.000,-44.922,-33.203,-22.461,-32.715,0.000
74.000,-41.504,-34.668,-22.949,-28.809,0.000
78.000,-40.039,-41.016,-26.855,-35.156,0.000
82.000,-32.715,-38.574,-23.438,-34.180,0.000
86.000,-17.578,-32.227,-18.555,-25.879,0.000
90.000,-17.578,-37.109,-24.414,-25.879,0.000
94.000,-46.387,-45.898,-26.855,-30.273,0.000
98.000,-42.969,-44.434,-24.902,-32.227,0.000
102.000,-35.156,-40.039,-23.438,-36.133,0.000
105.000,-43.457,-43.457,-24.902,-30.762,0.000
109.000,-38.574,-44.922,-28.320,-21.484,0.000
113.000,-20.508,-41.016,-26.367,-3.418,0.000
117.000,0.000,-31.250,-25.879,0.488,0.000
121.000,-11.230,-28.809,-30.273,-23.926,0.000
125.000,-20.508,-35.645,-36.621,-36.133,0.000
129.000,-24.414,-35.156,-36.133,-38.086,0.000
133.000,-20.020,-33.691,-35.645,-38.086,0.000
137.000,-21.973,-41.504,-45.898,-31.738,0.000
141.000,-17.578,-42.969,-45.410,-26.367,0.000
145.000,-9.766,-33.203,-42.480,-31.250,0.000
148.000,-22.949,-29.297,-43.945,-34.668,0.000
152.000,-28.320,-33.691,-41.016,-34.180,0.000
156.000,-18.555,-33.691,-42.969,-34.180,0.000
160.000,-16.113,-31.738,-42.480,-34.180,0.000
164.000,-21.484,-32.227,-35.156,-36.133,0.000
168.000,-30.762,-36.133,-31.250,-28.320,0.000
172.000,-49.316,-41.504,-33.691,-22.461,0.000
176.000,-49.316,-41.504,-34.668,-17.578,0.000
180.000,-45.410,-37.598,-32.227,-30.273,0.000
184.000,-39.551,-40.039,-33.691,-42.480,0.000
187.000,-37.598,-41.992,-30.762,-30.273,0.000
191.000,-40.039,-37.598,-22.949,-24.414,0.000
195.000,-43.457,-34.180,-23.926,-39.551,0.000
199.000,-45.898,-32.715,-27.832,-50.293,0.000
203.000,-44.922,-38.574,-27.832,-50.293,0.000
207.000,-40.527,-44.922,-29.297,-49.805,0.000
211.000,-41.992,-42.480,-31.250,-61.523,0.000
215.000,-53.223,-42.969,-30.762,-68.848,0.000
219.000,-50.781,-42.480,-35.156,-63.965,0.000
223.000,-44.922,-42.969,-34.180,-62.012,0.000
227.000,-47.363,-43.945,-31.738,-59.082,0.000
230.000,-53.223,-46.387,-34.180,-60.547,0.000
234.000,-44.922,-44.922,-32.227,-62.012,0.000
238.000,-31.250,-38.574,-27.344,-52.734,0.000
242.000,-45.410,-39.551,-27.344,-51.270,0.000
246.000,-64.453,-42.480,-25.879,-56.641,0.000
250.000,-67.383,-42.480,-27.344,-56.152,0.000
254.000,-66.406,-47.363,-30.762,-52.734,0.000
258.000,-61.035,-44.922,-32.227,-44.922,0.000
262.000,-55.176,-40.527,-31.738,-43.457,0.000
266.000,-47.852,-38.086,-28.809,-42.969,0.000
270.000,-39.551,-34.668,-29.297,-40.039,0.000
273.000,-33.203,-34.668,-30.273,-39.551,0.000
277.000,-31.250,-35.156,-27.344,-44.434,0.000
281.000,-22.461,-33.691,-23.926,-36.133,0.000
285.000,-20.508,-36.621,-23.926,-25.879,0.000
289.000,-17.578,-33.691,-26.367,-20.996,0.000
293.000,-6.836,-31.250,-21.484,-15.137,0.000
297.000,-3.906,-37.598,-20.508,-20.996,0.000
301.000,-13.184,-41.992,-24.902,-20.996,0.000
305.000,-28.320,-46.387,-28.809,-22.949,0.000
309.000,-24.414,-48.340,-28.320,-27.832,0.000
312.000,-15.137,-45.898,-25.879,-25.391,0.000
316.000,-17.090,-44.434,-26.855,-34.180,0.000
320.000,-11.230,-45.410,-34.180,-34.668,0.000
324.000,-6.836,-44.434,-36.621,-25.879,0.000
328.000,-11.230,-42.969,-32.715,-21.973,0.000
332.000,-19.531,-41.992,-30.273,-25.879,0.000
336.000,-20.508,-40.039,-33.203,-24.902,0.000
340.000,-19.531,-40.527,-37.598,-20.508,0.000
344.000,-12.695,-40.527,-39.062,-21.973,0.000
348.000,-6.836,-41.992,-34.180,-25.391,0.000
352.000,-15.137,-45.410,-31.250,-20.508,0.000
355.000,-15.625,-46.387,-29.785,-13.672,0.000
359.000,-17.578,-42.969,-29.785,-14.160,0.000
363.000,-24.414,-41.016,-30.273,-19.531,0.000
367.000,-27.344,-46.387,-32.715,-27.344,0.000
371.000,-34.668,-54.688,-34.180,-26.855,0.000
375.000,-39.551,-55.664,-36.621,-22.949,0.000
379.000,-40.039,-55.176,-35.645,-29.297,0.000
383.000,-44.434,-58.594,-30.273,-37.598,0.000
387.000,-35.645,-61.523,-33.203,-41.992,0.000
391.000,-22.461,-57.129,-35.156,-40.039,0.000
395.000,-32.715,-56.152,-31.738,-38.086,0.000
398.000,-43.945,-55.176,-30.762,-42.480,0.000
402.000,-44.434,-56.641,-40.039,-43.457,0.000
406.000,-38.574,-56.152,-42.969,-41.016,0.000
410.000,-36.133,-54.199,-40.039,-38.574,0.000
414.000,-42.480,-54.199,-41.016,-46.875,0.000
418.000,-50.293,-49.316,-37.598,-40.527,0.000
422.000,-45.898,-47.363,-38.086,-36.133,0.000
426.000,-36.133,-51.270,-33.691,-45.898,0.000
430.000,-29.785,-53.711,-26.367,-42.969,0.000
434.000,-34.180,-58.105,-33.203,-47.363,0.000
437.000,-38.574,-56.152,-42.480,-45.898,0.000
441.000,-34.668,-51.758,-42.969,-25.391,0.000
445.000,-39.062,-58.594,-37.109,-21.973,0.000
449.000,-29.785,-57.617,-33.203,-20.020,0.000
453.000,-2.441,-54.199,-29.297,2.930,0.000
457.000,-5.371,-55.176,-21.484,-0.488,0.000
461.000,-32.227,-58.594,-27.344,-29.297,0.000
465.000,-24.414,-58.594,-32.227,-32.227,0.000
469.000,-21.973,-58.105,-34.668,-37.109,0.000
473.000,-46.387,-66.895,-35.645,-46.875,0.000
477.000,-63.965,-66.895,-31.250,-38.086,0.000
480.000,-70.801,-59.082,-25.879,-41.992,0.000
484.000,-66.406,-61.035,-20.996,-58.105,0.000
488.000,-59.082,-58.105,-23.926,-66.406,0.000
492.000,-63.477,-57.617,-22.949,-66.895,0.000
496.000,-79.102,-62.988,-19.531,-71.777,0.000
500.000,-94.238,-69.336,-28.320,-88.379,0.000
504.000,-86.914,-67.383,-30.762,-85.938,0.000
508.000,-77.148,-58.105,-25.879,-63.477,0.000
512.000,-97.656,-62.012,-29.785,-67.383,0.000
516.000,-116.211,-65.430,-27.344,-72.266,0.000
520.000,-105.469,-62.012,-23.438,-65.430,0.000
523.000,-93.750,-60.059,-30.273,-67.871,0.000
527.000,-90.820,-62.500,-34.180,-71.289,0.000
531.000,-91.797,-61.523,-35.645,-85.449,0.000
535.000,-85.449,-51.758,-36.133,-82.520,0.000
539.000,-78.125,-48.828,-34.668,-62.012,0.000
543.000,-78.613,-56.641,-36.133,-55.664,0.000
547.000,-73.242,-60.059,-41.504,-54.199,0.000
551.000,-61.523,-49.316,-41.504,-57.617,0.000
555.000,-50.781,-43.945,-37.598,-51.758,0.000
559.000,-39.062,-45.898,-37.598,-38.086,0.000
562.000,-36.621,-45.410,-39.551,-35.156,0.000
566.000,-44.922,-43.457,-41.016,-34.668,0.000
570.000,-34.668,-48.340,-41.504,-26.367,0.000
574.000,-26.367,-44.922,-40.039,-15.137,0.000
578.000,-26.367,-39.062,-34.668,-10.742,0.000
582.000,-25.391,-44.434,-29.785,-19.043,0.000
586.000,-16.113,-45.410,-35.156,-15.625,0.000
590.000,-24.414,-39.062,-35.645,1.953,0.000
594.000,-34.668,-39.551,-24.902,20.508,0.000
598.000,-23.926,-41.992,-24.902,27.344,0.000
602.000,-23.438,-41.992,-28.809,10.254,0.000
605.000,-29.297,-39.551,-30.762,2.441,0.000
609.000,-47.363,-43.457,-37.598,-4.883,0.000
613.000,-45.898,-47.363,-35.645,-17.578,0.000
617.000,-38.574,-48.828,-37.109,-28.809,0.000
621.000,-40.527,-41.504,-41.504,-34.180,0.000
625.000,-46.387,-42.480,-37.109,-33.203,0.000
629.000,-55.176,-47.852,-37.598,-36.621,0.000
633.000,-58.594,-48.340,-41.016,-35.645,0.000
637.000,-71.777,-53.223,-43.457,-37.598,0.000
641.000,-73.242,-52.734,-39.551,-28.809,0.000
645.000,-62.500,-49.805,-38.086,-24.902,0.000
648.000,-58.105,-46.387,-42.969,-47.363,0.000
652.000,-49.805,-42.480,-41.992,-47.852,0.000
656.000,-40.039,-38.574,-38.574,-29.297,0.000
660.000,-34.180,-30.273,-34.180,-24.414,0.000
664.000,-38.086,-34.180,-35.645,-34.180,0.000
668.000,-33.203,-41.504,-41.992,-32.715,0.000
672.000,-20.508,-38.086,-38.086,-13.672,0.000
676.000,-27.832,-37.598,-31.250,-4.395,0.000
680.000,-24.414,-37.598,-31.250,-10.254,0.000
684.000,-18.066,-34.668,-37.109,-17.090,0.000
687.000,-8.789,-27.832,-43.457,-22.949,0.000
691.000,-8.789,-23.926,-36.621,-6.836,0.000
695.000,-10.742,-27.344,-30.273,-0.488,0.000
699.000,-1.953,-25.879,-30.273,-11.719,0.000
703.000,-1.953,-25.879,-32.715,-11.719,0.000
707.000,-7.812,-23.926,-31.250,-5.371,0.000
711.000,-17.578,-23.926,-23.438,-7.324,0.000
715.000,-20.508,-20.996,-19.531,-13.672,0.000
719.000,-18.066,-18.555,-20.508,-8.301,0.000
723.000,-14.648,-22.461,-20.996,0.977,0.000
727.000,-19.531,-26.367,-20.020,1.953,0.000
730.000,-33.691,-29.297,-21.484,-5.859,0.000
734.000,-34.180,-29.785,-29.785,-10.742,0.000
738.000,-22.949,-30.273,-31.738,-13.672,0.000
742.000,-17.090,-26.855,-22.949,-3.418,0.000
746.000,-25.879,-30.273,-24.414,-9.277,0.000
750.000,-25.391,-35.156,-26.855,-22.461,0.000
754.000,-16.113,-35.645,-20.508,-20.508,0.000
758.000,-17.578,-36.621,-17.578,-19.531,0.000
762.000,-17.090,-36.133,-16.602,-16.602,0.000
766.000,-15.625,-34.180,-22.949,-27.344,0.000
770.000,-15.625,-31.738,-25.391,-22.461,0.000
773.000,-3.418,-30.273,-14.648,-9.277,0.000
777.000,-7.812,-30.273,-13.184,-14.160,0.000
781.000,-25.879,-35.645,-17.578,-21.973,0.000
785.000,-26.367,-35.645,-13.672,-29.297,0.000
789.000,-20.996,-34.180,-13.672,-26.367,0.000
793.000,-27.832,-38.086,-19.043,-19.043,0.000
797.000,-24.414,-39.062,-22.949,-24.414,0.000
801.000,-23.926,-41.992,-24.414,-27.832,0.000
805.000,-45.898,-44.922,-24.902,-20.020,0.000
809.000,-58.594,-43.457,-22.461,-16.113,0.000
812.000,-57.617,-39.551,-15.625,-16.113,0.000
816.000,-53.223,-33.691,-14.160,-20.508,0.000
820.000,-49.316,-33.203,-14.648,-23.438,0.000
824.000,-44.922,-40.527,-17.090,-12.695,0.000
828.000,-46.387,-45.898,-20.508,-20.508,0.000
832.000,-45.898,-42.480,-21.973,-36.621,0.000
836.000,-44.922,-41.504,-20.996,-41.016,0.000
840.000,-42.969,-36.621,-19.531,-38.086,0.000
844.000,-41.016,-32.227,-19.531,-40.039,0.000
848.000,-40.527,-33.203,-27.344,-49.316,0.000
852.000,-33.691,-30.762,-30.762,-53.223,0.000
855.000,-27.832,-29.785,-27.344,-44.434,0.000
859.000,-25.391,-28.320,-25.879,-43.457,0.000
863.000,-24.414,-25.879,-32.227,-45.410,0.000
867.000,-28.320,-23.438,-32.715,-41.016,0.000
871.000,-21.484,-22.949,-27.832,-23.926,0.000
875.000,-13.672,-24.414,-29.297,-14.160,0.000
879.000,-6.348,-17.578,-24.902,-9.277,0.000
883.000,-17.090,-21.973,-21.484,-20.020,0.000
887.000,-28.320,-29.297,-26.367,-27.344,0.000
891.000,-42.969,-31.738,-34.668,-30.273,0.000
894.000,-52.246,-39.062,-35.156,-39.062,0.000
898.000,-41.504,-36.133,-30.762,-38.086,0.000
902.000,-46.875,-36.133,-32.715,-41.992,0.000
906.000,-41.504,-43.945,-37.109,-35.156,0.000
910.000,-45.410,-41.016,-37.598,-24.414,0.000
914.000,-62.988,-37.109,-39.551,-32.227,0.000
918.000,-50.781,-45.898,-40.527,-48.828,0.000
922.000,-30.273,-44.922,-38.086,-39.062,0.000
926.000,-35.645,-40.527,-37.109,-26.855,0.000
930.000,-46.387,-47.363,-39.062,-37.109,0.000
934.000,-44.922,-44.922,-36.133,-38.574,0.000
937.000,-41.992,-42.480,-33.203,-35.645,0.000
941.000,-34.668,-44.434,-34.180,-31.250,0.000
945.000,-54.199,-43.945,-37.109,-39.551,0.000
949.000,-68.359,-43.457,-35.156,-48.340,0.000
953.000,-47.363,-41.016,-31.738,-38.086,0.000
957.000,-30.273,-36.133,-29.785,-19.043,0.000
961.000,-28.809,-37.109,-27.832,-21.973,0.000
965.000,-35.645,-38.574,-26.367,-39.062,0.000
969.000,-41.992,-40.039,-29.297,-44.434,0.000
973.000,-31.250,-44.922,-24.902,-31.738,0.000
977.000,-34.180,-48.828,-29.785,-25.391,0.000
980.000,-44.922,-50.293,-40.039,-29.785,0.000
984.000,-34.668,-41.504,-31.250,-24.902,0.000
988.000,-28.320,-35.156,-26.855,-22.461,0.000
992.000,-39.062,-40.039,-31.738,-26.855,0.000
996.000,-49.316,-45.898,-29.785,-36.621,0.000
1000.000,-51.758,-47.852,-32.227,-48.340,0.000
1004.000,-53.223,-52.246,-39.062,-55.176,0.000
1008.000,-53.711,-50.781,-35.156,-50.293,0.000
1012.000,-62.500,-43.945,-31.250,-45.410,0.000
1016.000,-61.523,-43.457,-27.832,-50.781,0.000
1019.000,-50.781,-43.457,-27.832,-45.410,0.000
1023.000,-51.758,-46.387,-32.715,-39.551,0.000
1027.000,-57.129,-49.316,-33.203,-34.180,0.000
1031.000,-62.012,-49.805,-33.691,-29.297,0.000
1035.000,-56.152,-50.293,-34.180,-30.762,0.000
1039.000,-41.504,-49.316,-28.809,-25.879,0.000
1043.000,-41.504,-48.828,-28.320,-23.926,0.000
1047.000,-50.781,-53.711,-28.320,-32.227,0.000
1051.000,-57.617,-58.594,-35.156,-44.922,0.000
1055.000,-55.176,-58.105,-42.480,-38.574,0.000
1059.000,-51.270,-60.059,-40.039,-25.879,0.000
1062.000,-42.969,-54.199,-33.203,-20.996,0.000
1066.000,-37.109,-46.387,-30.273,-19.531,0.000
1070.000,-33.691,-45.410,-29.785,-20.508,0.000
1074.000,-27.832,-43.457,-27.832,-19.043,0.000
1078.000,-25.391,-40.039,-28.320,-24.414,0.000
1082.000,-32.227,-40.039,-30.273,-36.133,0.000
1086.000,-33.691,-33.203,-27.344,-29.785,0.000
1090.000,-25.879,-33.203,-25.391,-19.043,0.000
1094.000,-32.715,-40.039,-27.344,-12.695,0.000
1098.000,-41.992,-39.062,-27.344,-12.207,0.000
1102.000,-45.410,-42.969,-28.320,-15.625,0.000
1105.000,-36.133,-38.574,-30.762,-8.789,0.000
1109.000,-15.625,-27.832,-26.855,3.906,0.000
1113.000,-6.348,-27.344,-25.391,-5.371,0.000
1117.000,-24.902,-34.668,-28.320,-20.508,0.000
1121.000,-35.645,-37.598,-31.250,-12.207,0.000
1125.000,-32.227,-36.621,-25.879,-0.488,0.000
1129.000,-33.203,-39.062,-23.438,-11.719,0.000
1133.000,-24.902,-41.504,-25.391,-22.949,0.000
1137.000,-22.461,-43.945,-20.996,-20.508,0.000
1141.000,-26.367,-41.504,-24.414,-12.207,0.000
1144.000,-24.902,-41.992,-27.344,-14.648,0.000
1148.000,-30.762,-44.922,-25.391,-23.438,0.000
1152.000,-27.832,-41.992,-28.809,-25.879,0.000
1156.000,-20.020,-35.156,-28.809,-25.391,0.000
1160.000,-25.391,-35.645,-26.855,-24.414,0.000
1164.000,-25.879,-36.133,-24.902,-32.715,0.000
1168.000,-23.438,-35.645,-23.438,-39.062,0.000
1172.000,-33.691,-43.945,-28.809,-36.621,0.000
1176.000,-41.992,-48.828,-34.668,-28.809,0.000
1180.000,-42.480,-45.898,-33.203,-30.762,0.000
1184.000,-37.109,-42.969,-32.715,-37.109,0.000
1187.000,-33.203,-44.434,-34.668,-30.762,0.000
1191.000,-33.203,-50.781,-40.039,-29.785,0.000
1195.000,-30.273,-48.828,-37.598,-29.297,0.000
1199.000,-32.227,-50.293,-32.227,-28.320,0.000
1203.000,-32.715,-52.246,-32.715,-25.879,0.000
1207.000,-25.879,-48.340,-28.320,-14.160,0.000
1211.000,-23.926,-47.852,-20.020,-12.207,0.000
1215.000,-20.996,-44.434,-20.020,-20.996,0.000
1219.000,-13.184,-43.457,-21.484,-20.020,0.000
1223.000,-11.719,-43.457,-19.531,-12.695,0.000
1227.000,-9.766,-36.133,-22.949,-6.348,0.000
1230.000,4.883,-30.762,-25.391,-4.883,0.000
1234.000,10.254,-27.832,-16.602,5.371,0.000
1238.000,-15.625,-34.180,-7.812,4.395,0.000
1242.000,-29.297,-35.156,-6.348,5.371,0.000
1246.000,-23.926,-34.180,-7.812,11.230,0.000
1250.000,-37.109,-40.039,-5.371,-3.418,0.000
1254.000,-45.898,-43.457,-3.418,-24.414,0.000
1258.000,-45.898,-49.805,-14.160,-29.785,0.000
1262.000,-40.527,-48.828,-16.113,-22.461,0.000
1266.000,-41.016,-48.828,-8.301,-27.344,0.000
1269.000,-39.062,-50.293,-13.184,-31.738,0.000
1273.000,-35.156,-45.898,-18.066,-26.855,0.000
1277.000,-40.039,-45.410,-13.672,-28.809,0.000
1281.000,-40.039,-44.922,-12.695,-30.762,0.000
1285.000,-27.344,-51.270,-20.508,-26.367,0.000
1289.000,-20.996,-53.223,-19.531,-11.230,0.000
1293.000,-22.949,-53.711,-19.043,-6.348,0.000
1297.000,-36.621,-52.734,-17.578,-11.230,0.000
1301.000,-31.738,-50.293,-16.602,-9.766,0.000
1305.000,-20.508,-55.176,-20.996,-3.418,0.000
1309.000,-17.090,-57.129,-22.461,3.418,0.000
1312.000,-8.301,-48.828,-24.414,-6.348,0.000
1316.000,1.953,-43.945,-20.508,-6.348,0.000
1320.000,5.859,-45.410,-17.578,-1.953,0.000
1324.000,7.324,-48.340,-28.809,-3.906,0.000
1328.000,30.762,-42.480,-27.832,10.742,0.000
1332.000,37.598,-31.738,-16.113,13.672,0.000
1336.000,-13.184,-41.016,-20.020,-20.508,0.000
1340.000,-25.391,-41.016,-16.602,-13.672,0.000
1344.000,-12.207,-36.133,-7.812,4.883,0.000
1348.000,-39.551,-50.781,-17.578,-16.113,0.000
1352.000,-57.129,-57.617,-29.297,-27.832,0.000
1355.000,-60.547,-66.406,-37.109,-32.715,0.000
1359.000,-66.406,-68.848,-31.738,-37.109,0.000
1363.000,-65.918,-69.336,-17.578,-40.039,0.000
1367.000,-56.641,-72.754,-16.602,-41.016,0.000
1371.000,-53.711,-61.035,-26.855,-40.039,0.000
1375.000,-64.453,-62.012,-31.738,-56.152,0.000
1379.000,-73.730,-62.012,-32.227,-62.988,0.000
1383.000,-67.383,-50.293,-24.902,-57.129,0.000
1387.000,-60.059,-51.270,-24.414,-59.082,0.000
1391.000,-76.660,-56.152,-34.180,-54.688,0.000
1394.000,-89.844,-58.105,-35.156,-57.617,0.000
1398.000,-73.730,-61.523,-28.809,-62.500,0.000
1402.000,-64.453,-62.988,-26.367,-55.664,0.000
1406.000,-59.570,-56.641,-21.973,-38.574,0.000
1410.000,-59.570,-50.781,-20.508,-36.133,0.000
1414.000,-58.594,-43.945,-22.461,-53.223,0.000
1418.000,-41.992,-39.062,-21.484,-55.176,0.000
1422.000,-27.344,-39.551,-19.531,-51.758,0.000
1426.000,-29.785,-35.645,-18.555,-44.434,0.000
1430.000,-43.457,-33.691,-18.066,-37.109,0.000
1434.000,-55.176,-39.551,-13.672,-36.621,0.000
1437.000,-56.641,-48.340,-14.160,-28.320,0.000
1441.000,-50.293,-48.340,-14.648,-18.555,0.000
1445.000,-43.457,-45.410,-17.090,-23.438,0.000
1449.000,-42.969,-46.387,-19.043,-32.715,0.000
1453.000,-44.922,-46.387,-18.066,-19.043,0.000
1457.000,-37.598,-45.898,-21.973,-13.184,0.000
1461.000,-34.180,-44.922,-22.461,-24.414,0.000
1465.000,-40.527,-47.363,-24.902,-30.762,0.000
1469.000,-40.039,-45.410,-24.902,-29.297,0.000
1473.000,-38.086,-47.363,-25.879,-18.555,0.000
1477.000,-37.109,-56.152,-28.809,-20.020,0.000
1480.000,-32.227,-53.223,-23.926,-25.879,0.000
1484.000,-23.926,-42.969,-20.020,-24.414,0.000
1488.000,-23.926,-40.039,-25.879,-32.715,0.000
1492.000,-37.598,-43.457,-30.273,-39.062,0.000
1496.000,-45.410,-42.480,-33.691,-46.387,0.000
1500.000,-37.109,-36.133,-28.320,-54.199,0.000
1504.000,-25.879,-36.621,-22.949,-49.316,0.000
1508.000,-19.043,-33.691,-20.020,-33.691,0.000
1512.000,-15.625,-29.297,-17.090,-29.785,0.000
1516.000,-17.090,-32.227,-11.230,-30.762,0.000
1519.000,-24.902,-38.086,-11.230,-28.320,0.000
1523.000,-53.223,-41.992,-18.555,-26.367,0.000
1527.000,-56.641,-41.992,-22.461,-28.809,0.000
1531.000,-46.387,-43.457,-26.367,-31.250,0.000
1535.000,-44.922,-39.062,-26.855,-30.762,0.000
1539.000,-41.504,-36.621,-24.902,-24.902,0.000
1543.000,-61.523,-39.062,-24.902,-16.113,0.000
1547.000,-69.336,-36.133,-27.344,-20.996,0.000
1551.000,-62.988,-37.598,-27.832,-28.320,0.000
1555.000,-54.688,-40.039,-23.926,-18.066,0.000
1559.000,-44.434,-34.180,-19.043,-5.859,0.000
1562.000,-45.410,-32.715,-20.020,-10.254,0.000
1566.000,-28.809,-32.715,-20.508,-3.906,0.000
1570.000,-5.859,-29.297,-20.020,20.996,0.000
1574.000,-2.441,-26.367,-20.508,30.273,0.000
1578.000,-33.203,-26.855,-30.273,-9.277,0.000
1582.000,-42.480,-32.227,-36.621,-35.645,0.000
1586.000,-21.484,-33.691,-34.180,-17.090,0.000
1590.000,-14.648,-32.715,-39.062,-5.859,0.000
1594.000,-24.902,-36.133,-44.922,-23.438,0.000
1598.000,-24.414,-38.086,-43.945,-36.621,0.000
1602.000,-17.090,-38.086,-41.016,-26.367,0.000
1605.000,-28.320,-37.598,-36.621,-15.625,0.000
1609.000,-38.574,-44.922,-40.039,-20.020,0.000
1613.000,-40.527,-52.734,-47.852,-32.227,0.000
1617.000,-39.062,-56.152,-49.316,-43.457,0.000
1621.000,-35.156,-54.688,-46.387,-42.969,0.000
1625.000,-33.691,-50.781,-43.457,-31.738,0.000
1629.000,-43.457,-53.711,-41.992,-36.133,0.000
1633.000,-49.316,-54.688,-37.598,-35.156,0.000
1637.000,-40.527,-51.758,-38.086,-27.832,0.000
1641.000,-29.785,-44.434,-38.574,-17.578,0.000
1644.000,-31.738,-43.457,-34.668,-13.672,0.000
1648.000,-32.715,-43.457,-32.227,-29.297,0.000
1652.000,-22.949,-40.527,-34.668,-34.180,0.000
1656.000,-6.836,-38.086,-33.691,-22.461,0.000
1660.000,-13.184,-41.016,-33.691,-26.367,0.000
1664.000,-21.484,-36.133,-32.227,-36.621,0.000
1668.000,-21.973,-35.156,-31.738,-39.551,0.000
1672.000,-27.832,-43.945,-37.109,-25.879,0.000
1676.000,-31.250,-41.992,-31.250,-9.766,0.000
1680.000,-30.273,-35.645,-28.809,-12.695,0.000
1684.000,-28.809,-38.086,-34.180,-25.879,0.000
1687.000,-33.203,-40.039,-34.180,-25.879,0.000
1691.000,-26.367,-40.527,-27.832,-17.090,0.000
1695.000,-20.508,-34.668,-23.438,-14.648,0.000
1699.000,-18.555,-29.297,-16.602,-14.160,0.000
1703.000,-16.113,-27.344,-16.113,-15.625,0.000
1707.000,-6.836,-28.809,-22.461,-11.719,0.000
1711.000,-15.625,-33.691,-19.043,-9.277,0.000
1715.000,-35.156,-40.039,-20.996,-11.719,0.000
1719.000,-31.250,-37.598,-26.855,-15.137,0.000
1723.000,-17.090,-31.738,-20.020,-8.301,0.000
1726.000,-13.672,-31.738,-19.531,-13.672,0.000
1730.000,-9.766,-26.367,-18.555,-24.902,0.000
1734.000,-0.488,-20.020,-14.648,-21.484,0.000
1738.000,-4.395,-23.926,-16.602,-13.672,0.000
1742.000,-10.254,-33.203,-20.020,-9.277,0.000
1746.000,-6.836,-31.250,-16.602,-9.277,0.000
1750.000,-17.578,-32.227,-18.555,-11.230,0.000
1754.000,-18.066,-30.762,-24.414,-3.418,0.000
1758.000,-13.184,-31.250,-23.438,5.371,0.000
1762.000,-19.531,-35.645,-26.367,-5.371,0.000
1766.000,-13.184,-38.574,-30.762,-17.578,0.000
1769.000,-6.348,-38.086,-32.715,-20.020,0.000
1773.000,-6.348,-36.133,-31.738,-21.484,0.000
1777.000,-13.672,-36.133,-25.879,-20.020,0.000
1781.000,-39.062,-35.156,-23.926,-21.973,0.000
1785.000,-46.875,-33.691,-23.438,-23.438,0.000
1789.000,-42.480,-40.039,-25.391,-23.438,0.000
1793.000,-47.363,-51.270,-28.809,-27.344,0.000
1797.000,-45.898,-48.828,-23.438,-30.273,0.000
1801.000,-38.086,-46.387,-22.461,-29.297,0.000
1805.000,-36.133,-51.270,-26.367,-32.715,0.000
1809.000,-41.504,-50.293,-20.996,-36.621,0.000
1812.000,-42.480,-48.828,-17.090,-30.762,0.000
1816.000,-41.504,-46.387,-17.578,-31.250,0.000
1820.000,-41.992,-41.504,-17.578,-33.691,0.000
1824.000,-52.734,-49.316,-19.531,-30.273,0.000
1828.000,-56.152,-49.805,-18.555,-28.809,0.000
1832.000,-57.129,-43.457,-14.648,-36.621,0.000
1836.000,-60.547,-46.875,-19.531,-44.922,0.000
1840.000,-48.340,-49.805,-24.414,-43.457,0.000
1844.000,-49.805,-47.852,-25.879,-52.734,0.000
1848.000,-56.152,-48.340,-24.414,-61.035,0.000
1851.000,-42.969,-46.387,-23.438,-61.523,0.000
1855.000,-41.016,-41.992,-23.438,-47.363,0.000
1859.000,-42.969,-41.992,-21.484,-34.180,0.000
1863.000,-41.016,-44.922,-26.855,-44.922,0.000
1867.000,-34.180,-44.434,-31.250,-49.805,0.000
1871.000,-22.461,-44.434,-27.344,-39.551,0.000
1875.000,-12.695,-43.457,-25.879,-39.062,0.000
1879.000,-24.414,-41.016,-23.926,-44.922,0.000
1883.000,-40.527,-40.527,-25.391,-45.898,0.000
1887.000,-36.621,-41.504,-29.297,-42.969,0.000
1891.000,-31.250,-37.109,-24.902,-33.691,0.000
1894.000,-34.180,-38.086,-23.926,-40.039,0.000
1898.000,-46.387,-42.969,-25.391,-43.945,0.000
1902.000,-44.922,-34.668,-21.484,-30.762,0.000
1906.000,-40.527,-39.062,-22.461,-26.855,0.000
1910.000,-43.457,-43.945,-24.414,-25.391,0.000
1914.000,-36.621,-33.691,-22.949,-27.344,0.000
1918.000,-38.574,-39.551,-23.438,-30.762,0.000
1922.000,-35.156,-45.898,-23.926,-29.785,0.000
1926.000,-34.180,-44.922,-23.926,-31.250,0.000
1930.000,-27.344,-43.945,-24.414,-22.461,0.000
1934.000,-21.973,-45.898,-20.508,-17.090,0.000
1937.000,-51.758,-51.758,-21.484,-39.062,0.000
1941.000,-69.336,-55.664,-25.391,-52.246,0.000
1945.000,-67.871,-59.570,-28.320,-47.852,0.000
1949.000,-75.684,-60.547,-30.762,-55.664,0.000
1953.000,-78.613,-62.012,-32.227,-73.242,0.000
1957.000,-79.590,-66.406,-37.109,-77.148,0.000
1961.000,-85.449,-71.777,-41.504,-82.031,0.000
1965.000,-81.055,-72.266,-40.527,-93.262,0.000
1969.000,-67.383,-67.871,-34.180,-85.938,0.000
1973.000,-60.059,-69.336,-37.109,-75.195,0.000
1976.000,-75.684,-75.684,-38.574,-77.148,0.000
1980.000,-83.008,-71.289,-24.414,-68.359,0.000
1984.000,-89.355,-70.312,-24.414,-71.777,0.000
1988.000,-83.008,-72.754,-33.203,-63.965,0.000
1992.000,-82.031,-68.848,-22.949,-47.363,0.000
1996.000,-97.168,-67.871,-18.066,-58.594,0.000
2000.000,-90.820,-71.777,-21.973,-62.988,0.000
2004.000,-83.984,-69.824,-20.996,-61.035,0.000
2008.000,-81.055,-71.777,-30.273,-57.617,0.000
2012.000,-82.520,-76.172,-28.809,-61.035,0.000
2016.000,-89.844,-74.219,-18.555,-63.477,0.000
2019.000,-83.984,-68.359,-17.578,-54.688,0.000
2023.000,-80.078,-72.266,-26.367,-60.547,0.000
2027.000,-72.266,-72.266,-28.809,-56.152,0.000
2031.000,-60.059,-68.848,-28.320,-51.758,0.000
2035.000,-46.387,-66.406,-30.273,-57.617,0.000
2039.000,-34.668,-61.035,-26.367,-38.574,0.000
2043.000,-50.293,-59.570,-27.344,-35.156,0.000
2047.000,-58.594,-57.617,-28.320,-46.875,0.000
2051.000,-49.805,-54.199,-24.414,-40.527,0.000
2055.000,-51.270,-52.246,-28.320,-35.645,0.000
2059.000,-36.621,-51.758,-32.715,-32.715,0.000
2062.000,-29.785,-51.270,-33.203,-30.273,0.000
2066.000,-33.203,-47.363,-34.668,-44.922,0.000
2070.000,-27.832,-44.922,-33.691,-43.457,0.000
2074.000,-37.598,-42.480,-40.527,-29.785,0.000
2078.000,-32.715,-33.691,-43.945,-26.855,0.000
2082.000,-23.926,-33.203,-44.922,-42.480,0.000
2086.000,-29.785,-42.480,-46.387,-49.805,0.000
2090.000,-34.180,-42.480,-44.922,-38.574,0.000
2094.000,-35.156,-39.551,-39.551,-37.598,0.000
2098.000,-36.133,-39.062,-40.039,-31.738,0.000
2101.000,-32.715,-41.016,-48.340,-30.762,0.000
2105.000,-28.809,-40.527,-47.363,-26.855,0.000
2109.000,-25.879,-34.668,-38.086,-16.602,0.000
2113.000,-20.996,-37.109,-36.621,-16.602,0.000
2117.000,-7.324,-40.039,-39.062,-7.812,0.000
2121.000,-1.953,-38.574,-31.738,6.836,0.000
2125.000,0.000,-40.039,-34.180,2.930,0.000
2129.000,-3.906,-40.527,-38.574,-13.672,0.000
2133.000,-6.348,-37.598,-38.574,-18.555,0.000
2137.000,-4.883,-41.504,-45.410,-20.508,0.000
2141.000,-12.207,-47.852,-44.434,-19.043,0.000
2144.000,-9.766,-43.945,-39.551,-9.277,0.000
2148.000,-9.766,-40.039,-37.598,-9.277,0.000
2152.000,-8.789,-44.922,-35.156,-9.766,0.000
2156.000,5.859,-42.480,-33.203,-1.465,0.000
2160.000,0.977,-40.527,-31.738,-6.348,0.000
2164.000,-8.789,-41.504,-28.809,-16.113,0.000
2168.000,-6.348,-39.062,-31.250,-13.672,0.000
2172.000,-3.418,-38.574,-29.785,-2.930,0.000
2176.000,-12.207,-39.551,-22.949,0.977,0.000
2180.000,-28.320,-46.875,-23.438,-8.301,0.000
2184.000,-27.344,-50.293,-27.344,-13.184,0.000
2187.000,-18.555,-46.387,-24.902,-5.371,0.000
2191.000,-15.625,-42.969,-20.508,-1.465,0.000
2195.000,-18.555,-41.504,-23.926,-10.254,0.000
2199.000,-24.902,-42.969,-25.391,-14.160,0.000
2203.000,-12.207,-48.828,-24.414,-17.090,0.000
2207.000,-12.207,-48.828,-23.926,-20.508,0.000
2211.000,-23.438,-41.016,-23.438,-20.996,0.000
2215.000,-27.344,-41.016,-22.949,-21.484,0.000
2219.000,-31.738,-38.574,-25.879,-22.949,0.000
2223.000,-27.832,-37.109,-32.715,-20.996,0.000
2226.000,-36.133,-38.574,-26.367,-17.578,0.000
2230.000,-46.387,-34.668,-22.949,-19.043,0.000
2234.000,-53.711,-39.062,-29.785,-28.320,0.000
2238.000,-55.176,-43.457,-34.668,-32.227,0.000
2242.000,-48.828,-36.621,-32.227,-22.949,0.000
2246.000,-48.340,-27.344,-27.344,-28.320,0.000
2250.000,-36.621,-24.414,-30.762,-42.480,0.000
2254.000,-29.297,-28.320,-35.156,-43.457,0.000
2258.000,-42.969,-31.738,-33.203,-35.156,0.000
2262.000,-52.734,-41.016,-35.156,-33.691,0.000
2266.000,-52.734,-44.922,-37.109,-36.133,0.000
2269.000,-42.480,-42.969,-35.156,-35.156,0.000
2273.000,-41.992,-45.898,-37.598,-28.320,0.000
2277.000,-44.922,-47.363,-38.574,-26.855,0.000
2281.000,-43.945,-45.898,-38.086,-34.668,0.000
2285.000,-44.922,-41.016,-36.133,-40.039,0.000
2289.000,-38.086,-41.992,-35.156,-30.273,0.000
2293.000,-44.922,-44.922,-35.645,-32.715,0.000
2297.000,-55.664,-47.852,-35.645,-42.969,0.000
2301.000,-52.246,-52.734,-36.133,-46.875,0.000
2305.000,-50.293,-54.688,-35.156,-45.898,0.000
2309.000,-54.688,-54.688,-34.668,-44.922,0.000
2312.000,-61.035,-52.246,-37.598,-53.223,0.000
2316.000,-54.688,-53.223,-39.062,-56.152,0.000
2320.000,-57.617,-52.734,-41.992,-53.223,0.000
2324.000,-48.828,-43.457,-41.016,-37.109,0.000
2328.000,-39.062,-53.223,-38.086,-22.949,0.000
2332.000,-36.133,-53.711,-34.180,-15.625,0.000
2336.000,-38.086,-42.480,-32.227,-19.043,0.000
2340.000,-48.828,-44.434,-34.668,-38.086,0.000
2344.000,-41.016,-39.062,-35.645,-37.598,0.000
2348.000,-23.926,-32.227,-30.762,-22.949,0.000
2351.000,-27.344,-37.109,-30.762,-19.531,0.000
2355.000,-33.691,-41.016,-31.738,-14.648,0.000
2359.000,-20.020,-34.668,-30.762,-3.418,0.000
2363.000,-16.602,-31.250,-31.738,-8.301,0.000
2367.000,-13.184,-31.250,-26.367,-10.254,0.000
2371.000,-0.488,-28.320,-24.414,6.348,0.000
2375.000,-5.859,-28.320,-27.832,8.789,0.000
2379.000,-19.043,-32.715,-28.320,-1.953,0.000
2383.000,-8.301,-26.855,-28.809,-7.812,0.000
2387.000,7.324,-22.461,-27.344,-2.441,0.000
2391.000,8.789,-20.020,-27.832,3.418,0.000
2394.000,3.906,-13.184,-26.855,-7.324,0.000
2398.000,1.465,-14.648,-25.879,-16.602,0.000
2402.000,5.371,-14.648,-21.973,-6.836,0.000
2406.000,2.441,-12.695,-22.949,-7.324,0.000
2410.000,-8.789,-18.066,-29.297,-18.555,0.000
2414.000,-14.160,-17.578,-30.762,-18.555,0.000
2418.000,-21.484,-13.184,-31.250,-28.809,0.000
2422.000,-20.996,-17.578,-32.227,-29.297,0.000
2426.000,-14.160,-19.043,-29.785,-18.066,0.000
2430.000,-23.438,-17.090,-33.203,-29.297,0.000
2433.000,-30.762,-14.648,-39.062,-41.016,0.000
2437.000,-40.527,-20.996,-39.551,-46.875,0.000
2441.000,-37.109,-26.367,-39.062,-42.480,0.000
2445.000,-32.227,-22.949,-39.062,-38.086,0.000
2449.000,-43.945,-22.461,-39.551,-60.547,0.000
2453.000,-42.480,-23.926,-39.062,-64.453,0.000
2457.000,-40.039,-25.391,-40.527,-37.598,0.000
2461.000,-44.434,-27.832,-38.086,-35.156,0.000
2465.000,-39.551,-27.832,-31.738,-46.875,0.000
2469.000,-42.969,-37.598,-31.738,-47.363,0.000
2473.000,-44.922,-44.922,-36.621,-43.457,0.000
2476.000,-45.898,-40.039,-36.621,-39.062,0.000
2480.000,-40.527,-35.156,-26.855,-35.156,0.000
2484.000,-25.391,-29.785,-22.461,-35.645,0.000
2488.000,-18.066,-26.367,-24.902,-22.949,0.000
2492.000,-26.855,-25.879,-23.438,-11.230,0.000
2496.000,-42.969,-29.785,-22.461,-20.996,0.000
2500.000,-36.621,-29.785,-22.949,-25.391,0.000
2504.000,-32.227,-31.250,-24.902,-20.508,0.000
2508.000,-27.832,-30.273,-29.785,-19.043,0.000
2512.000,-26.855,-24.902,-30.273,-22.949,0.000
2516.000,-40.527,-20.508,-24.414,-26.367,0.000
2519.000,-37.109,-18.555,-26.367,-23.926,0.000
2523.000,-27.344,-21.973,-28.809,-25.879,0.000
2527.000,-25.879,-22.461,-26.855,-26.855,0.000
2531.000,-24.902,-19.531,-30.273,-31.250,0.000
2535.000,-23.438,-23.926,-31.738,-31.738,0.000
2539.000,-18.555,-28.320,-28.809,-27.344,0.000
2543.000,-32.715,-32.227,-23.438,-26.855,0.000
2547.000,-48.828,-27.832,-14.160,-17.090,0.000
2551.000,-32.715,-24.902,-16.113,-15.625,0.000
2555.000,-14.648,-28.320,-19.043,-22.461,0.000
2559.000,-21.484,-30.273,-14.160,-19.531,0.000
2562.000,-27.344,-31.738,-17.090,-15.137,0.000
2566.000,-28.809,-33.203,-14.648,-20.996,0.000
2570.000,-47.363,-33.203,-9.766,-13.184,0.000
2574.000,-52.246,-37.109,-18.066,-5.371,0.000
2578.000,-43.457,-41.992,-24.414,4.395,0.000
2582.000,-35.645,-40.039,-24.902,0.977,0.000
2586.000,-40.039,-39.551,-26.855,-14.160,0.000
2590.000,-34.180,-36.133,-24.414,-6.348,0.000
2594.000,-30.762,-35.156,-30.273,-9.277,0.000
2598.000,-33.691,-39.551,-36.133,-21.484,0.000
2601.000,-17.090,-35.645,-35.645,-26.367,0.000
2605.000,-15.625,-30.273,-36.133,-23.438,0.000
2609.000,-20.508,-32.227,-28.809,-19.531,0.000
2613.000,-23.438,-33.691,-26.855,-27.344,0.000
2617.000,-26.855,-36.621,-35.156,-38.086,0.000
2621.000,-22.461,-39.551,-31.250,-27.832,0.000
2625.000,-20.508,-38.574,-20.996,-15.137,0.000
2629.000,-30.273,-46.387,-24.414,-23.438,0.000
2633.000,-33.691,-50.781,-30.762,-29.297,0.000
2637.000,-31.738,-48.828,-27.832,-23.926,0.000
2641.000,-31.738,-53.223,-24.902,-16.602,0.000
2644.000,-28.320,-54.688,-21.484,-24.902,0.000
2648.000,-26.855,-51.758,-21.484,-42.480,0.000
2652.000,-21.484,-50.293,-25.879,-39.062,0.000
2656.000,-20.020,-46.875,-25.879,-25.391,0.000
2660.000,-23.926,-46.387,-25.879,-23.926,0.000
2664.000,-21.484,-49.805,-25.879,-32.227,0.000
2668.000,-20.996,-49.316,-27.344,-31.250,0.000
2672.000,-15.625,-46.875,-31.250,-36.133,0.000
2676.000,-16.602,-43.457,-33.203,-32.227,0.000
2680.000,-33.203,-39.551,-32.227,-23.926,0.000
2683.000,-41.016,-40.039,-31.250,-26.367,0.000
2687.000,-29.297,-41.504,-29.785,-20.020,0.000
2691.000,-12.207,-37.598,-27.344,-12.695,0.000
2695.000,-20.996,-38.574,-21.973,-30.762,0.000
2699.000,-40.039,-40.527,-20.020,-49.316,0.000
2703.000,-47.852,-38.086,-21.973,-50.293,0.000
2707.000,-47.852,-39.551,-31.738,-46.387,0.000
2711.000,-48.340,-35.645,-33.203,-48.828,0.000
2715.000,-56.641,-33.203,-29.785,-65.918,0.000
2719.000,-61.523,-36.133,-25.879,-65.430,0.000
2723.000,-70.312,-38.086,-18.066,-63.477,0.000
2726.000,-71.777,-41.992,-19.043,-62.988,0.000
2730.000,-58.594,-41.016,-20.508,-57.129,0.000
2734.000,-62.988,-37.598,-16.113,-67.871,0.000
2738.000,-69.824,-39.062,-16.602,-68.359,0.000
2742.000,-73.730,-47.363,-23.438,-64.453,0.000
2746.000,-89.355,-50.293,-26.367,-76.172,0.000
2750.000,-84.961,-53.223,-21.973,-81.543,0.000
2754.000,-70.801,-68.359,-17.578,-72.754,0.000
2758.000,-62.012,-60.547,-17.578,-62.988,0.000
2762.000,-60.059,-45.410,-15.625,-56.152,0.000
2766.000,-87.402,-45.410,-13.184,-60.059,0.000
2769.000,-91.309,-49.316,-18.555,-58.594,0.000
2773.000,-84.961,-57.129,-25.879,-60.059,0.000
2777.000,-99.121,-61.035,-25.391,-72.754,0.000
2781.000,-92.285,-55.664,-28.320,-59.082,0.000
2785.000,-79.102,-56.152,-36.133,-54.199,0.000
2789.000,-73.242,-59.570,-41.016,-56.152,0.000
2793.000,-65.430,-56.152,-41.992,-43.457,0.000
2797.000,-62.012,-47.852,-39.551,-45.898,0.000
2801.000,-47.363,-41.992,-33.691,-46.875,0.000
2805.000,-29.785,-38.086,-32.227,-39.062,0.000
2808.000,-22.949,-36.621,-28.320,-27.344,0.000
2812.000,-30.273,-42.480,-27.832,-24.902,0.000
2816.000,-34.180,-43.945,-31.250,-28.809,0.000
2820.000,-27.344,-41.504,-31.250,-29.297,0.000
2824.000,-27.344,-39.551,-35.645,-29.297,0.000
2828.000,-20.996,-37.109,-28.809,-21.973,0.000
2832.000,-4.883,-38.574,-24.902,-11.230,0.000
2836.000,-7.812,-41.992,-29.297,-12.695,0.000
2840.000,-36.621,-45.410,-21.484,-16.113,0.000
2844.000,-44.434,-38.086,-20.020,-12.695,0.000
2848.000,-35.156,-32.227,-19.531,-13.672,0.000
2851.000,-15.137,-30.762,-14.160,-2.930,0.000
2855.000,-17.090,-29.297,-16.113,8.301,0.000
2859.000,-38.574,-32.715,-20.996,3.906,0.000
2863.000,-29.785,-41.504,-20.020,11.230,0.000
2867.000,-29.297,-39.062,-17.578,7.324,0.000
2871.000,-31.250,-35.156,-19.043,-6.836,0.000
2875.000,-20.996,-35.156,-11.719,-2.441,0.000
2879.000,-30.273,-31.738,-20.508,-18.066,0.000
2883.000,-32.715,-33.691,-27.344,-39.551,0.000
2887.000,-21.484,-40.527,-20.020,-40.527,0.000
2891.000,-24.414,-42.969,-26.855,-32.715,0.000
2894.000,-31.738,-45.898,-28.320,-30.273,0.000
2898.000,-32.227,-47.363,-30.762,-32.227,0.000
2902.000,-23.438,-42.480,-29.297,-23.926,0.000
2906.000,-6.348,-35.645,-21.973,-21.973,0.000
2910.000,-4.883,-40.527,-24.902,-32.227,0.000
2914.000,-25.879,-44.922,-32.227,-41.016,0.000
2918.000,-29.785,-44.434,-28.809,-42.480,0.000
2922.000,-27.832,-44.434,-32.227,-38.574,0.000
2926.000,-31.250,-38.086,-30.762,-34.668,0.000
2930.000,-30.273,-38.574,-21.973,-29.785,0.000
2933.000,-21.484,-28.320,-20.996,-29.785,0.000
2937.000,-29.785,-27.344,-24.902,-22.461,0.000
2941.000,-33.691,-34.180,-26.367,-19.043,0.000
2945.000,-32.715,-31.250,-25.391,-36.621,0.000
2949.000,-46.875,-37.598,-28.809,-44.922,0.000
2953.000,-54.199,-43.945,-34.668,-45.898,0.000
2957.000,-55.176,-49.316,-41.504,-42.969,0.000
2961.000,-52.734,-53.711,-45.898,-37.109,0.000
2965.000,-41.016,-45.898,-42.480,-36.621,0.000
2969.000,-33.691,-38.086,-34.180,-30.273,0.000
2973.000,-33.203,-44.434,-30.762,-26.855,0.000
2976.000,-25.391,-42.969,-31.250,-24.902,0.000
2980.000,-27.344,-39.551,-25.879,-31.250,0.000
2984.000,-22.949,-42.480,-22.461,-41.016,0.000
2988.000,-9.766,-41.504,-23.438,-42.969,0.000
2992.000,-26.855,-43.457,-27.344,-38.086,0.000
2996.000,-39.551,-43.457,-27.832,-44.922,0.000
3000.000,-45.410,-41.016,-24.414,-62.012,0.000
3004.000,-49.805,-41.016,-23.926,-55.176,0.000
3008.000,-41.016,-39.062,-20.508,-42.480,0.000
3012.000,-42.480,-35.645,-19.043,-39.551,0.000
3016.000,-41.992,-31.250,-21.973,-39.551,0.000
3019.000,-35.156,-30.273,-22.461,-37.598,0.000
3023.000,-30.273,-31.738,-20.996,-33.691,0.000
3027.000,-26.855,-33.203,-20.020,-34.668,0.000
3031.000,-38.574,-33.203,-17.090,-38.086,0.000
3035.000,-58.594,-33.203,-18.555,-41.016,0.000
3039.000,-54.688,-28.320,-22.461,-40.039,0.000
3043.000,-47.363,-28.809,-23.438,-40.039,0.000
3047.000,-44.434,-28.320,-23.926,-49.316,0.000
3051.000,-36.133,-24.414,-20.996,-56.152,0.000
3055.000,-30.762,-22.949,-21.484,-53.711,0.000
3058.000,-26.855,-20.508,-18.555,-47.363,0.000
3062.000,-30.273,-17.578,-15.137,-39.551,0.000
3066.000,-31.250,-23.438,-15.137,-41.504,0.000
3070.000,-44.922,-24.902,-13.184,-49.805,0.000
3074.000,-57.617,-22.949,-16.602,-52.734,0.000
3078.000,-55.664,-28.809,-21.484,-59.082,0.000
3082.000,-66.895,-28.809,-21.484,-70.801,0.000
3086.000,-79.102,-28.809,-17.578,-75.195,0.000
3090.000,-77.148,-27.832,-12.207,-62.500,0.000
3094.000,-70.801,-25.879,-7.324,-53.711,0.000
3098.000,-73.242,-20.996,-11.230,-62.012,0.000
3101.000,-69.824,-23.926,-13.184,-74.707,0.000
3105.000,-62.012,-30.762,-12.695,-77.637,0.000
3109.000,-77.148,-32.227,-16.602,-86.914,0.000
3113.000,-97.168,-34.668,-18.066,-86.426,0.000
3117.000,-105.957,-37.109,-20.020,-75.195,0.000
3121.000,-104.980,-36.621,-20.996,-77.148,0.000
3125.000,-102.051,-39.551,-24.414,-79.590,0.000
3129.000,-95.703,-39.062,-18.555,-78.125,0.000
3133.000,-90.332,-36.133,-15.625,-76.172,0.000
3137.000,-83.496,-38.574,-19.531,-83.496,0.000
3141.000,-83.496,-45.898,-22.461,-84.961,0.000
3144.000,-84.961,-47.363,-24.902,-82.031,0.000
3148.000,-68.848,-39.062,-23.926,-90.820,0.000
3152.000,-66.895,-37.598,-20.508,-77.148,0.000
3156.000,-61.523,-35.156,-15.625,-49.316,0.000
3160.000,-57.129,-38.574,-15.625,-41.016,0.000
3164.000,-66.406,-45.410,-13.184,-41.992,0.000
3168.000,-67.871,-49.316,-17.090,-49.316,0.000
3172.000,-52.246,-45.898,-19.043,-43.945,0.000
3176.000,-32.715,-37.109,-12.207,-33.691,0.000
3180.000,-26.855,-35.156,-11.719,-35.645,0.000
3183.000,-28.809,-32.715,-11.230,-36.133,0.000
3187.000,-28.809,-34.180,-14.648,-31.738,0.000
3191.000,-15.625,-34.668,-16.602,-15.137,0.000
3195.000,-22.461,-30.762,-11.230,-20.020,0.000
3199.000,-40.039,-32.227,-8.789,-35.645,0.000
3203.000,-31.250,-30.762,-11.230,-21.973,0.000
3207.000,-21.484,-24.414,-12.695,-4.395,0.000
3211.000,-33.691,-28.809,-17.090,-20.020,0.000
3215.000,-39.062,-33.691,-20.508,-26.855,0.000
3219.000,-28.809,-35.645,-15.625,-9.766,0.000
3223.000,-15.137,-34.180,-12.695,-3.418,0.000
3226.000,-15.625,-31.738,-16.113,-11.230,0.000
3230.000,-15.137,-28.320,-14.648,-17.090,0.000
3234.000,-7.324,-28.320,-15.137,-20.996,0.000
3238.000,-17.090,-34.180,-23.926,-20.996,0.000
3242.000,-13.184,-31.738,-25.391,-7.812,0.000
3246.000,-2.930,-25.879,-21.973,-3.418,0.000
3250.000,-11.230,-31.250,-26.367,-9.277,0.000
3254.000,-3.906,-30.273,-25.391,-3.906,0.000
3258.000,2.930,-24.902,-21.973,-2.930,0.000
3262.000,-3.418,-28.320,-26.367,-10.742,0.000
3266.000,-2.441,-28.809,-25.391,-10.254,0.000
3269.000,-3.418,-29.297,-20.020,0.000,0.000
3273.000,-5.859,-29.297,-20.996,0.977,0.000
3277.000,-0.977,-33.203,-24.414,-0.977,0.000
3281.000,4.395,-34.180,-27.344,-12.207,0.000
3285.000,-2.441,-33.691,-27.344,-15.625,0.000
3289.000,-7.324,-33.203,-23.438,-2.930,0.000
3293.000,-17.090,-33.691,-27.344,-1.953,0.000
3297.000,-27.344,-33.691,-30.762,-10.254,0.000
3301.000,-21.484,-32.227,-25.391,-10.254,0.000
3305.000,-3.418,-26.855,-21.484,-3.906,0.000
3308.000,6.348,-26.367,-18.066,0.977,0.000
3312.000,-5.859,-27.832,-16.602,1.465,0.000
3316.000,-12.207,-29.785,-16.113,-5.371,0.000
3320.000,-6.348,-31.738,-17.090,-4.883,0.000
3324.000,0.977,-28.320,-23.926,-0.977,0.000
3328.000,4.883,-28.809,-23.438,-9.277,0.000
3332.000,7.324,-27.832,-23.438,-16.602,0.000
3336.000,-9.277,-27.344,-24.414,-10.254,0.000
3340.000,-27.832,-31.738,-22.949,-6.836,0.000
3344.000,-27.344,-28.809,-19.531,-12.207,0.000
3348.000,-26.855,-34.668,-18.066,-17.578,0.000
3351.000,-22.461,-43.457,-20.508,-23.438,0.000
3355.000,-9.277,-39.551,-22.461,-23.926,0.000
3359.000,-8.301,-36.133,-26.855,-21.484,0.000
3363.000,-34.180,-36.133,-25.879,-31.738,0.000
3367.000,-40.527,-34.180,-26.367,-40.527,0.000
3371.000,-30.273,-32.715,-30.762,-33.691,0.000
3375.000,-38.086,-34.668,-33.691,-28.809,0.000
3379.000,-37.109,-37.598,-29.785,-36.133,0.000
3383.000,-20.996,-39.551,-29.297,-32.227,0.000
3387.000,-10.742,-39.551,-31.250,-20.996,0.000
3391.000,-26.855,-42.969,-28.809,-23.926,0.000
3394.000,-31.738,-41.504,-28.320,-33.691,0.000
3398.000,-28.809,-36.621,-31.738,-33.691,0.000
3402.000,-28.809,-39.062,-32.715,-27.344,0.000
3406.000,-22.461,-40.527,-31.738,-23.926,0.000
3410.000,-29.297,-42.480,-34.180,-27.344,0.000
3414.000,-26.367,-39.062,-30.273,-29.785,0.000
3418.000,-17.578,-33.691,-28.320,-21.973,0.000
3422.000,-30.273,-41.016,-29.785,-16.602,0.000
3426.000,-35.156,-41.504,-29.297,-17.090,0.000
3430.000,-28.809,-38.574,-31.738,-18.555,0.000
3433.000,-17.578,-38.574,-29.297,-22.461,0.000
3437.000,-10.742,-36.621,-22.949,-15.137,0.000
3441.000,-11.719,-41.504,-23.438,-5.371,0.000
3445.000,-14.160,-48.340,-26.855,-18.066,0.000
3449.000,-16.602,-47.852,-26.855,-24.902,0.000
3453.000,-14.648,-47.852,-29.785,-14.648,0.000
3457.000,-2.930,-42.969,-27.832,-8.301,0.000
3461.000,-0.488,-38.086,-19.043,-7.324,0.000
3465.000,-2.930,-33.203,-17.578,-0.488,0.000
3469.000,0.000,-30.762,-20.508,0.488,0.000
3473.000,-7.324,-37.109,-23.438,-0.977,0.000
3476.000,-16.602,-40.527,-27.344,-3.418,0.000
3480.000,-20.996,-40.527,-37.109,-13.184,0.000
3484.000,-18.555,-40.527,-39.062,-17.578,0.000
3488.000,-9.766,-42.480,-37.109,-17.090,0.000
3492.000,-15.137,-43.457,-42.480,-16.602,0.000
3496.000,-17.578,-44.922,-39.062,-11.719,0.000
3500.000,-20.020,-52.246,-36.621,-19.531,0.000
3504.000,-10.254,-52.246,-34.180,-13.672,0.000
3508.000,18.555,-43.457,-25.879,17.090,0.000
3512.000,12.695,-43.945,-23.926,7.812,0.000
3516.000,-24.902,-50.293,-29.297,-39.551,0.000
3519.000,-41.992,-57.617,-26.367,-43.457,0.000
3523.000,-26.855,-59.570,-17.090,-19.043,0.000
3527.000,-28.320,-60.547,-21.484,-20.996,0.000
3531.000,-44.922,-75.195,-38.086,-42.480,0.000
3535.000,-39.551,-67.871,-32.715,-41.992,0.000
3539.000,-32.227,-66.406,-19.043,-38.574,0.000
3543.000,-51.270,-80.566,-23.438,-57.617,0.000
3547.000,-68.359,-73.730,-32.227,-70.312,0.000
3551.000,-54.688,-57.129,-29.785,-65.430,0.000
3555.000,-46.387,-67.871,-26.367,-56.152,0.000
3558.000,-64.453,-67.871,-24.414,-51.270,0.000
3562.000,-63.477,-61.035,-29.785,-57.617,0.000
3566.000,-64.941,-66.895,-37.598,-73.242,0.000
3570.000,-71.777,-51.758,-30.762,-77.148,0.000
3574.000,-69.336,-50.781,-18.066,-60.059,0.000
3578.000,-66.406,-52.734,-14.648,-52.246,0.000
3582.000,-65.430,-39.062,-17.090,-51.270,0.000
3586.000,-52.734,-40.527,-25.391,-40.527,0.000
3590.000,-46.875,-49.316,-11.719,-31.738,0.000
3594.000,-43.945,-44.434,-6.836,-23.438,0.000
3598.000,-41.016,-37.109,-14.160,-24.902,0.000
3601.000,-44.434,-45.898,-17.090,-30.762,0.000
3605.000,-43.457,-45.898,-27.344,-32.715,0.000
3609.000,-32.227,-34.180,-31.250,-31.250,0.000
3613.000,-26.855,-32.715,-32.715,-28.809,0.000
3617.000,-26.855,-29.297,-31.738,-31.250,0.000
3621.000,-29.785,-28.809,-24.902,-17.578,0.000
3625.000,-25.391,-29.297,-28.320,-9.766,0.000
3629.000,-17.090,-26.855,-32.227,-16.602,0.000
3633.000,-12.207,-29.297,-32.227,-26.855,0.000
3637.000,-9.766,-20.508,-32.715,-20.996,0.000
3640.000,-8.789,-13.184,-31.250,-9.766,0.000
3644.000,-16.113,-15.625,-31.250,-20.020,0.000
3648.000,-27.344,-14.648,-34.180,-29.785,0.000
3652.000,-25.391,-13.672,-33.203,-21.484,0.000
3656.000,-14.160,-15.137,-30.273,-17.578,0.000
3660.000,-5.371,-11.719,-23.926,-16.113,0.000
3664.000,-5.859,-5.859,-22.949,-18.555,0.000
3668.000,-10.254,-7.812,-26.855,-19.043,0.000
3672.000,-21.484,-9.766,-26.367,-10.742,0.000
3676.000,-23.438,-12.207,-25.391,-8.301,0.000
3680.000,-20.508,-15.137,-21.484,-10.742,0.000
3683.000,-23.926,-13.672,-20.508,-17.578,0.000
3687.000,-24.902,-14.160,-22.949,-19.531,0.000
3691.000,-20.020,-18.066,-26.367,-14.160,0.000
3695.000,-12.695,-18.066,-22.949,-11.230,0.000
3699.000,-17.578,-16.113,-17.090,-17.090,0.000
3703.000,-22.949,-18.066,-18.555,-12.207,0.000
3707.000,-25.879,-15.625,-20.508,-8.789,0.000
3711.000,-18.066,-7.812,-15.625,-12.207,0.000
3715.000,-19.043,-10.254,-11.719,-11.230,0.000
3719.000,-34.180,-11.230,-9.766,-10.254,0.000
3723.000,-47.363,-8.301,-13.672,-8.301,0.000
3726.000,-49.805,-11.230,-17.090,-10.254,0.000
3730.000,-37.109,-10.254,-15.137,-16.602,0.000
3734.000,-22.461,-10.742,-16.113,-19.043,0.000
3738.000,-22.461,-19.043,-23.438,-19.043,0.000
3742.000,-34.668,-24.902,-28.320,-17.578,0.000
3746.000,-38.086,-21.973,-22.461,-17.578,0.000
3750.000,-41.016,-18.066,-20.508,-24.414,0.000
3754.000,-35.156,-22.949,-22.949,-27.832,0.000
3758.000,-23.926,-23.438,-23.926,-17.090,0.000
3762.000,-16.113,-17.578,-23.438,-5.859,0.000
3765.000,0.000,-15.625,-14.160,-1.953,0.000
3769.000,-5.859,-20.508,-12.695,-16.113,0.000
3773.000,-30.762,-25.879,-16.113,-31.738,0.000
3777.000,-29.785,-24.414,-15.625,-27.344,0.000
3781.000,-22.461,-25.879,-21.973,-21.973,0.000
3785.000,-39.062,-25.879,-20.508,-20.508,0.000
3789.000,-43.457,-27.344,-11.719,-12.695,0.000
3793.000,-27.832,-31.250,-13.672,-6.348,0.000
3797.000,-27.832,-32.715,-16.602,0.000,0.000
3801.000,-31.738,-35.645,-19.043,-6.836,0.000
3805.000,-25.391,-37.598,-27.344,-15.625,0.000
3808.000,-20.020,-32.227,-26.855,-16.602,0.000
3812.000,-20.020,-23.438,-21.973,-18.066,0.000
3816.000,-18.066,-28.320,-17.578,-20.020,0.000
3820.000,-19.043,-37.109,-14.648,-18.066,0.000
3824.000,-23.438,-34.180,-13.184,-8.789,0.000
3828.000,-24.902,-27.832,-13.184,-5.371,0.000
3832.000,-24.902,-22.949,-10.742,-9.277,0.000
3836.000,-31.738,-17.090,-8.301,-14.160,0.000
3840.000,-26.855,-21.484,-5.859,-12.695,0.000
3844.000,-21.973,-28.320,-5.371,-12.695,0.000
3848.000,-30.273,-26.855,-8.789,-19.531,0.000
3851.000,-28.809,-26.367,-10.742,-24.414,0.000
3855.000,-10.742,-21.973,-8.301,-21.973,0.000
3859.000,-0.977,-17.090,-1.465,-16.113,0.000
3863.000,-10.254,-12.207,-5.859,-15.625,0.000
3867.000,-12.207,-6.836,-4.883,-10.742,0.000
3871.000,-14.160,-6.836,-3.906,-10.742,0.000
3875.000,-19.531,-8.789,-6.348,-14.160,0.000
3879.000,-21.484,-9.766,-4.883,-12.695,0.000
3883.000,-24.902,-9.277,-1.465,-8.789,0.000
3887.000,-22.461,-8.301,-0.977,-9.277,0.000
3890.000,-16.602,-11.230,-4.395,-11.719,0.000
3894.000,-16.602,-15.137,-7.812,-11.719,0.000
3898.000,-17.578,-17.090,-12.207,-19.531,0.000
3902.000,-2.930,-14.160,-12.207,-23.438,0.000
3906.000,7.812,-8.789,-7.812,-7.324,0.000
3910.000,-9.277,-4.395,-6.836,-2.441,0.000
3914.000,-24.902,-6.348,-14.160,-16.602,0.000
3918.000,-19.531,-6.836,-14.648,-25.391,0.000
3922.000,-7.812,-2.441,-11.719,-13.184,0.000
3926.000,-0.977,0.977,-14.160,-2.441,0.000
3930.000,-5.859,-5.859,-18.066,-20.020,0.000
3933.000,-18.066,-14.160,-23.438,-36.133,0.000
3937.000,-15.137,-11.719,-18.066,-27.832,0.000
3941.000,-15.625,-6.348,-15.625,-24.902,0.000
3945.000,-22.461,-7.324,-20.508,-26.367,0.000
3949.000,-21.973,-9.277,-16.602,-20.020,0.000
3953.000,-22.461,-16.602,-17.578,-21.484,0.000
3957.000,-23.926,-20.020,-22.461,-20.996,0.000
3961.000,-21.484,-17.578,-19.043,-25.391,0.000
3965.000,-25.391,-24.902,-20.508,-39.062,0.000
3969.000,-31.738,-35.156,-22.949,-33.691,0.000
3973.000,-34.180,-28.320,-19.531,-18.066,0.000
3976.000,-43.457,-22.461,-19.531,-20.996,0.000
3980.000,-40.527,-27.832,-20.996,-36.133,0.000
3984.000,-35.645,-29.297,-19.531,-39.551,0.000
3988.000,-36.133,-28.809,-24.414,-39.062,0.000
3992.000,-49.316,-34.668,-27.832,-37.598,0.000
3996.000,-45.898,-34.180,-28.809,-34.180,0.000
4000.000,-30.273,-29.785,-26.367,-39.551,0.000
4004.000,-38.086,-33.203,-28.320,-41.504,0.000
4008.000,-41.016,-40.039,-33.691,-26.855,0.000
4012.000,-33.203,-35.156,-26.855,-17.090,0.000
4015.000,-36.133,-30.762,-16.602,-15.625,0.000
4019.000,-41.504,-35.156,-18.066,-16.602,0.000
4023.000,-47.852,-39.062,-21.484,-23.926,0.000
4027.000,-46.387,-44.922,-23.926,-26.367,0.000
4031.000,-44.434,-42.480,-27.344,-29.297,0.000
4035.000,-48.828,-43.945,-27.344,-38.086,0.000
4039.000,-41.992,-43.945,-29.785,-27.832,0.000
4043.000,-44.434,-41.992,-34.180,-22.949,0.000
4047.000,-47.363,-44.434,-37.598,-41.016,0.000
4051.000,-47.363,-41.992,-36.133,-53.223,0.000
4055.000,-41.504,-43.945,-35.156,-53.711,0.000
4058.000,-29.297,-42.969,-35.156,-46.387,0.000
4062.000,-28.809,-35.645,-32.715,-45.410,0.000
4066.000,-22.461,-35.645,-33.203,-48.340,0.000
4070.000,-30.762,-43.457,-38.086,-48.340,0.000
4074.000,-42.480,-50.293,-43.457,-40.039,0.000
4078.000,-44.922,-51.758,-46.875,-45.410,0.000
4082.000,-47.363,-44.922,-48.340,-52.246,0.000
4086.000,-44.922,-37.109,-45.898,-47.363,0.000
4090.000,-43.945,-35.156,-41.992,-34.668,0.000
4094.000,-51.758,-38.574,-38.086,-26.855,0.000
4098.000,-53.711,-41.504,-37.598,-30.273,0.000
4101.000,-57.129,-41.504,-37.109,-43.457,0.000
4105.000,-54.688,-40.527,-39.551,-31.738,0.000
4109.000,-36.621,-42.969,-41.016,-2.930,0.000
4113.000,-45.898,-51.758,-39.062,-25.391,0.000
4117.000,-68.359,-53.711,-35.645,-57.129,0.000
4121.000,-60.547,-48.828,-34.180,-55.664,0.000
4125.000,-51.270,-46.387,-31.738,-47.363,0.000
4129.000,-59.082,-49.805,-29.785,-57.129,0.000
4133.000,-57.129,-49.805,-31.250,-65.430,0.000
4137.000,-53.223,-48.828,-30.273,-58.105,0.000
4140.000,-45.410,-48.828,-30.762,-50.293,0.000
4144.000,-46.387,-52.734,-31.250,-43.457,0.000
4148.000,-49.805,-52.246,-24.902,-40.527,0.000
4152.000,-37.109,-47.363,-20.020,-40.039,0.000
4156.000,-37.109,-41.992,-18.555,-30.762,0.000
4160.000,-38.574,-39.062,-18.066,-29.297,0.000
4164.000,-33.691,-36.621,-12.207,-29.785,0.000
4168.000,-26.855,-28.320,-9.766,-27.344,0.000
4172.000,-22.949,-24.414,-14.160,-30.273,0.000
4176.000,-22.461,-24.414,-10.742,-19.043,0.000
4180.000,-17.090,-22.461,-7.812,-17.578,0.000
4183.000,-12.695,-27.832,-13.672,-24.414,0.000
4187.000,-9.766,-31.250,-22.949,-20.508,0.000
4191.000,-5.859,-30.762,-21.484,-19.043,0.000
4195.000,-22.461,-27.344,-12.695,-14.160,0.000
4199.000,-25.879,-23.926,-15.625,-2.930,0.000
4203.000,-20.020,-25.879,-22.461,-3.906,0.000
4207.000,-10.742,-28.809,-21.973,-6.836,0.000
4211.000,-3.906,-26.367,-17.578,-4.395,0.000
4215.000,-5.859,-22.949,-15.625,-6.836,0.000
4219.000,-13.672,-21.484,-20.996,-11.230,0.000
4223.000,-20.996,-20.508,-24.902,-4.883,0.000
4226.000,-2.930,-18.555,-24.414,8.789,0.000
4230.000,8.789,-19.531,-28.320,14.648,0.000
4234.000,-2.930,-26.367,-35.645,1.953,0.000
4238.000,-22.949,-34.668,-39.062,-15.625,0.000
4242.000,-24.414,-37.109,-34.180,-13.672,0.000
4246.000,-19.531,-42.969,-29.785,-22.949,0.000
4250.000,-36.133,-43.945,-30.762,-42.969,0.000
4254.000,-41.992,-43.457,-30.762,-41.504,0.000
4258.000,-48.828,-51.758,-36.133,-43.945,0.000
4262.000,-65.430,-49.316,-25.391,-48.340,0.000
4265.000,-68.848,-49.316,-14.648,-52.734,0.000
4269.000,-85.938,-78.613,-17.578,-74.707,0.000
4273.000,-86.914,-90.332,-27.344,-62.500,0.000
4277.000,-66.895,-58.594,-47.852,-52.734,0.000
4281.000,-70.801,-46.875,-49.805,-78.613,0.000
4285.000,-74.219,-40.527,-24.414,-78.125,0.000
4289.000,-59.570,-33.691,-13.184,-61.523,0.000
4293.000,-55.664,-41.992,-18.066,-64.941,0.000
4297.000,-64.453,-38.574,-20.508,-63.965,0.000
4301.000,-60.547,-22.949,-18.555,-56.641,0.000
4305.000,-57.617,-27.344,-14.160,-57.617,0.000
4308.000,-58.105,-34.180,-25.879,-55.176,0.000
4312.000,-54.199,-25.879,-36.133,-52.246,0.000
4316.000,-51.758,-25.391,-34.668,-61.523,0.000
4320.000,-45.898,-26.367,-28.320,-60.547,0.000
4324.000,-43.945,-22.949,-25.879,-47.852,0.000
4328.000,-50.781,-25.879,-21.973,-39.062,0.000
4332.000,-59.570,-23.926,-14.160,-42.480,0.000
4336.000,-55.664,-20.508,-14.648,-45.898,0.000
4340.000,-54.688,-12.207,-15.137,-34.180,0.000
4344.000,-51.270,-5.859,-14.160,-33.203,0.000
4347.000,-46.875,-7.812,-19.531,-45.410,0.000
4351.000,-39.551,-7.812,-18.066,-35.156,0.000
4355.000,-32.227,-4.883,-15.625,-21.973,0.000
4359.000,-36.133,-2.930,-17.578,-22.949,0.000
4363.000,-28.809,-3.418,-21.484,-19.043,0.000
4367.000,-23.926,-2.441,-28.320,-22.949,0.000
4371.000,-20.020,-0.488,-27.832,-26.855,0.000
4375.000,-17.578,-4.395,-27.344,-20.020,0.000
4379.000,-18.066,-7.324,-28.320,-19.531,0.000
4383.000,-30.273,-6.836,-26.855,-33.203,0.000
4387.000,-35.156,-17.578,-31.250,-37.598,0.000
4390.000,-25.391,-12.695,-30.762,-24.414,0.000
4394.000,-26.367,-5.859,-28.320,-22.461,0.000
4398.000,-36.133,-17.090,-32.227,-40.039,0.000
4402.000,-31.250,-20.508,-37.598,-41.992,0.000
4406.000,-22.949,-13.672,-39.062,-27.832,0.000
4410.000,-35.156,-14.160,-35.645,-20.020,0.000
4414.000,-50.293,-16.602,-31.738,-27.832,0.000
4418.000,-45.410,-21.484,-28.809,-26.367,0.000
4422.000,-46.387,-31.250,-29.297,-12.695,0.000
4426.000,-49.805,-32.227,-30.762,-18.066,0.000
4430.000,-55.664,-31.738,-29.297,-32.715,0.000
4433.000,-49.316,-28.809,-25.879,-33.691,0.000
4437.000,-37.109,-23.438,-25.879,-35.645,0.000
4441.000,-35.156,-26.367,-28.320,-43.457,0.000
4445.000,-32.227,-26.855,-30.762,-50.781,0.000
4449.000,-34.668,-22.949,-28.320,-47.852,0.000
4453.000,-37.109,-24.902,-30.762,-39.062,0.000
4457.000,-29.785,-29.297,-32.715,-35.645,0.000
4461.000,-26.855,-33.691,-31.250,-41.016,0.000
4465.000,-22.949,-31.250,-29.785,-48.828,0.000
4469.000,-21.484,-25.879,-30.762,-44.922,0.000
4472.000,-20.996,-23.438,-31.250,-38.574,0.000
4476.000,-18.555,-19.531,-26.855,-39.062,0.000
4480.000,-24.414,-16.602,-21.484,-35.156,0.000
4484.000,-25.879,-16.113,-20.020,-20.996,0.000
4488.000,-27.832,-15.625,-26.367,-23.926,0.000
4492.000,-34.668,-10.254,-24.414,-24.414,0.000
4496.000,-44.922,-10.254,-19.043,-20.508,0.000
4500.000,-44.922,-14.160,-20.996,-29.785,0.000
4504.000,-32.227,-13.672,-24.414,-33.203,0.000
4508.000,-30.273,-16.113,-22.461,-21.973,0.000
4512.000,-35.645,-23.926,-20.996,-25.391,0.000
4515.000,-41.016,-19.531,-25.391,-35.156,0.000
4519.000,-41.992,-17.578,-23.926,-36.133,0.000
4523.000,-43.457,-23.926,-20.020,-33.203,0.000
4527.000,-48.340,-21.973,-21.484,-34.668,0.000
4531.000,-44.922,-17.090,-21.484,-40.039,0.000
4535.000,-44.434,-20.508,-25.879,-50.781,0.000
4539.000,-43.457,-23.438,-29.785,-52.734,0.000
4543.000,-38.086,-19.531,-23.926,-51.758,0.000
4547.000,-35.645,-16.602,-20.996,-58.594,0.000
4551.000,-35.156,-18.066,-17.578,-57.617,0.000
4555.000,-37.598,-17.090,-20.020,-47.852,0.000
4558.000,-31.738,-11.719,-23.926,-38.086,0.000
4562.000,-32.227,-11.719,-21.973,-40.527,0.000
4566.000,-47.852,-15.625,-20.508,-52.734,0.000
4570.000,-61.035,-20.996,-20.996,-48.340,0.000
4574.000,-58.594,-24.414,-20.996,-34.180,0.000
4578.000,-57.129,-26.367,-27.344,-46.387,0.000
4582.000,-53.223,-22.949,-30.273,-55.176,0.000
4586.000,-43.457,-22.949,-29.785,-53.223,0.000
4590.000,-41.992,-22.461,-27.344,-51.758,0.000
4594.000,-29.785,-18.066,-22.461,-47.363,0.000
4597.000,-21.484,-13.184,-18.066,-39.551,0.000
4601.000,-25.879,-15.625,-17.578,-44.922,0.000
4605.000,-31.738,-20.996,-23.438,-39.062,0.000
4609.000,-39.551,-16.602,-26.855,-19.531,0.000
4613.000,-39.551,-17.578,-24.902,-23.438,0.000
4617.000,-28.320,-20.020,-20.020,-16.602,0.000
4621.000,-15.625,-21.484,-16.602,1.465,0.000
4625.000,-17.090,-21.484,-17.578,-13.672,0.000
4629.000,-17.578,-19.531,-18.066,-28.809,0.000
4633.000,-22.461,-19.043,-16.113,-24.414,0.000
4637.000,-9.277,-11.230,-12.207,-12.695,0.000
4640.000,6.836,-8.789,-6.348,2.930,0.000
4644.000,-16.113,-17.578,-4.883,0.977,0.000
4648.000,-28.320,-12.695,-2.930,-6.348,0.000
4652.000,-14.160,-11.230,0.000,-4.883,0.000
4656.000,-11.719,-8.301,1.953,2.441,0.000
4660.000,-26.855,-12.695,-1.953,-2.930,0.000
4664.000,-34.668,-19.043,-6.836,-21.484,0.000
4668.000,-24.902,-16.602,-2.441,-23.926,0.000
4672.000,-14.160,-15.137,5.371,-17.090,0.000
4676.000,-14.160,-6.836,3.906,-7.812,0.000
4680.000,-23.438,-8.301,-1.953,-7.812,0.000
4683.000,-29.785,-16.113,-9.766,-30.273,0.000
4687.000,-29.297,-16.113,-8.789,-30.762,0.000
4691.000,-27.344,-13.184,-1.953,-14.160,0.000
4695.000,-25.879,-14.160,-3.906,-18.555,0.000
4699.000,-35.156,-12.207,-4.395,-18.066,0.000
4703.000,-37.109,-8.789,-2.930,-15.625,0.000
4707.000,-25.391,-11.719,-4.395,-17.090,0.000
4711.000,-23.438,-14.160,-4.395,-16.602,0.000
4715.000,-20.020,-16.113,-10.254,-23.926,0.000
4719.000,-21.973,-19.043,-14.160,-25.391,0.000
4722.000,-23.438,-18.555,-11.230,-17.578,0.000
4726.000,-22.461,-17.090,-10.742,-18.066,0.000
4730.000,-35.156,-20.020,-16.113,-33.691,0.000
4734.000,-47.852,-21.973,-19.531,-45.898,0.000
4738.000,-43.457,-18.555,-20.508,-32.715,0.000
4742.000,-37.598,-17.578,-22.949,-22.949,0.000
4746.000,-32.715,-19.043,-22.461,-33.203,0.000
4750.000,-36.621,-19.531,-20.020,-40.039,0.000
4754.000,-32.227,-20.508,-19.043,-40.527,0.000
4758.000,-18.555,-22.461,-15.625,-32.715,0.000
4762.000,-15.137,-22.949,-8.301,-23.438,0.000
4765.000,-21.973,-23.438,-10.254,-29.785,0.000
4769.000,-35.645,-29.785,-13.672,-31.250,0.000
4773.000,-39.551,-32.715,-14.160,-17.090,0.000
4777.000,-33.691,-28.320,-13.672,-13.184,0.000
4781.000,-24.414,-24.414,-12.695,-22.949,0.000
4785.000,-23.438,-22.949,-8.789,-22.461,0.000
4789.000,-18.066,-19.043,-5.371,-16.602,0.000
4793.000,-8.789,-13.672,-13.184,-10.742,0.000
4797.000,-8.301,-14.160,-10.742,-14.648,0.000
4801.000,-7.812,-26.367,-5.859,-19.043,0.000
4805.000,-12.695,-34.668,-13.184,-17.090,0.000
4808.000,-14.160,-29.785,-11.719,-8.789,0.000
4812.000,-20.508,-30.273,-12.695,-4.883,0.000
4816.000,-22.949,-32.227,-14.648,-20.020,0.000
4820.000,-15.625,-32.227,-11.719,-24.902,0.000
4824.000,-16.113,-27.832,-10.742,-20.996,0.000
4828.000,-24.414,-18.066,-4.883,-6.836,0.000
4832.000,-22.461,-22.461,-4.395,-5.371,0.000
4836.000,-16.113,-22.461,-9.277,-14.648,0.000
4840.000,-4.395,-23.438,-4.395,-1.465,0.000
4844.000,-2.441,-29.785,-9.277,-5.859,0.000
4847.000,-19.531,-20.508,-12.695,-18.066,0.000
4851.000,-21.484,-20.020,-13.672,-19.531,0.000
4855.000,-16.602,-19.043,-15.137,-10.254,0.000
4859.000,-19.043,-16.113,-11.230,0.000,0.000
4863.000,-7.812,-20.020,-9.277,-3.418,0.000
4867.000,-14.648,-22.461,-9.766,-4.883,0.000
4871.000,-30.273,-24.902,-9.277,4.883,0.000
4875.000,-20.508,-21.484,-15.625,-1.465,0.000
4879.000,-16.602,-26.367,-25.391,-18.555,0.000
4883.000,-14.648,-31.250,-25.879,-27.344,0.000
4887.000,-1.953,-24.902,-23.926,-28.320,0.000
4890.000,-12.207,-23.438,-19.043,-22.461,0.000
4894.000,-40.039,-24.414,-20.020,-20.996,0.000
4898.000,-33.203,-22.461,-24.414,-21.973,0.000
4902.000,-24.902,-26.367,-28.809,-23.438,0.000
4906.000,-30.273,-26.367,-27.832,-20.508,0.000
4910.000,-27.344,-8.301,-28.320,-26.855,0.000
4914.000,-24.902,3.418,-30.762,-32.227,0.000
4918.000,-30.273,-1.465,-30.762,-20.508,0.000
4922.000,-28.320,-0.977,-33.203,-23.926,0.000
4926.000,-26.855,-2.930,-33.691,-36.621,0.000
4930.000,-30.273,-10.742,-35.645,-40.527,0.000
4933.000,-28.320,-9.766,-35.156,-40.039,0.000
4937.000,-23.926,-14.648,-32.715,-32.227,0.000
4941.000,-15.625,-23.438,-34.668,-21.973,0.000
4945.000,-1.465,-21.973,-33.691,-0.488,0.000
4949.000,-16.602,-15.625,-26.367,-3.418,0.000
4953.000,-41.016,-15.137,-29.297,-31.738,0.000
4957.000,-32.227,-17.578,-31.738,-30.762,0.000
4961.000,-30.273,-25.879,-21.973,-29.785,0.000
4965.000,-59.082,-28.809,-18.555,-46.875,0.000
4969.000,-76.660,-21.973,-28.320,-58.594,0.000
4972.000,-64.941,-31.250,-36.621,-57.617,0.000
4976.000,-66.406,-35.156,-32.715,-58.594,0.000
4980.000,-83.008,-33.203,-28.809,-84.961,0.000
4984.000,-79.590,-34.668,-25.879,-88.867,0.000
4988.000,-73.730,-33.691,-19.043,-73.730,0.000
4992.000,-93.750,-36.133,-23.438,-74.707,0.000
4996.000,-98.633,-33.203,-19.531,-75.684,0.000
5000.000,-87.402,-34.180,-20.020,-78.125,0.000
5004.000,-91.309,-39.551,-29.297,-77.148,0.000
5008.000,-81.543,-45.898,-23.926,-62.988,0.000
5012.000,-79.102,-49.805,-28.809,-69.824,0.000
5015.000,-93.262,-47.852,-29.785,-83.008,0.000
5019.000,-81.055,-45.898,-24.414,-80.078,0.000
5023.000,-70.801,-57.129,-20.020,-63.477,0.000
5027.000,-74.707,-60.059,-16.113,-56.641,0.000
5031.000,-76.172,-62.500,-24.414,-60.059,0.000
5035.000,-77.637,-65.430,-30.762,-60.059,0.000
5039.000,-78.125,-69.336,-40.527,-74.707,0.000
5043.000,-81.055,-57.617,-34.668,-71.777,0.000
5047.000,-75.195,-51.758,-27.344,-60.059,0.000
5051.000,-57.617,-48.340,-24.414,-62.012,0.000
5054.000,-51.270,-31.738,-21.973,-47.852,0.000
5058.000,-59.082,-24.902,-29.297,-44.434,0.000
5062.000,-57.129,-23.926,-37.598,-61.523,0.000
5066.000,-52.246,-21.973,-40.527,-58.594,0.000
5070.000,-47.852,-29.297,-30.273,-43.457,0.000
5074.000,-39.551,-32.227,-25.391,-38.086,0.000
5078.000,-39.551,-19.531,-32.227,-35.156,0.000
5082.000,-41.504,-17.578,-35.156,-35.156,0.000
5086.000,-32.715,-16.602,-32.715,-24.414,0.000
5090.000,-22.949,-12.207,-27.832,-14.648,0.000
5094.000,-11.719,-17.578,-34.668,-23.926,0.000
5097.000,-12.695,-24.414,-42.969,-36.621,0.000
5101.000,-9.277,-29.785,-42.480,-34.180,0.000
5105.000,-6.348,-41.992,-42.969,-22.461,0.000
5109.000,-27.832,-33.691,-41.992,-10.254,0.000
5113.000,-39.062,-13.184,-39.062,-3.418,0.000
5117.000,-31.738,-16.113,-35.156,-12.207,0.000
5121.000,-24.902,-20.020,-35.156,-3.906,0.000
5125.000,-12.207,-20.508,-33.203,9.277,0.000
5129.000,-1.953,-25.391,-19.531,8.789,0.000
5133.000,3.418,0.000,-24.414,3.906,0.000
5137.000,9.277,10.742,-27.832,-1.465,0.000
5140.000,1.465,-10.742,-7.812,2.441,0.000
5144.000,-9.766,-17.090,-18.066,3.906,0.000
5148.000,-11.230,-14.160,-28.809,-0.488,0.000
5152.000,-1.953,-10.742,-21.973,-6.348,0.000
5156.000,0.977,-17.578,-23.438,0.977,0.000
5160.000,1.953,-23.926,-24.902,8.301,0.000
5164.000,0.000,-13.184,-25.879,-0.488,0.000
5168.000,3.906,-1.465,-12.695,-0.977,0.000
5172.000,-0.488,-2.930,-10.254,-2.930,0.000
5176.000,-11.719,-7.812,-19.043,-12.207,0.000
5179.000,-9.766,-6.836,-15.625,-10.254,0.000
5183.000,-9.766,-3.906,-9.766,-16.602,0.000
5187.000,-8.301,-13.672,-15.137,-11.719,0.000
5191.000,-4.395,-15.625,-21.484,-5.859,0.000
5195.000,-14.160,-7.812,-17.090,-22.949,0.000
5199.000,-25.391,-8.789,-14.160,-31.738,0.000
5203.000,-1.953,-4.883,-8.789,-18.555,0.000
5207.000,11.230,-2.930,-10.254,-11.719,0.000
5211.000,-20.996,-13.184,-22.949,-21.973,0.000
5215.000,-31.738,-18.555,-24.902,-21.484,0.000
5219.000,-40.039,-21.973,-24.902,-28.809,0.000
5222.000,-56.641,-25.391,-26.367,-33.203,0.000
5226.000,-59.082,-19.043,-25.391,-31.250,0.000
5230.000,-64.453,-12.695,-26.367,-32.715,0.000
5234.000,-51.270,-10.742,-21.484,-29.297,0.000
5238.000,-30.762,-8.301,-16.113,-24.902,0.000
5242.000,-31.738,-15.137,-14.648,-19.531,0.000
5246.000,-36.133,-20.508,-16.113,-17.578,0.000
5250.000,-32.715,-15.137,-14.160,-22.949,0.000
5254.000,-20.996,-17.090,-11.719,-20.020,0.000
5258.000,-17.090,-20.508,-12.207,-4.395,0.000
5262.000,-24.414,-12.695,-13.672,-8.301,0.000
5265.000,-21.973,-7.812,-14.160,-12.695,0.000
5269.000,-16.602,-6.836,-17.090,-6.836,0.000
5273.000,-16.602,-17.090,-20.020,-7.324,0.000
5277.000,-5.371,-13.184,-18.066,-2.441,0.000
5281.000,2.441,11.230,-14.160,-10.742,0.000
5285.000,-7.812,2.441,-16.113,-27.344,0.000
5289.000,-13.672,-9.766,-21.973,-20.020,0.000
5293.000,-6.836,-7.324,-20.508,-14.648,0.000
5297.000,-4.883,-2.441,-12.207,-20.020,0.000
5301.000,-1.953,-2.930,-6.348,-20.020,0.000
5304.000,14.648,-0.977,-14.648,-15.625,0.000
5308.000,11.230,7.812,-16.602,-12.695,0.000
5312.000,-11.230,6.836,-16.602,-19.531,0.000
5316.000,-23.926,3.906,-15.137,-22.949,0.000
5320.000,-16.602,3.418,-11.230,-24.902,0.000
5324.000,-21.973,-2.930,-13.672,-16.113,0.000
5328.000,-34.180,-4.395,-18.066,-18.555,0.000
5332.000,-28.320,-4.883,-23.438,-33.203,0.000
5336.000,-19.043,-6.348,-21.973,-31.738,0.000
5340.000,-31.738,-10.742,-22.949,-36.133,0.000
5344.000,-41.992,-10.742,-24.902,-29.785,0.000
5347.000,-45.410,-18.066,-25.391,-28.809,0.000
5351.000,-52.246,-22.461,-23.926,-37.109,0.000
5355.000,-44.434,-15.625,-24.414,-34.180,0.000
5359.000,-39.551,-17.090,-27.344,-36.621,0.000
5363.000,-42.969,-18.555,-25.391,-41.504,0.000
5367.000,-39.062,-14.648,-19.531,-44.434,0.000
5371.000,-32.227,-13.672,-13.672,-35.645,0.000
5375.000,-24.902,-21.484,-15.625,-19.531,0.000
5379.000,-15.625,-21.484,-15.137,-12.207,0.000
5383.000,-26.367,-18.066,-19.043,-26.367,0.000
5387.000,-45.410,-16.602,-22.949,-41.016,0.000
5390.000,-43.457,-18.066,-23.926,-35.156,0.000
5394.000,-32.715,-15.137,-25.391,-33.691,0.000
5398.000,-39.551,-9.277,-29.785,-46.875,0.000
5402.000,-31.250,-9.766,-30.762,-41.992,0.000
5406.000,-21.973,-16.602,-30.762,-34.668,0.000
5410.000,-22.949,-20.996,-29.785,-33.203,0.000
5414.000,-10.254,-11.719,-23.926,-19.043,0.000
5418.000,-0.977,-8.301,-26.855,-18.555,0.000
5422.000,-0.488,-11.719,-27.344,-21.973,0.000
5426.000,-4.395,-11.719,-28.320,-20.508,0.000
5429.000,-17.578,-14.648,-24.414,-15.625,0.000
5433.000,-18.555,-9.277,-15.137,-16.602,0.000
5437.000,-5.859,-5.371,-17.578,-24.414,0.000
5441.000,0.000,-3.418,-20.020,-15.625,0.000
5445.000,-4.395,-1.465,-11.230,-3.418,0.000
5449.000,-8.301,-2.441,-8.301,-18.066,0.000
5453.000,0.000,-6.836,-12.207,-20.020,0.000
5457.000,6.836,-5.371,-12.695,-0.488,0.000
5461.000,-2.930,-8.789,-18.066,-10.254,0.000
5465.000,-8.789,-14.648,-16.602,-22.461,0.000
5469.000,-16.602,-15.137,-16.113,-21.973,0.000
5472.000,-12.207,-19.531,-18.555,-11.719,0.000
5476.000,-0.488,-21.973,-15.625,1.953,0.000
5480.000,-16.113,-22.461,-20.996,-6.836,0.000
5484.000,-13.672,-20.996,-20.996,-23.438,0.000
5488.000,0.000,-20.020,-14.160,-25.391,0.000
5492.000,-11.719,-21.973,-12.695,-26.367,0.000
5496.000,-32.227,-20.020,-16.602,-36.621,0.000
5500.000,-34.180,-22.949,-16.113,-35.156,0.000
5504.000,-33.691,-29.297,-14.648,-25.391,0.000
5508.000,-39.062,-29.785,-20.996,-23.926,0.000
5512.000,-43.457,-23.438,-16.602,-17.578,0.000
5515.000,-35.156,-24.902,-10.254,-18.066,0.000
5519.000,-22.461,-25.879,-13.672,-16.113,0.000
5523.000,-18.555,-23.926,-18.555,-19.043,0.000
5527.000,-26.367,-23.438,-19.043,-26.367,0.000
5531.000,-30.273,-27.832,-17.578,-27.832,0.000
5535.000,-37.598,-36.621,-20.996,-40.527,0.000
5539.000,-36.621,-37.598,-25.879,-39.551,0.000
5543.000,-29.785,-32.715,-27.832,-27.832,0.000
5547.000,-35.645,-34.180,-24.414,-22.461,0.000
5551.000,-44.434,-36.133,-17.578,-29.297,0.000
5554.000,-36.621,-34.180,-16.113,-36.621,0.000
5558.000,-31.738,-30.762,-16.602,-32.715,0.000
5562.000,-35.156,-29.297,-18.066,-29.785,0.000
5566.000,-39.551,-37.109,-16.113,-35.156,0.000
5570.000,-26.367,-42.480,-16.602,-41.016,0.000
5574.000,-19.531,-41.504,-19.531,-34.668,0.000
5578.000,-33.691,-41.504,-21.973,-39.551,0.000
5582.000,-38.574,-37.598,-19.043,-52.246,0.000
5586.000,-44.922,-31.250,-15.625,-53.711,0.000
5590.000,-42.969,-29.297,-10.742,-46.875,0.000
5594.000,-38.086,-26.367,-15.137,-39.551,0.000
5597.000,-47.852,-35.645,-28.320,-41.992,0.000
5601.000,-47.363,-41.016,-27.344,-60.547,0.000
5605.000,-27.344,-33.691,-15.625,-55.176,0.000
5609.000,-25.879,-27.832,-11.719,-35.645,0.000
5613.000,-45.410,-25.391,-15.137,-45.410,0.000
5617.000,-53.711,-24.414,-11.719,-50.293,0.000
5621.000,-41.992,-26.367,-8.301,-34.668,0.000
5625.000,-36.133,-26.855,-8.789,-24.414,0.000
5629.000,-43.457,-19.043,-9.277,-31.250,0.000
5633.000,-47.363,-23.438,-17.090,-43.945,0.000
5637.000,-33.203,-29.785,-16.602,-35.156,0.000
5640.000,-24.902,-27.344,-11.719,-27.832,0.000
5644.000,-26.855,-25.391,-19.043,-37.109,0.000
5648.000,-29.297,-24.902,-27.344,-45.898,0.000
5652.000,-44.434,-29.297,-31.250,-37.598,0.000
5656.000,-33.691,-26.367,-33.691,-20.508,0.000
5660.000,-25.879,-19.043,-36.621,-21.484,0.000
5664.000,-38.086,-20.508,-38.086,-34.668,0.000
5668.000,-30.762,-18.066,-37.598,-43.457,0.000
5672.000,-28.320,-19.531,-36.621,-41.016,0.000
5676.000,-40.039,-19.531,-36.621,-29.297,0.000
5679.000,-45.410,-24.414,-33.691,-34.180,0.000
5683.000,-44.922,-31.738,-35.156,-45.410,0.000
5687.000,-29.297,-23.926,-37.598,-49.316,0.000
5691.000,-20.508,-20.020,-33.203,-45.410,0.000
5695.000,-30.762,-21.973,-24.414,-36.621,0.000
5699.000,-38.574,-21.484,-23.926,-38.086,0.000
5703.000,-31.738,-18.555,-24.902,-36.621,0.000
5707.000,-27.832,-18.555,-28.320,-25.391,0.000
5711.000,-35.156,-20.508,-30.762,-27.832,0.000
5715.000,-44.434,-27.832,-30.762,-38.086,0.000
5719.000,-39.062,-24.902,-34.668,-31.738,0.000
5722.000,-34.668,-20.020,-35.645,-33.203,0.000
5726.000,-40.039,-22.461,-31.250,-35.156,0.000
5730.000,-43.457,-26.367,-28.320,-36.621,0.000
5734.000,-45.410,-29.785,-29.297,-44.434,0.000
5738.000,-49.316,-31.250,-26.367,-41.016,0.000
5742.000,-49.316,-29.297,-20.020,-25.391,0.000
5746.000,-36.133,-26.367,-19.043,-12.695,0.000
5750.000,-41.992,-32.715,-16.113,-29.297,0.000
5754.000,-55.176,-32.715,-11.230,-39.062,0.000
5758.000,-45.410,-24.902,-9.766,-29.297,0.000
5761.000,-29.785,-30.762,-7.324,-34.668,0.000
5765.000,-35.156,-29.297,-5.859,-56.641,0.000
5769.000,-44.434,-25.879,-4.395,-62.500,0.000
5773.000,-39.551,-34.668,-5.371,-44.434,0.000
5777.000,-43.945,-31.250,-1.465,-45.410,0.000
5781.000,-55.664,-21.973,7.812,-55.664,0.000
5785.000,-68.848,-24.902,12.207,-55.176,0.000
5789.000,-55.176,-30.762,6.836,-54.199,0.000
5793.000,-45.410,-24.902,7.324,-50.293,0.000
5797.000,-60.059,-32.715,2.930,-65.918,0.000
5801.000,-57.617,-41.992,-11.719,-80.566,0.000
5804.000,-55.176,-37.598,-16.113,-73.242,0.000
5808.000,-65.430,-41.992,-17.578,-74.219,0.000
5812.000,-58.105,-44.922,-25.391,-82.031,0.000
5816.000,-46.387,-38.574,-29.297,-82.031,0.000
5820.000,-41.504,-34.668,-26.367,-67.871,0.000
5824.000,-41.504,-35.156,-19.043,-49.316,0.000
5828.000,-53.223,-40.039,-17.578,-55.176,0.000
5832.000,-60.547,-40.527,-22.949,-61.523,0.000
5836.000,-58.105,-40.039,-24.414,-45.410,0.000
5840.000,-57.129,-43.457,-22.949,-33.203,0.000
5844.000,-41.016,-37.109,-20.996,-33.691,0.000
5847.000,-32.227,-35.156,-19.043,-35.645,0.000
5851.000,-29.297,-40.039,-21.484,-36.621,0.000
5855.000,-21.973,-40.527,-22.949,-31.738,0.000
5859.000,-23.926,-35.156,-25.879,-20.020,0.000
5863.000,-27.344,-28.809,-25.391,-16.113,0.000
5867.000,-29.785,-28.320,-22.461,-23.926,0.000
5871.000,-29.785,-33.691,-28.320,-27.344,0.000
5875.000,-22.461,-40.527,-31.250,-23.926,0.000
5879.000,-19.531,-38.574,-26.367,-23.438,0.000
5883.000,-21.973,-31.738,-25.879,-25.391,0.000
5886.000,-28.809,-26.855,-23.926,-25.391,0.000
5890.000,-24.902,-21.973,-24.902,-20.508,0.000
5894.000,-12.207,-19.531,-27.344,-6.348,0.000
5898.000,-16.602,-22.949,-25.391,-14.648,0.000
5902.000,-9.277,-16.113,-30.762,-21.484,0.000
5906.000,6.836,-14.648,-32.715,-19.043,0.000
5910.000,10.742,-14.160,-25.391,-15.137,0.000
5914.000,16.113,-11.719,-20.508,-8.301,0.000
5918.000,10.742,-8.301,-15.625,-19.043,0.000
5922.000,-14.160,-13.672,-19.531,-37.109,0.000
5926.000,-15.625,-16.602,-23.438,-30.273,0.000
5929.000,-0.977,-5.371,-15.137,-22.949,0.000
5933.000,-8.301,-9.766,-19.531,-40.039,0.000
5937.000,-13.184,-18.066,-21.484,-39.551,0.000
5941.000,-11.719,-17.578,-14.160,-20.996,0.000
5945.000,-13.184,-14.160,-16.602,-10.254,0.000
5949.000,-26.367,-17.578,-19.043,-20.508,0.000
5953.000,-43.945,-27.832,-22.461,-32.715,0.000
5957.000,-48.340,-30.273,-23.438,-24.902,0.000
5961.000,-50.293,-34.668,-21.973,-21.973,0.000
5965.000,-57.129,-33.691,-21.973,-31.250,0.000
5969.000,-48.828,-25.879,-20.508,-34.180,0.000
5972.000,-35.645,-28.320,-25.391,-26.855,0.000
5976.000,-29.297,-20.996,-27.832,-21.973,0.000
5980.000,-27.344,-16.113,-25.879,-24.414,0.000
5984.000,-28.809,-24.414,-29.785,-27.344,0.000
5988.000,-27.344,-22.949,-30.273,-21.973,0.000
5992.000,-24.902,-20.508,-27.344,-13.672,0.000
5996.000,-28.320,-17.090,-25.879,-11.719,0.000
6000.000,-34.668,-18.066,-24.414,-14.160,0.000
6004.000,-26.855,-20.996,-24.902,-25.879,0.000
6008.000,-21.484,-21.484,-24.902,-28.320,0.000
6011.000,-34.180,-20.508,-19.043,-11.230,0.000
6015.000,-28.809,-23.438,-20.020,-12.695,0.000
6019.000,-26.855,-25.391,-27.344,-25.391,0.000
6023.000,-29.297,-23.438,-30.273,-16.602,0.000
6027.000,-19.043,-17.090,-24.902,-10.742,0.000
6031.000,-13.672,-9.766,-21.484,-18.066,0.000
6035.000,-8.789,-14.648,-17.578,-20.508,0.000
6039.000,-1.953,-16.113,-11.230,-5.859,0.000
6043.000,-8.789,-17.578,-13.672,5.371,0.000
6047.000,-11.230,-14.160,-13.672,-2.441,0.000
6051.000,-12.695,-18.066,-11.719,-9.277,0.000
6054.000,-24.902,-20.508,-11.230,-5.859,0.000
6058.000,-27.344,-15.625,-19.531,-6.348,0.000
6062.000,-26.855,-14.160,-24.902,-10.254,0.000
6066.000,-22.949,-14.648,-18.555,-12.207,0.000
6070.000,-24.414,-14.160,-15.137,-4.883,0.000
6074.000,-30.762,-15.625,-20.020,-0.488,0.000
6078.000,-32.227,-21.973,-23.438,-14.648,0.000
6082.000,-33.203,-18.555,-18.066,-29.785,0.000
6086.000,-22.461,-14.648,-14.648,-31.738,0.000
6090.000,-14.648,-13.184,-13.184,-26.367,0.000
6094.000,-20.020,-12.207,-16.113,-27.832,0.000
6097.000,-19.531,-20.508,-24.902,-30.762,0.000
6101.000,-16.113,-22.461,-21.973,-26.855,0.000
6105.000,-15.137,-18.555,-16.113,-20.508,0.000
6109.000,-19.043,-22.461,-12.207,-10.742,0.000
6113.000,-25.879,-26.855,-13.184,-13.184,0.000
6117.000,-29.785,-22.949,-10.742,-26.367,0.000
6121.000,-21.484,-14.648,-9.766,-25.391,0.000
6125.000,-19.043,-25.879,-8.789,-16.113,0.000
6129.000,-22.949,-27.344,-3.418,-16.602,0.000
6133.000,-21.973,-10.254,-7.324,-20.996,0.000
6136.000,-14.648,-9.766,-14.160,-18.066,0.000
6140.000,-15.625,-15.137,-17.090,-18.066,0.000
6144.000,-17.090,-20.508,-19.531,-24.414,0.000
6148.000,-22.461,-21.973,-17.578,-25.879,0.000
6152.000,-29.785,-18.555,-18.555,-26.855,0.000
6156.000,-30.273,-20.996,-20.996,-16.113,0.000
6160.000,-36.621,-26.855,-20.020,-8.789,0.000
6164.000,-40.527,-26.855,-17.090,-27.832,0.000
6168.000,-34.180,-20.020,-17.578,-40.039,0.000
6172.000,-29.297,-19.531,-19.531,-28.320,0.000
6176.000,-30.762,-20.996,-21.484,-20.996,0.000
6179.000,-40.039,-24.414,-20.020,-21.973,0.000
6183.000,-42.969,-24.414,-22.461,-24.414,0.000
6187.000,-22.461,-21.484,-22.949,-18.555,0.000
6191.000,-15.625,-18.555,-19.043,-12.207,0.000
6195.000,-45.898,-20.508,-29.297,-34.668,0.000
6199.000,-41.504,-23.926,-29.297,-33.691,0.000
6203.000,-12.695,-20.508,-20.020,-17.090,0.000
6207.000,-3.906,-16.602,-20.996,-14.648,0.000
6211.000,-5.371,-18.066,-15.137,-6.836,0.000
6215.000,-18.066,-18.066,-12.695,4.395,0.000
6219.000,-12.695,-18.066,-16.113,6.836,0.000
6222.000,4.395,-20.996,-17.090,15.137,0.000
6226.000,6.348,-21.973,-20.020,20.020,0.000
6230.000,8.789,-21.973,-18.555,10.742,0.000
6234.000,16.113,-16.113,-18.066,10.742,0.000
6238.000,15.625,-13.184,-20.020,9.277,0.000
6242.000,14.160,-11.719,-19.531,3.906,0.000
6246.000,17.090,-11.230,-18.066,11.230,0.000
6250.000,18.066,-11.719,-13.672,15.137,0.000
6254.000,13.672,-13.672,-16.113,6.836,0.000
6258.000,10.742,-18.066,-22.461,3.418,0.000
6261.000,3.418,-21.484,-23.926,-6.348,0.000
6265.000,-7.324,-23.438,-25.391,-12.207,0.000
6269.000,-10.742,-26.367,-29.785,-16.602,0.000
6273.000,-4.883,-23.926,-28.809,-15.137,0.000
6277.000,-1.953,-18.555,-21.484,-8.789,0.000
6281.000,-15.137,-20.996,-20.508,-19.043,0.000
6285.000,-22.949,-21.484,-24.414,-27.832,0.000
6289.000,-20.996,-21.973,-22.461,-23.926,0.000
6293.000,-18.066,-20.020,-19.043,-12.695,0.000
6297.000,-16.113,-13.672,-15.625,-9.766,0.000
6301.000,-17.578,-14.160,-14.160,-25.879,0.000
6304.000,-11.719,-15.625,-23.926,-26.367,0.000
6308.000,-16.602,-18.066,-25.879,-20.020,0.000
6312.000,-30.273,-19.531,-22.461,-24.414,0.000
6316.000,-40.527,-20.020,-28.809,-33.203,0.000
6320.000,-30.273,-19.531,-30.762,-39.062,0.000
6324.000,-20.996,-20.508,-24.902,-39.062,0.000
6328.000,-37.109,-26.855,-23.926,-35.645,0.000
6332.000,-45.898,-26.367,-26.855,-39.551,0.000
6336.000,-41.016,-19.531,-23.438,-41.016,0.000
6340.000,-30.273,-24.414,-26.855,-34.180,0.000
6344.000,-22.949,-26.855,-29.785,-38.086,0.000
6347.000,-23.926,-23.926,-24.414,-42.480,0.000
6351.000,-28.809,-30.273,-28.320,-41.992,0.000
6355.000,-28.320,-30.762,-33.691,-35.156,0.000
6359.000,-23.438,-29.297,-29.297,-20.508,0.000
6363.000,-27.344,-30.762,-25.391,-25.879,0.000
6367.000,-29.785,-27.832,-24.902,-41.992,0.000
6371.000,-24.902,-26.855,-22.949,-35.645,0.000
6375.000,-19.043,-28.809,-16.602,-17.090,0.000
6379.000,-18.066,-28.320,-13.184,-18.066,0.000
6383.000,-27.344,-26.855,-15.137,-30.762,0.000
6386.000,-24.414,-31.738,-21.484,-27.832,0.000
6390.000,-19.531,-34.180,-24.414,-16.113,0.000
6394.000,-25.391,-31.738,-24.902,-11.230,0.000
6398.000,-22.949,-29.785,-22.461,-21.973,0.000
6402.000,-18.066,-27.344,-15.625,-23.438,0.000
6406.000,-20.020,-32.715,-19.043,-14.648,0.000
6410.000,-27.344,-31.738,-19.531,-11.230,0.000
6414.000,-47.852,-32.715,-16.113,-11.719,0.000
6418.000,-41.016,-40.039,-14.160,-21.484,0.000
6422.000,-24.414,-37.598,-12.207,-17.090,0.000
6426.000,-21.484,-33.691,-8.789,-0.977,0.000
6429.000,-15.137,-36.133,-6.836,-6.348,0.000
6433.000,-5.371,-33.691,-7.324,-19.531,0.000
6437.000,-4.395,-33.691,-13.184,-19.531,0.000
6441.000,-17.090,-41.016,-18.066,-10.254,0.000
6445.000,-21.484,-38.574,-17.578,-2.930,0.000
6449.000,-19.531,-34.180,-17.578,-9.766,0.000
6453.000,-19.043,-38.086,-17.090,-19.043,0.000
6457.000,-16.602,-36.621,-17.578,-15.137,0.000
6461.000,-23.438,-33.691,-19.043,-26.855,0.000
6465.000,-33.203,-32.715,-17.578,-36.133,0.000
6469.000,-35.645,-32.227,-17.090,-29.785,0.000
6472.000,-36.133,-31.250,-19.043,-24.902,0.000
6476.000,-38.086,-28.809,-18.066,-21.484,0.000
6480.000,-40.039,-31.738,-16.113,-24.414,0.000
6484.000,-42.480,-32.227,-17.578,-31.250,0.000
6488.000,-43.945,-33.691,-16.602,-29.785,0.000
6492.000,-45.410,-41.016,-17.090,-21.973,0.000
6496.000,-47.363,-42.480,-16.113,-26.367,0.000
6500.000,-45.410,-41.992,-9.766,-33.691,0.000
6504.000,-41.504,-43.457,-9.766,-29.297,0.000
6508.000,-41.016,-40.527,-9.766,-23.926,0.000
6511.000,-42.480,-34.668,-11.230,-20.020,0.000
6515.000,-39.551,-31.738,-11.719,-27.832,0.000
6519.000,-38.574,-30.273,-14.648,-32.715,0.000
6523.000,-38.086,-23.926,-16.602,-24.414,0.000
6527.000,-41.016,-28.320,-17.578,-24.414,0.000
6531.000,-47.852,-31.250,-20.996,-32.227,0.000
6535.000,-31.250,-22.461,-21.484,-31.738,0.000
6539.000,-11.230,-19.531,-21.484,-20.020,0.000
6543.000,-7.812,-19.043,-23.438,-6.348,0.000
6547.000,-13.184,-12.207,-23.438,-5.371,0.000
6551.000,-7.812,-6.836,-22.949,-13.672,0.000
6554.000,5.371,-3.906,-20.996,-14.648,0.000
6558.000,0.977,-2.930,-18.066,2.441,0.000
6562.000,-3.418,-1.953,-14.160,2.930,0.000
6566.000,4.395,-4.883,-17.090,-12.695,0.000
6570.000,9.277,-6.348,-18.066,-17.578,0.000
6574.000,6.836,-16.113,-12.695,-17.578,0.000
6578.000,0.488,-23.438,-11.719,-8.789,0.000
6582.000,-4.395,-27.832,-11.719,-9.766,0.000
6586.000,-6.836,-29.297,-15.625,-19.531,0.000
6590.000,-16.113,-30.762,-18.066,-22.949,0.000
6593.000,-21.973,-37.109,-17.578,-28.320,0.000
6597.000,-18.066,-37.109,-20.020,-28.809,0.000
6601.000,-10.254,-34.180,-23.438,-34.668,0.000
6605.000,-12.207,-31.738,-20.996,-38.086,0.000
6609.000,-21.484,-27.832,-15.137,-21.484,0.000
6613.000,-30.273,-31.250,-12.695,-15.625,0.000
6617.000,-35.156,-39.062,-14.160,-30.762,0.000
6621.000,-26.855,-37.109,-23.926,-30.762,0.000
6625.000,-11.719,-30.273,-24.414,-10.254,0.000
6629.000,-16.113,-29.785,-17.090,-16.602,0.000
6633.000,-29.785,-31.738,-16.113,-46.387,0.000
6636.000,-36.621,-40.527,-19.531,-53.711,0.000
6640.000,-39.062,-41.016,-14.648,-35.156,0.000
6644.000,-40.527,-30.762,-4.883,-26.367,0.000
6648.000,-71.289,-41.016,-6.348,-59.570,0.000
6652.000,-80.566,-51.270,-13.184,-72.266,0.000
6656.000,-62.012,-46.875,-14.648,-59.082,0.000
6660.000,-73.242,-47.363,-18.066,-69.824,0.000
6664.000,-70.312,-49.316,-17.090,-71.777,0.000
6668.000,-75.684,-46.387,-15.137,-84.473,0.000
6672.000,-81.543,-41.504,-27.344,-93.262,0.000
6676.000,-63.477,-42.480,-28.320,-73.730,0.000
6679.000,-71.289,-40.039,-18.066,-83.496,0.000
6683.000,-75.195,-38.086,-14.160,-91.797,0.000
6687.000,-62.500,-40.039,-8.301,-68.359,0.000
6691.000,-61.523,-41.504,-11.719,-59.082,0.000
6695.000,-59.570,-43.457,-20.996,-61.035,0.000
6699.000,-70.801,-49.805,-20.508,-73.242,0.000
6703.000,-76.660,-50.293,-19.043,-76.660,0.000
6707.000,-64.453,-44.434,-21.973,-67.871,0.000
6711.000,-68.359,-39.062,-28.809,-62.988,0.000
6715.000,-81.055,-31.738,-28.809,-59.082,0.000
6718.000,-69.824,-23.926,-25.391,-65.430,0.000
6722.000,-44.922,-23.438,-20.996,-48.340,0.000
6726.000,-42.480,-27.344,-21.973,-34.180,0.000
6730.000,-44.434,-31.250,-24.902,-41.016,0.000
6734.000,-32.715,-31.250,-14.648,-27.344,0.000
6738.000,-35.645,-24.902,-10.254,-19.043,0.000
6742.000,-35.645,-18.555,-15.625,-11.230,0.000
6746.000,-38.574,-23.438,-19.531,-8.301,0.000
6750.000,-39.062,-24.902,-15.137,-11.230,0.000
6754.000,-24.414,-18.555,-9.277,0.000,0.000
6758.000,-13.672,-18.555,-9.277,3.906,0.000
6761.000,-10.254,-22.461,-7.812,-7.324,0.000
6765.000,-14.160,-20.996,-12.207,-16.113,0.000
6769.000,-15.137,-20.508,-17.578,-19.531,0.000
6773.000,-1.465,-20.996,-14.648,-8.789,0.000
6777.000,1.953,-22.461,-14.160,7.812,0.000
6781.000,-0.977,-28.320,-21.973,-4.395,0.000
6785.000,-5.371,-26.855,-25.391,-20.020,0.000
6789.000,-22.461,-27.344,-22.461,-15.625,0.000
6793.000,-28.320,-26.855,-20.508,-9.766,0.000
6797.000,-27.832,-23.926,-23.438,-8.789,0.000
6801.000,-20.508,-28.320,-26.855,-12.207,0.000
6804.000,-20.508,-28.809,-28.320,-20.020,0.000
6808.000,-19.043,-20.508,-29.785,-25.879,0.000
6812.000,-20.996,-21.484,-27.344,-20.508,0.000
6816.000,-27.344,-22.949,-23.926,-20.020,0.000
6820.000,-29.297,-24.414,-25.879,-25.879,0.000
6824.000,-27.344,-26.367,-28.809,-24.414,0.000
6828.000,-31.250,-31.250,-32.715,-26.367,0.000
6832.000,-26.855,-35.645,-29.785,-28.320,0.000
6836.000,-21.484,-35.156,-23.438,-24.902,0.000
6840.000,-27.344,-31.250,-26.855,-26.367,0.000
6843.000,-29.785,-28.809,-30.762,-28.809,0.000
6847.000,-25.879,-27.832,-28.809,-34.180,0.000
6851.000,-19.043,-20.020,-25.879,-27.344,0.000
6855.000,-10.254,-12.695,-21.484,-15.625,0.000
6859.000,-10.254,-14.160,-20.508,-19.531,0.000
6863.000,-21.484,-25.879,-25.391,-32.227,0.000
6867.000,-17.090,-22.461,-24.902,-25.879,0.000
6871.000,-5.371,-12.695,-22.949,-8.789,0.000
6875.000,-2.441,-17.090,-22.949,-5.371,0.000
6879.000,-3.906,-18.555,-20.508,-8.301,0.000
6883.000,-14.160,-20.508,-16.113,-9.766,0.000
6886.000,-26.855,-20.996,-17.578,-12.695,0.000
6890.000,-17.578,-16.113,-15.137,-4.883,0.000
6894.000,-10.254,-15.137,-9.277,-0.488,0.000
6898.000,-12.207,-19.531,-11.230,-10.254,0.000
6902.000,-10.254,-19.043,-11.719,-20.996,0.000
6906.000,-13.184,-12.695,-10.742,-9.766,0.000
6910.000,-6.836,-9.766,-9.277,-4.395,0.000
6914.000,-3.418,-12.695,-2.441,-7.324,0.000
6918.000,-6.348,-9.277,-1.465,-9.277,0.000
6922.000,-5.859,0.000,-3.418,-13.672,0.000
6926.000,-9.277,-2.930,-4.395,-8.789,0.000
6929.000,-22.461,-6.836,-7.324,-13.184,0.000
6933.000,-34.668,-7.324,-10.742,-22.949,0.000
6937.000,-37.109,-13.672,-14.160,-27.832,0.000
6941.000,-28.809,-18.066,-12.695,-25.879,0.000
6945.000,-25.879,-19.531,-14.160,-26.367,0.000
6949.000,-27.832,-23.438,-20.020,-43.945,0.000
6953.000,-26.855,-30.273,-20.996,-49.316,0.000
6957.000,-32.715,-28.320,-18.555,-39.551,0.000
6961.000,-39.062,-26.367,-17.578,-37.109,0.000
6965.000,-45.410,-20.508,-16.602,-38.086,0.000
6968.000,-45.410,-17.578,-22.461,-40.039,0.000
6972.000,-38.574,-21.973,-26.855,-51.758,0.000
6976.000,-46.387,-24.902,-29.297,-54.688,0.000
6980.000,-49.316,-31.250,-35.645,-62.500,0.000
6984.000,-43.457,-26.855,-33.691,-65.918,0.000
6988.000,-38.574,-19.043,-27.344,-54.688,0.000
6992.000,-34.180,-22.949,-21.973,-47.852,0.000
6996.000,-45.898,-16.602,-19.043,-41.992,0.000
7000.000,-46.875,-18.066,-21.484,-35.645,0.000
7004.000,-40.039,-27.344,-20.508,-34.668,0.000
7008.000,-48.340,-22.949,-17.578,-38.086,0.000
7011.000,-52.734,-28.320,-19.043,-43.945,0.000
7015.000,-46.875,-30.762,-24.902,-52.734,0.000
7019.000,-41.504,-24.902,-21.484,-51.758,0.000
7023.000,-30.762,-25.391,-13.672,-41.504,0.000
7027.000,-19.043,-32.227,-16.113,-43.945,0.000
7031.000,-26.855,-30.762,-18.555,-43.457,0.000
7035.000,-47.363,-27.832,-17.578,-38.086,0.000
7039.000,-46.387,-30.273,-17.578,-29.297,0.000
7043.000,-41.992,-31.738,-17.090,-13.184,0.000
7047.000,-28.809,-27.832,-15.625,-10.254,0.000
7051.000,-12.695,-20.996,-14.160,-14.648,0.000
7054.000,-16.602,-18.555,-11.719,-12.207,0.000
7058.000,-28.809,-24.414,-15.625,-32.227,0.000
7062.000,-29.297,-23.438,-17.090,-28.809,0.000
7066.000,-15.625,-25.879,-16.602,-20.508,0.000
7070.000,-3.906,-30.273,-20.020,-20.996,0.000
7074.000,-11.719,-31.738,-20.020,-11.719,0.000
7078.000,-21.484,-31.250,-19.043,-10.254,0.000
7082.000,-17.578,-30.762,-18.066,-10.254,0.000
7086.000,-9.277,-32.227,-20.996,-12.695,0.000
7090.000,-18.066,-28.320,-28.320,-10.742,0.000
7093.000,-14.160,-29.785,-29.785,-8.301,0.000
7097.000,-5.371,-32.715,-28.320,-15.625,0.000
7101.000,-10.742,-30.762,-19.043,-15.625,0.000
7105.000,-8.789,-27.344,-18.555,-3.418,0.000
7109.000,-14.160,-31.738,-24.414,-1.465,0.000
7113.000,-28.320,-34.180,-27.344,-9.277,0.000
7117.000,-32.715,-36.133,-30.273,-15.625,0.000
7121.000,-20.996,-36.621,-32.227,-13.184,0.000
7125.000,-20.020,-36.133,-36.621,-12.695,0.000
7129.000,-18.555,-41.016,-30.762,-22.461,0.000
7133.000,-8.301,-40.527,-23.926,-27.344,0.000
7136.000,-9.766,-38.574,-27.832,-27.832,0.000
7140.000,-2.441,-37.109,-31.738,-14.160,0.000
7144.000,6.348,-33.691,-28.809,-5.859,0.000
7148.000,-12.695,-38.574,-26.367,-19.531,0.000
7152.000,-18.066,-37.109,-26.855,-18.555,0.000
7156.000,1.465,-31.250,-23.438,2.441,0.000
7160.000,-5.371,-28.320,-20.508,4.395,0.000
7164.000,-10.254,-26.855,-19.531,-7.812,0.000
7168.000,-1.465,-27.344,-17.090,-12.207,0.000
7172.000,-5.371,-23.438,-19.043,-6.836,0.000
7176.000,-17.578,-26.855,-21.973,-10.742,0.000
7179.000,-26.855,-34.668,-24.414,-20.020,0.000
7183.000,-30.273,-35.156,-24.414,-22.949,0.000
7187.000,-20.508,-28.809,-19.043,-20.996,0.000
7191.000,-6.348,-24.902,-14.160,-10.254,0.000
7195.000,-5.371,-23.926,-14.648,-5.859,0.000
7199.000,-8.789,-18.066,-16.602,-13.184,0.000
7203.000,-5.371,-20.020,-20.020,-23.438,0.000
7207.000,-17.090,-28.809,-23.438,-28.809,0.000
7211.000,-23.926,-24.902,-19.531,-26.367,0.000
7215.000,-8.789,-19.531,-16.113,-21.484,0.000
7218.000,-2.441,-18.066,-15.137,-13.184,0.000
7222.000,-10.742,-20.020,-9.766,-2.441,0.000
7226.000,-9.766,-21.973,-2.930,0.977,0.000
7230.000,-14.648,-28.809,-1.465,7.812,0.000
7234.000,-18.066,-33.691,0.000,2.930,0.000
7238.000,-16.113,-31.738,-2.930,-6.836,0.000
7242.000,-22.949,-38.086,-8.789,-7.324,0.000
7246.000,-30.273,-39.062,-3.418,-4.883,0.000
7250.000,-28.809,-38.086,-1.953,-9.277,0.000
7254.000,-33.203,-44.922,-11.230,-9.277,0.000
7258.000,-25.391,-41.016,-2.441,0.000,0.000
7261.000,-11.230,-32.227,6.348,-7.324,0.000
7265.000,-14.648,-31.738,-1.465,-20.508,0.000
7269.000,-24.414,-27.832,-2.441,-22.949,0.000
7273.000,-22.461,-29.785,-2.441,-18.066,0.000
7277.000,-24.902,-30.273,-8.789,-6.836,0.000
7281.000,-31.738,-26.367,-14.160,-3.906,0.000
7285.000,-33.203,-35.156,-21.973,-15.137,0.000
7289.000,-24.902,-33.203,-21.484,-20.508,0.000
7293.000,-21.484,-30.273,-18.066,-16.113,0.000
7297.000,-25.879,-34.180,-21.973,-20.508,0.000
7300.000,-27.344,-30.273,-21.484,-30.762,0.000
7304.000,-26.367,-31.250,-24.902,-30.273,0.000
7308.000,-10.254,-31.738,-27.832,-27.832,0.000
7312.000,2.930,-30.273,-20.508,-30.273,0.000
7316.000,1.953,-25.391,-18.555,-36.621,0.000
7320.000,-4.883,-23.926,-20.508,-32.227,0.000
7324.000,-7.324,-26.367,-17.090,-20.508,0.000
7328.000,-18.066,-25.391,-13.672,-20.020,0.000
7332.000,-29.785,-29.297,-15.137,-25.391,0.000
7336.000,-25.879,-22.949,-14.160,-21.973,0.000
7340.000,-21.484,-21.973,-14.648,-26.367,0.000
7343.000,-22.461,-30.273,-17.090,-35.645,0.000
7347.000,-25.391,-30.273,-12.695,-41.992,0.000
7351.000,-28.320,-34.180,-15.137,-41.504,0.000
7355.000,-29.297,-30.273,-19.043,-29.297,0.000
