timestamp,TP9,AF7,AF8,TP10,Right AUX
1673144617.884,164.062,-962.402,-33.691,153.809,0.000
1673144617.888,-168.945,117.676,-41.992,-98.145,0.000
1673144617.892,-221.680,-960.449,-40.527,-162.598,0.000
1673144617.896,101.562,-139.160,-30.273,74.219,0.000
1673144617.900,240.723,982.910,-26.855,196.289,0.000
1673144617.904,-99.609,69.824,-37.598,-49.805,0.000
1673144617.908,-354.492,-1000.000,-37.598,-255.371,0.000
1673144617.912,64.453,-393.555,-18.555,41.992,0.000
1673144617.916,387.207,-923.828,-22.461,305.664,0.000
1673144617.920,-29.297,498.535,-40.527,30.273,0.000
1673144617.923,-424.805,-969.727,-49.316,-289.062,0.000
1673144617.927,-99.609,-680.664,-43.457,-88.867,0.000
1673144617.931,362.305,763.184,-39.062,257.324,0.000
1673144617.935,126.953,694.824,-40.039,119.141,0.000
1673144617.939,-381.348,-747.070,-40.527,-256.348,0.000
1673144617.943,-229.004,-924.805,-34.668,-192.871,0.000
1673144617.947,303.711,490.723,-22.461,202.637,0.000
1673144617.951,259.277,861.328,-25.391,219.727,0.000
1673144617.955,-270.508,-525.391,-35.156,-172.363,0.000
1673144617.959,-321.777,-1000.000,-25.391,-248.047,0.000
1673144617.963,131.836,-156.738,-14.160,81.543,0.000
1673144617.966,254.883,723.145,-17.090,212.891,0.000
1673144617.970,-57.129,174.316,-20.020,-0.488,0.000
1673144617.974,-257.812,-658.691,-25.391,-186.523,0.000
1673144617.978,-9.766,-396.973,-25.391,-20.508,0.000
1673144617.982,233.398,590.820,-25.879,193.848,0.000
1673144617.986,24.902,562.988,-38.574,57.129,0.000
1673144617.990,-267.090,-393.555,-46.875,-182.129,0.000
1673144617.994,-125.000,-730.957,-39.062,-104.980,0.000
1673144617.998,197.754,-16.602,-28.809,149.414,0.000
1673144618.002,124.023,466.309,-35.645,121.582,0.000
1673144618.005,-211.426,-188.965,-45.410,-149.902,0.000
1673144618.009,-202.148,-790.527,-36.621,-172.363,0.000
1673144618.013,128.418,-479.980,-31.250,94.238,0.000
1673144618.017,184.082,255.371,-31.250,167.480,0.000
1673144618.021,-133.789,140.137,-36.133,-77.637,0.000
1673144618.025,-252.441,-967.285,-41.992,-197.266,0.000
1673144618.029,52.246,-581.055,-36.133,17.090,0.000
1673144618.033,234.863,775.879,-32.227,175.781,0.000
1673144618.037,-36.621,578.613,-38.574,-8.301,0.000
1673144618.041,-280.273,-693.848,-41.992,-213.867,0.000
1673144618.045,-58.594,-855.469,-38.574,-64.453,0.000
1673144618.048,212.891,339.355,-38.086,166.504,0.000
1673144618.052,42.969,775.879,-39.551,53.711,0.000
1673144618.056,-257.812,-418.457,-38.086,-193.848,0.000
1673144618.060,-139.648,-963.379,-33.203,-127.441,0.000
1673144618.064,193.848,293.457,-27.832,129.395,0.000
1673144618.068,159.180,986.328,-31.250,119.141,0.000
1673144618.072,-180.176,-241.211,-40.039,-144.043,0.000
1673144618.076,-212.891,-1000.000,-38.086,-189.941,0.000
1673144618.080,120.117,78.125,-29.785,61.035,0.000
1673144618.084,212.402,-979.492,-31.738,155.273,0.000
1673144618.087,-103.516,98.145,-36.133,-66.406,0.000
1673144618.091,-262.695,-1000.000,-34.180,-203.125,0.000
1673144618.095,27.344,-574.707,-29.785,4.395,0.000
1673144618.099,232.910,749.512,-30.762,182.129,0.000
1673144618.103,-14.160,99.121,-39.551,8.789,0.000
1673144618.107,-261.719,-1000.000,-43.457,-202.148,0.000
1673144618.111,-45.898,-548.340,-43.457,-66.895,0.000
1673144618.115,265.137,617.188,-43.945,187.012,0.000
1673144618.119,122.070,479.492,-38.574,114.258,0.000
1673144618.123,-232.910,-654.785,-37.598,-158.203,0.000
1673144618.127,-168.945,-991.699,-36.621,-137.207,0.000
1673144618.130,171.875,-148.926,-26.367,127.930,0.000
1673144618.134,180.176,570.801,-20.996,157.227,0.000
1673144618.138,-172.852,-283.691,-22.949,-112.305,0.000
1673144618.142,-281.738,-1000.000,-21.484,-219.238,0.000
1673144618.146,172.363,-269.043,-14.160,114.746,0.000
1673144618.150,319.824,641.113,-16.602,264.648,0.000
1673144618.154,-185.547,90.332,-24.414,-92.285,0.000
1673144618.158,-412.109,-990.234,-26.367,-292.969,0.000
1673144618.162,40.039,-632.812,-18.555,17.578,0.000
1673144618.166,370.605,726.562,-10.742,277.832,0.000
1673144618.169,-11.719,620.605,-19.043,14.648,0.000
1673144618.173,-419.922,-822.754,-26.855,-303.711,0.000
1673144618.177,-101.562,-880.371,-19.531,-98.633,0.000
1673144618.181,367.676,591.309,-13.672,262.695,0.000
1673144618.185,121.582,664.062,-28.320,119.141,0.000
1673144618.189,-390.625,-686.523,-39.551,-273.926,0.000
1673144618.193,-240.234,-1000.000,-27.344,-194.336,0.000
1673144618.197,288.086,-71.289,-16.113,201.660,0.000
1673144618.201,253.418,-922.852,-22.949,210.449,0.000
1673144618.205,-277.832,-83.008,-36.133,-178.711,0.000
1673144618.209,-358.398,-1000.000,-33.203,-279.785,0.000
1673144618.212,154.297,-228.027,-21.973,92.285,0.000
1673144618.216,339.355,-952.637,-22.949,259.277,0.000
1673144618.220,-128.906,225.098,-30.762,-67.383,0.000
1673144618.224,-410.645,-1000.000,-32.227,-301.758,0.000
1673144618.228,17.578,-456.543,-25.879,-16.602,0.000
1673144618.232,385.742,943.848,-26.855,272.461,0.000
1673144618.236,18.066,394.043,-40.527,35.156,0.000
1673144618.240,-416.504,-1000.000,-42.969,-297.852,0.000
1673144618.244,-125.488,-729.980,-24.902,-121.582,0.000
1673144618.248,360.352,697.754,-19.531,254.395,0.000
1673144618.251,173.828,719.727,-32.715,159.180,0.000
1673144618.255,-341.309,-649.414,-40.527,-237.305,0.000
1673144618.259,-257.324,-992.188,-31.738,-216.797,0.000
1673144618.263,272.949,276.855,-21.484,181.641,0.000
1673144618.267,285.156,982.910,-23.926,233.398,0.000
1673144618.271,-242.676,-127.441,-37.598,-156.250,0.000
1673144618.275,-371.582,-1000.000,-42.480,-290.527,0.000
1673144618.279,121.582,-415.527,-32.715,62.012,0.000
1673144618.283,351.074,475.098,-32.715,269.531,0.000
1673144618.287,-107.422,-262.695,-46.387,-43.457,0.000
1673144618.291,-428.711,-1000.000,-48.340,-314.453,0.000
1673144618.294,-26.367,-666.504,-38.574,-40.527,0.000
1673144618.298,356.445,642.578,-35.645,271.484,0.000
1673144618.302,44.434,725.098,-48.340,64.453,0.000
1673144618.306,-328.613,-575.195,-48.828,-232.422,0.000
1673144618.310,-169.434,-1000.000,-34.180,-143.066,0.000
1673144618.314,163.574,-30.273,-31.738,110.352,0.000
1673144618.318,140.137,868.164,-33.691,114.258,0.000
1673144618.322,-187.988,-30.762,-39.551,-132.324,0.000
1673144618.326,-224.121,-1000.000,-39.551,-180.664,0.000
1673144618.330,102.539,-751.953,-31.250,64.453,0.000
1673144618.333,199.219,534.668,-30.762,164.062,0.000
1673144618.337,-107.422,337.891,-44.922,-67.871,0.000
1673144618.341,-263.672,-906.250,-48.340,-214.844,0.000
1673144618.345,19.043,-562.988,-43.457,0.488,0.000
1673144618.349,226.074,606.934,-45.898,182.617,0.000
1673144618.353,-15.137,240.723,-52.734,12.207,0.000
1673144618.357,-270.996,-929.199,-53.223,-200.684,0.000
1673144618.361,-74.219,-678.711,-43.457,-73.730,0.000
1673144618.365,223.145,559.570,-38.086,168.457,0.000
1673144618.369,92.285,722.656,-42.969,94.727,0.000
1673144618.373,-230.957,-554.688,-49.805,-163.086,0.000
1673144618.376,-163.574,-967.285,-37.598,-139.160,0.000
1673144618.380,173.340,241.211,-30.273,123.535,0.000
1673144618.384,169.922,838.867,-40.039,151.367,0.000
1673144618.388,-178.711,-372.070,-46.875,-112.793,0.000
1673144618.392,-250.000,-1000.000,-46.387,-199.707,0.000
1673144618.396,74.219,-148.438,-40.527,44.434,0.000
1673144618.400,197.266,623.535,-40.527,173.828,0.000
1673144618.404,-100.586,-238.281,-43.457,-46.875,0.000
1673144618.408,-279.297,-1000.000,-42.969,-220.215,0.000
1673144618.412,2.930,-470.703,-36.621,-34.180,0.000
1673144618.415,258.789,605.957,-42.480,166.992,0.000
1673144618.419,37.109,95.215,-53.711,20.508,0.000
1673144618.423,-260.254,-966.309,-50.293,-215.332,0.000
1673144618.427,-106.934,-665.527,-43.945,-119.141,0.000
1673144618.431,193.848,196.289,-40.039,138.184,0.000
1673144618.435,84.473,348.145,-37.598,96.680,0.000
1673144618.439,-249.512,-369.629,-40.039,-167.480,0.000
1673144618.443,-210.449,-808.105,-34.180,-173.828,0.000
1673144618.447,129.395,-366.699,-26.855,91.309,0.000
1673144618.451,164.062,98.145,-30.273,149.902,0.000
1673144618.455,-166.016,-11.230,-37.109,-101.562,0.000
1673144618.458,-262.695,-856.934,-41.992,-208.008,0.000
1673144618.462,63.477,-598.145,-37.598,28.320,0.000
1673144618.466,223.633,334.961,-34.180,175.781,0.000
1673144618.470,-55.664,-52.734,-32.715,-25.391,0.000
1673144618.474,-272.949,-995.117,-35.156,-204.590,0.000
1673144618.478,-36.621,-888.184,-38.086,-40.527,0.000
1673144618.482,224.609,344.238,-30.762,175.781,0.000
1673144618.486,28.809,708.984,-35.156,55.176,0.000
1673144618.490,-270.996,-514.648,-50.293,-192.871,0.000
1673144618.494,-127.930,-1000.000,-45.898,-117.676,0.000
1673144618.497,196.289,60.059,-38.086,132.324,0.000
1673144618.501,125.488,875.488,-43.457,102.539,0.000
1673144618.505,-208.008,-248.535,-45.898,-156.250,0.000
1673144618.509,-194.824,-997.070,-40.527,-171.875,0.000
1673144618.513,64.941,-509.277,-37.598,38.086,0.000
1673144618.517,119.629,125.977,-39.551,106.445,0.000
1673144618.521,-17.090,-183.594,-48.340,-8.789,0.000
1673144618.525,-142.090,-862.793,-50.293,-130.859,0.000
1673144618.529,-38.086,-348.633,-43.457,-46.875,0.000
1673144618.533,103.027,464.844,-42.480,85.449,0.000
1673144618.537,17.578,-15.137,-51.270,26.367,0.000
1673144618.540,-124.512,-872.559,-53.711,-106.934,0.000
1673144618.544,-65.430,-450.195,-46.387,-72.266,0.000
1673144618.548,88.379,202.637,-41.992,71.289,0.000
1673144618.552,70.312,208.984,-41.016,62.012,0.000
1673144618.556,-85.449,-327.637,-46.875,-76.172,0.000
1673144618.560,-113.281,-762.207,-48.828,-107.910,0.000
1673144618.564,34.180,-537.109,-44.922,24.414,0.000
1673144618.568,98.633,-63.477,-42.969,98.633,0.000
1673144618.572,-45.898,-187.500,-48.828,-27.832,0.000
1673144618.576,-133.789,-721.191,-46.875,-124.512,0.000
1673144618.579,2.930,-501.465,-38.086,-10.254,0.000
1673144618.583,107.910,-160.156,-38.574,100.098,0.000
1673144618.587,-1.465,-406.250,-41.016,5.859,0.000
1673144618.591,-125.000,-583.008,-39.551,-120.117,0.000
1673144618.595,-32.227,-514.160,-33.691,-39.551,0.000
1673144618.599,102.539,6.348,-33.691,87.402,0.000
1673144618.603,25.879,362.305,-42.969,31.738,0.000
1673144618.607,-117.676,-377.441,-46.387,-105.469,0.000
1673144618.611,-79.590,-1000.000,-39.551,-89.355,0.000
1673144618.615,72.266,-430.176,-34.668,52.734,0.000
1673144618.619,72.754,440.918,-35.156,72.266,0.000
1673144618.622,-88.867,148.438,-42.969,-77.637,0.000
1673144618.626,-128.906,-714.844,-47.852,-131.836,0.000
1673144618.630,20.508,-718.262,-44.922,-0.488,0.000
1673144618.634,94.727,182.129,-43.457,72.266,0.000
1673144618.638,-45.410,215.332,-45.898,-44.434,0.000
1673144618.642,-159.180,-632.324,-46.387,-142.578,0.000
1673144618.646,-34.180,-472.168,-45.410,-37.109,0.000
1673144618.650,93.750,364.746,-43.457,83.008,0.000
1673144618.654,-7.324,20.020,-43.457,4.395,0.000
1673144618.658,-141.113,-799.316,-46.387,-127.930,0.000
1673144618.661,-58.105,-563.965,-40.039,-69.824,0.000
1673144618.665,90.332,251.953,-28.809,67.383,0.000
1673144618.669,39.062,398.926,-33.203,35.156,0.000
1673144618.673,-111.816,-476.562,-41.016,-95.703,0.000
1673144618.677,-103.027,-693.359,-36.133,-96.680,0.000
1673144618.681,54.688,-71.289,-31.250,46.875,0.000
1673144618.685,88.867,59.570,-33.203,93.262,0.000
1673144618.689,-61.523,-360.840,-37.598,-44.434,0.000
1673144618.693,-124.023,-579.590,-35.156,-111.816,0.000
1673144618.697,18.555,-86.426,-30.762,17.578,0.000
1673144618.701,106.445,74.219,-29.785,104.004,0.000
1673144618.704,-27.344,-390.137,-36.133,-21.973,0.000
1673144618.708,-129.395,-576.172,-43.457,-131.348,0.000
1673144618.712,-3.906,-141.602,-38.574,-18.066,0.000
1673144618.716,109.863,101.074,-26.367,107.422,0.000
1673144618.720,5.859,-382.812,-25.879,30.762,0.000
1673144618.724,-137.207,-408.691,-26.367,-104.004,0.000
1673144618.728,-79.590,-247.070,-26.855,-53.711,0.000
1673144618.732,63.477,-20.508,-29.297,90.332,0.000
1673144618.736,36.621,233.398,-28.320,71.777,0.000
1673144618.740,-119.141,-52.734,-31.250,-79.102,0.000
1673144618.743,-118.164,-639.648,-33.691,-92.773,0.000
1673144618.747,43.945,-581.055,-34.180,55.664,0.000
1673144618.751,86.914,57.129,-35.156,99.121,0.000
1673144618.755,-61.523,137.207,-31.738,-31.250,0.000
1673144618.759,-143.555,-434.082,-32.227,-115.234,0.000
1673144618.763,-5.859,-723.145,-36.133,7.812,0.000
1673144618.767,97.168,-144.043,-32.715,121.582,0.000
1673144618.771,-23.926,214.355,-38.574,10.254,0.000
1673144618.775,-142.578,-550.781,-43.457,-113.770,0.000
1673144618.779,-41.504,-660.156,-33.691,-29.785,0.000
1673144618.783,102.051,251.953,-27.832,103.516,0.000
1673144618.786,28.809,491.699,-33.203,47.852,0.000
1673144618.790,-200.195,-504.395,-40.039,-154.297,0.000
1673144618.794,-65.918,-932.129,-41.016,-57.129,0.000
1673144618.798,229.004,97.656,-37.598,189.941,0.000
1673144618.802,71.777,515.625,-37.598,88.379,0.000
1673144618.806,-239.746,-480.957,-44.434,-162.109,0.000
1673144618.810,-147.461,-972.656,-41.992,-130.859,0.000
1673144618.814,179.688,224.609,-36.621,119.629,0.000
1673144618.818,164.551,-976.562,-40.527,142.090,0.000
1673144618.822,-167.969,-146.484,-45.898,-109.375,0.000
1673144618.825,-205.566,-1000.000,-40.039,-171.387,0.000
1673144618.829,127.930,16.602,-34.180,75.195,0.000
1673144618.833,222.656,984.863,-41.504,179.688,0.000
1673144618.837,-90.332,116.211,-43.945,-45.410,0.000
1673144618.841,-259.277,-1000.000,-45.410,-194.824,0.000
1673144618.845,21.484,-544.922,-38.086,10.254,0.000
1673144618.849,244.141,807.617,-33.203,189.453,0.000
1673144618.853,-4.883,106.934,-50.781,22.461,0.000
1673144618.857,-270.020,-1000.000,-58.105,-195.801,0.000
1673144618.861,-71.777,-598.145,-47.852,-83.496,0.000
1673144618.865,227.051,569.336,-43.457,157.715,0.000
1673144618.868,98.145,492.676,-42.480,96.680,0.000
1673144618.872,-231.445,-620.117,-46.387,-163.574,0.000
1673144618.876,-172.363,-748.535,-41.504,-155.762,0.000
1673144618.880,168.457,161.621,-35.156,110.840,0.000
1673144618.884,159.668,604.004,-40.527,142.578,0.000
1673144618.888,-107.422,-202.637,-46.387,-68.359,0.000
1673144618.892,-166.016,-714.844,-47.852,-145.020,0.000
1673144618.896,-19.531,-437.988,-45.410,-28.320,0.000
1673144618.900,97.656,-386.230,-42.969,92.773,0.000
1673144618.904,-4.395,32.227,-42.969,13.672,0.000
1673144618.907,-143.066,-134.277,-48.828,-117.188,0.000
1673144618.911,-66.895,-598.633,-50.293,-62.988,0.000
1673144618.915,82.520,-25.879,-43.457,67.871,0.000
1673144618.919,36.621,504.883,-43.457,44.922,0.000
1673144618.923,-107.910,-16.113,-49.805,-88.867,0.000
1673144618.927,-89.355,-650.391,-46.387,-92.285,0.000
1673144618.931,57.617,-208.496,-42.969,51.758,0.000
1673144618.935,83.496,205.078,-45.898,99.609,0.000
1673144618.939,-66.406,-313.477,-45.410,-37.109,0.000
1673144618.943,-134.277,-942.871,-44.922,-109.863,0.000
1673144618.947,8.789,-567.383,-37.109,17.090,0.000
1673144618.950,104.004,500.488,-32.715,109.375,0.000
1673144618.954,-25.391,240.723,-41.504,-6.836,0.000
1673144618.958,-147.949,-619.141,-42.480,-125.977,0.000
1673144618.962,-33.203,-590.332,-41.016,-32.227,0.000
1673144618.966,97.656,-10.254,-41.504,86.426,0.000
1673144618.970,5.859,-36.621,-43.457,13.184,0.000
1673144618.974,-129.395,-527.344,-45.410,-115.234,0.000
1673144618.978,-66.406,-414.062,-43.457,-70.801,0.000
1673144618.982,79.590,-48.340,-39.551,65.918,0.000
1673144618.986,53.711,-104.004,-43.945,58.105,0.000
1673144618.989,-92.773,-717.773,-39.551,-85.938,0.000
1673144618.993,-103.516,-667.480,-35.645,-114.258,0.000
1673144618.997,45.898,133.789,-41.504,29.785,0.000
1673144619.001,101.562,308.594,-32.715,90.820,0.000
1673144619.005,-48.340,-132.324,-34.180,-42.480,0.000
1673144619.009,-141.602,-398.926,-41.016,-133.789,0.000
1673144619.013,-12.207,-132.812,-33.203,-11.230,0.000
1673144619.017,88.379,243.164,-28.320,94.727,0.000
1673144619.021,-32.227,83.984,-36.133,-4.883,0.000
1673144619.025,-200.195,-765.625,-35.645,-155.273,0.000
1673144619.029,3.418,-630.859,-28.320,-13.672,0.000
1673144619.032,221.680,41.016,-34.180,175.781,0.000
1673144619.036,-37.109,-317.871,-38.086,2.441,0.000
1673144619.040,-277.832,-695.801,-37.109,-204.102,0.000
1673144619.044,-61.035,-620.605,-38.086,-67.383,0.000
1673144619.048,226.562,394.043,-32.715,167.480,0.000
1673144619.052,65.430,749.023,-37.109,67.871,0.000
1673144619.056,-252.441,-432.617,-42.969,-188.965,0.000
1673144619.060,-152.832,-1000.000,-37.598,-137.207,0.000
1673144619.064,188.965,45.410,-36.133,123.047,0.000
1673144619.068,160.645,955.566,-39.551,127.441,0.000
1673144619.071,-185.059,42.969,-44.922,-126.465,0.000
1673144619.075,-230.957,-1000.000,-43.945,-179.199,0.000
1673144619.079,102.539,-713.379,-36.621,75.195,0.000
1673144619.083,210.938,515.137,-35.645,186.035,0.000
1673144619.087,-101.074,405.273,-42.969,-50.293,0.000
1673144619.091,-262.207,-857.422,-43.945,-203.613,0.000
1673144619.095,28.320,-577.637,-37.109,3.906,0.000
1673144619.099,245.117,808.594,-36.133,187.500,0.000
1673144619.103,-5.371,683.594,-43.457,20.996,0.000
1673144619.107,-276.855,-676.270,-47.363,-198.242,0.000
1673144619.111,-90.332,-744.141,-39.551,-82.520,0.000
1673144619.114,216.797,567.871,-35.645,166.504,0.000
1673144619.118,98.145,813.477,-40.039,104.004,0.000
1673144619.122,-230.957,-524.902,-44.434,-154.785,0.000
1673144619.126,-175.781,-979.492,-42.969,-135.254,0.000
1673144619.130,160.156,230.469,-38.086,126.953,0.000
1673144619.134,164.551,828.125,-41.992,164.551,0.000
1673144619.138,-172.363,-357.910,-46.875,-93.262,0.000
1673144619.142,-246.094,-1000.000,-43.457,-190.430,0.000
1673144619.146,84.961,-28.320,-35.156,50.293,0.000
1673144619.150,230.957,668.457,-34.668,190.430,0.000
1673144619.153,-56.641,-25.879,-39.062,-30.762,0.000
1673144619.157,-259.766,-855.469,-37.109,-215.820,0.000
1673144619.161,-4.883,-425.781,-33.203,-27.832,0.000
1673144619.165,236.816,596.191,-30.273,180.664,0.000
1673144619.169,43.945,99.609,-30.762,53.223,0.000
1673144619.173,-162.598,-693.359,-33.203,-128.418,0.000
1673144619.177,-112.793,-470.703,-35.645,-107.910,0.000
1673144619.181,33.203,-232.910,-34.180,35.645,0.000
1673144619.185,72.754,-259.766,-31.250,81.055,0.000
1673144619.189,-64.453,-199.707,-31.738,-50.781,0.000
1673144619.193,-132.324,-720.703,-33.203,-116.211,0.000
1673144619.196,6.348,-679.199,-34.180,4.883,0.000
1673144619.200,102.051,147.949,-36.621,94.727,0.000
1673144619.204,-26.855,218.262,-37.598,-10.742,0.000
1673144619.208,-141.113,-423.828,-37.598,-116.699,0.000
1673144619.212,-23.926,-588.379,-34.668,-17.578,0.000
1673144619.216,107.910,-241.211,-34.668,107.422,0.000
1673144619.220,21.973,-1.953,-37.109,33.691,0.000
1673144619.224,-115.723,-315.430,-37.598,-99.121,0.000
1673144619.228,-62.988,-946.777,-33.203,-51.270,0.000
1673144619.232,78.613,-464.844,-27.832,83.008,0.000
1673144619.235,48.828,437.500,-34.180,60.547,0.000
1673144619.239,-112.305,-68.359,-45.410,-86.914,0.000
1673144619.243,-122.070,-843.750,-44.922,-108.887,0.000
1673144619.247,29.297,-543.945,-41.504,27.344,0.000
1673144619.251,83.008,292.969,-39.062,87.402,0.000
1673144619.255,-53.711,64.941,-44.922,-40.527,0.000
1673144619.259,-134.277,-698.242,-50.781,-128.906,0.000
1673144619.263,-0.488,-467.285,-44.434,-5.859,0.000
1673144619.267,106.445,127.930,-36.621,100.586,0.000
1673144619.271,-15.625,-151.367,-38.574,0.000,0.000
1673144619.275,-145.508,-903.320,-44.434,-119.141,0.000
1673144619.278,-34.668,-439.941,-38.086,-37.598,0.000
1673144619.282,104.980,428.711,-30.273,96.680,0.000
1673144619.286,34.180,214.844,-29.297,50.781,0.000
1673144619.290,-118.164,-381.836,-34.180,-85.449,0.000
1673144619.294,-89.355,-293.457,-37.109,-68.359,0.000
1673144619.298,60.059,213.379,-37.598,64.453,0.000
1673144619.302,76.660,208.496,-37.598,82.520,0.000
1673144619.306,-125.977,-467.773,-37.109,-92.285,0.000
1673144619.310,-166.992,-992.188,-38.086,-145.508,0.000
1673144619.314,152.832,-77.637,-32.227,98.145,0.000
1673144619.317,160.156,164.062,-28.809,135.254,0.000
1673144619.321,-180.664,-885.742,-35.156,-131.348,0.000
1673144619.325,-224.609,-848.633,-33.203,-201.660,0.000
1673144619.329,107.422,-85.449,-24.902,54.199,0.000
1673144619.333,217.285,735.840,-29.297,170.410,0.000
1673144619.337,-92.773,68.848,-38.574,-56.641,0.000
1673144619.341,-264.160,-936.035,-38.574,-207.031,0.000
1673144619.345,15.137,-501.465,-29.785,-9.277,0.000
1673144619.349,235.840,610.352,-24.414,184.570,0.000
1673144619.353,-2.930,509.277,-29.785,25.391,0.000
1673144619.357,-272.461,-788.574,-33.203,-203.613,0.000
1673144619.360,-88.379,-990.723,-30.273,-84.961,0.000
1673144619.364,215.820,-302.246,-26.855,162.598,0.000
1673144619.368,91.797,537.109,-27.344,99.121,0.000
1673144619.372,-235.352,-79.590,-41.504,-157.715,0.000
1673144619.376,-169.434,-1000.000,-38.086,-129.883,0.000
1673144619.380,178.711,-36.621,-19.531,143.066,0.000
1673144619.384,182.129,-957.520,-20.508,169.434,0.000
1673144619.388,-165.039,134.277,-26.367,-95.703,0.000
1673144619.392,-241.699,-982.910,-23.438,-189.453,0.000
1673144619.396,70.801,-254.883,-21.973,47.852,0.000
1673144619.399,211.426,902.344,-22.949,186.035,0.000
1673144619.403,-71.777,124.512,-27.344,-24.902,0.000
1673144619.407,-274.902,-1000.000,-29.785,-197.266,0.000
1673144619.411,-20.508,-630.859,-27.344,-26.367,0.000
1673144619.415,228.516,585.938,-28.809,178.711,0.000
1673144619.419,24.902,518.555,-32.227,52.246,0.000
1673144619.423,-266.113,-679.688,-34.668,-184.570,0.000
1673144619.427,-113.770,-750.488,-30.273,-97.168,0.000
1673144619.431,208.008,278.320,-24.414,151.367,0.000
1673144619.435,115.723,514.160,-30.762,111.328,0.000
1673144619.439,-227.051,-491.699,-36.133,-145.996,0.000
1673144619.442,-204.102,-885.254,-31.250,-154.785,0.000
1673144619.446,132.812,161.133,-30.762,99.609,0.000
1673144619.450,179.688,551.270,-34.180,170.410,0.000
1673144619.454,-142.090,-549.316,-35.645,-64.941,0.000
1673144619.458,-262.207,-1000.000,-35.645,-195.801,0.000
1673144619.462,53.711,-100.098,-30.273,29.297,0.000
1673144619.466,208.008,722.168,-24.902,181.152,0.000
1673144619.470,-25.879,135.254,-28.320,14.160,0.000
1673144619.474,-178.711,-534.668,-25.391,-131.348,0.000
1673144619.478,-83.496,-378.418,-22.461,-67.871,0.000
1673144619.481,64.453,-15.137,-25.391,64.453,0.000
1673144619.485,56.641,210.449,-29.297,59.082,0.000
1673144619.489,-87.891,-56.641,-31.250,-80.566,0.000
1673144619.493,-106.445,-422.363,-29.297,-101.074,0.000
1673144619.497,50.781,-435.059,-27.832,40.527,0.000
1673144619.501,99.609,-29.297,-25.391,96.191,0.000
1673144619.505,-51.758,119.629,-33.203,-41.016,0.000
1673144619.509,-132.324,-430.176,-38.574,-127.930,0.000
1673144619.513,12.207,-510.742,-30.273,2.441,0.000
1673144619.517,116.699,197.754,-28.809,105.469,0.000
1673144619.521,-9.277,363.281,-39.062,0.977,0.000
1673144619.524,-135.742,-529.297,-38.086,-113.281,0.000
1673144619.528,-37.598,-884.277,-30.762,-26.855,0.000
1673144619.532,91.797,-59.570,-26.855,92.773,0.000
1673144619.536,23.438,483.887,-27.832,36.621,0.000
1673144619.540,-127.930,-271.973,-33.203,-106.934,0.000
1673144619.544,-64.941,-873.535,-30.762,-79.590,0.000
1673144619.548,187.012,187.500,-25.879,124.512,0.000
1673144619.552,79.590,777.344,-32.715,67.871,0.000
1673144619.556,-257.324,-443.359,-44.922,-187.988,0.000
1673144619.560,-169.434,-964.844,-41.504,-148.926,0.000
1673144619.563,170.410,217.285,-27.832,110.840,0.000
1673144619.567,149.902,959.961,-29.785,126.465,0.000
1673144619.571,-184.570,-201.172,-41.504,-124.512,0.000
1673144619.575,-233.887,-1000.000,-41.504,-181.641,0.000
1673144619.579,101.562,-91.309,-38.086,62.988,0.000
1673144619.583,218.750,694.824,-41.992,181.152,0.000
1673144619.587,-87.891,-124.023,-45.898,-41.992,0.000
1673144619.591,-261.230,-1000.000,-45.410,-203.613,0.000
1673144619.595,14.160,-559.082,-36.621,-9.277,0.000
1673144619.599,244.629,726.562,-37.598,178.223,0.000
1673144619.603,9.277,310.547,-44.434,22.461,0.000
1673144619.606,-271.973,-857.910,-45.898,-205.078,0.000
1673144619.610,-80.078,-656.738,-40.039,-86.914,0.000
1673144619.614,207.520,243.652,-37.109,150.391,0.000
1673144619.618,70.312,-78.125,-40.039,90.820,0.000
1673144619.622,-227.539,-931.641,-38.086,-155.762,0.000
1673144619.626,-166.016,-758.789,-33.691,-147.949,0.000
1673144619.630,84.961,-78.613,-32.227,66.406,0.000
1673144619.634,110.840,225.098,-33.203,101.562,0.000
1673144619.638,-60.547,-224.121,-30.273,-52.734,0.000
1673144619.642,-189.453,-936.035,-28.320,-166.992,0.000
1673144619.645,70.801,-625.488,-28.320,29.297,0.000
1673144619.649,230.469,425.781,-26.367,183.105,0.000
1673144619.653,-71.289,323.242,-35.156,-28.809,0.000
1673144619.657,-257.324,-631.348,-35.156,-200.684,0.000
1673144619.661,-34.668,-891.602,-34.180,-38.574,0.000
1673144619.665,137.695,-458.496,-37.598,132.324,0.000
1673144619.669,65.430,337.402,-33.691,88.867,0.000
1673144619.673,-97.168,-13.672,-33.691,-64.453,0.000
1673144619.677,-107.422,-685.547,-30.762,-84.961,0.000
1673144619.681,50.293,-187.988,-26.855,67.383,0.000
1673144619.685,90.820,224.609,-26.855,113.281,0.000
1673144619.688,-54.199,-292.969,-33.691,-22.461,0.000
1673144619.692,-127.441,-911.133,-36.621,-94.727,0.000
1673144619.696,12.695,-551.758,-30.273,29.297,0.000
1673144619.700,114.746,440.918,-31.250,122.559,0.000
1673144619.704,-15.625,238.281,-35.645,6.348,0.000
1673144619.708,-128.906,-712.402,-30.273,-103.027,0.000
1673144619.712,-8.301,-759.277,-26.855,-3.418,0.000
1673144619.716,116.699,85.938,-32.227,108.398,0.000
1673144619.720,24.902,270.508,-32.715,37.598,0.000
1673144619.724,-125.000,-422.363,-35.156,-94.727,0.000
1673144619.727,-64.941,-474.121,-30.273,-58.594,0.000
1673144619.731,81.543,-53.711,-23.926,77.637,0.000
1673144619.735,58.594,-34.180,-25.391,75.684,0.000
1673144619.739,-96.680,-520.020,-31.738,-72.266,0.000
1673144619.743,-124.512,-524.414,-35.645,-111.816,0.000
1673144619.747,32.227,132.812,-31.738,32.227,0.000
1673144619.751,91.309,103.027,-36.621,93.750,0.000
1673144619.755,-63.477,-630.371,-43.457,-39.551,0.000
1673144619.759,-145.020,-606.934,-39.062,-125.000,0.000
1673144619.763,-2.930,-100.098,-37.598,-3.906,0.000
1673144619.767,93.750,162.598,-41.992,99.121,0.000
1673144619.770,-22.461,9.766,-38.574,0.977,0.000
1673144619.774,-140.625,-329.102,-36.133,-119.141,0.000
1673144619.778,-34.180,-609.863,-34.668,-32.715,0.000
1673144619.782,106.445,-386.719,-28.809,109.375,0.000
1673144619.786,38.574,7.812,-27.344,56.641,0.000
1673144619.790,-104.492,-147.461,-25.879,-78.125,0.000
1673144619.794,-66.406,-370.117,-24.902,-56.152,0.000
1673144619.798,84.473,-442.871,-26.367,82.520,0.000
1673144619.802,84.473,-79.102,-27.832,91.309,0.000
1673144619.806,-61.035,-178.711,-34.668,-52.734,0.000
1673144619.809,-94.238,-959.961,-35.156,-107.422,0.000
1673144619.813,51.270,-531.738,-30.273,22.461,0.000
1673144619.817,118.652,431.152,-28.809,104.004,0.000
1673144619.821,-28.809,208.984,-34.180,-20.508,0.000
1673144619.825,-131.836,-813.965,-35.645,-111.816,0.000
1673144619.829,-8.789,-775.879,-27.832,-2.930,0.000
1673144619.833,106.934,228.516,-25.879,111.328,0.000
1673144619.837,-4.883,424.316,-31.250,16.602,0.000
1673144619.841,-138.184,-545.898,-36.133,-119.629,0.000
1673144619.845,-47.852,-800.781,-34.668,-54.688,0.000
1673144619.849,93.750,196.289,-30.273,78.125,0.000
1673144619.852,40.039,507.324,-31.250,49.316,0.000
1673144619.856,-113.281,-341.797,-28.809,-86.914,0.000
1673144619.860,-97.168,-815.430,-26.855,-83.008,0.000
1673144619.864,52.734,-209.961,-24.902,56.152,0.000
1673144619.868,73.730,354.492,-23.926,92.773,0.000
1673144619.872,-74.707,-360.840,-27.832,-45.410,0.000
1673144619.876,-126.465,-956.543,-31.738,-120.117,0.000
1673144619.880,16.602,-212.891,-32.715,10.742,0.000
1673144619.884,99.121,451.172,-34.180,100.586,0.000
1673144619.888,-38.574,-292.969,-38.086,-20.020,0.000
1673144619.891,-144.043,-837.891,-36.133,-127.441,0.000
1673144619.895,-20.996,-242.188,-35.645,-22.461,0.000
1673144619.899,104.980,12.695,-36.133,104.980,0.000
1673144619.903,16.113,-78.613,-35.156,25.391,0.000
1673144619.907,-117.676,-325.195,-37.109,-108.887,0.000
1673144619.911,-41.992,-291.504,-35.645,-53.711,0.000
1673144619.915,104.004,40.039,-34.668,82.520,0.000
1673144619.919,70.801,-52.734,-34.180,64.453,0.000
1673144619.923,-82.031,-630.371,-40.527,-79.102,0.000
1673144619.927,-91.309,-730.469,-41.992,-95.703,0.000
1673144619.931,58.105,-256.348,-33.203,43.945,0.000
1673144619.934,92.773,-358.398,-30.762,89.844,0.000
1673144619.938,-52.734,-297.852,-34.180,-52.734,0.000
1673144619.942,-121.094,-366.211,-34.180,-136.230,0.000
1673144619.946,11.719,-392.578,-29.297,-9.766,0.000
1673144619.950,109.863,153.320,-32.715,87.402,0.000
1673144619.954,-9.277,205.566,-39.551,-26.367,0.000
1673144619.958,-127.441,-382.324,-40.039,-143.066,0.000
1673144619.962,-28.320,-576.172,-36.621,-49.316,0.000
1673144619.966,108.887,-225.586,-35.645,82.031,0.000
1673144619.970,22.949,-0.488,-40.527,3.418,0.000
1673144619.973,-208.008,-596.191,-45.898,-194.824,0.000
1673144619.977,-53.711,-1000.000,-42.969,-88.379,0.000
1673144619.981,229.004,-60.059,-39.551,147.461,0.000
1673144619.985,45.898,807.129,-40.527,33.203,0.000
1673144619.989,-264.160,-382.812,-46.387,-217.285,0.000
1673144619.993,-151.367,-1000.000,-44.434,-167.969,0.000
1673144619.997,184.082,27.344,-36.621,95.703,0.000
1673144620.001,150.391,948.730,-36.621,98.145,0.000
1673144620.005,-187.012,-119.141,-42.480,-165.039,0.000
1673144620.009,-219.238,-1000.000,-38.574,-217.285,0.000
1673144620.013,110.352,-286.621,-27.832,43.457,0.000
1673144620.016,199.707,628.418,-27.344,146.484,0.000
1673144620.020,-113.770,12.207,-36.621,-85.449,0.000
1673144620.024,-259.277,-1000.000,-36.621,-220.215,0.000
1673144620.028,34.180,-437.012,-31.738,-9.766,0.000
1673144620.032,239.258,614.258,-28.320,174.316,0.000
1673144620.036,-9.766,178.711,-33.691,-5.371,0.000
1673144620.040,-256.348,-874.512,-39.551,-214.355,0.000
1673144620.044,-74.219,-611.328,-29.785,-94.238,0.000
1673144620.048,132.812,272.949,-27.832,82.520,0.000
1673144620.052,87.891,333.984,-28.320,67.383,0.000
1673144620.055,-70.801,-171.387,-30.273,-74.219,0.000
1673144620.059,-115.723,-714.844,-33.203,-122.070,0.000
1673144620.063,30.762,-382.324,-32.227,9.277,0.000
1673144620.067,102.051,-307.129,-30.762,90.820,0.000
1673144620.071,-30.762,-702.148,-35.645,-29.785,0.000
1673144620.075,-118.652,-453.125,-39.551,-131.836,0.000
1673144620.079,2.930,-197.266,-31.250,-19.043,0.000
1673144620.083,108.398,149.902,-24.414,82.031,0.000
1673144620.087,-10.254,-19.531,-28.809,-23.926,0.000
1673144620.091,-140.625,-658.691,-29.785,-148.926,0.000
1673144620.095,-50.293,-765.625,-26.367,-73.242,0.000
1673144620.098,83.984,-33.203,-23.438,54.688,0.000
1673144620.102,30.762,400.879,-24.414,16.113,0.000
1673144620.106,-115.723,-311.523,-27.832,-117.676,0.000
1673144620.110,-95.703,-871.094,-29.297,-110.352,0.000
1673144620.114,56.152,-661.133,-30.273,32.715,0.000
1673144620.118,74.707,158.203,-27.832,55.176,0.000
1673144620.122,-72.754,224.121,-30.273,-68.359,0.000
1673144620.126,-132.812,-603.027,-27.832,-116.699,0.000
1673144620.130,12.207,-342.773,-22.461,18.555,0.000
1673144620.134,106.445,521.484,-23.926,113.281,0.000
1673144620.137,-29.785,287.109,-31.738,-9.766,0.000
1673144620.141,-144.531,-682.129,-39.551,-123.047,0.000
1673144620.145,-31.250,-562.988,-36.133,-30.762,0.000
1673144620.149,93.750,403.320,-33.203,86.426,0.000
1673144620.153,3.906,198.730,-32.715,19.043,0.000
1673144620.157,-133.301,-773.926,-36.133,-107.910,0.000
1673144620.161,-65.430,-799.805,-36.133,-58.105,0.000
1673144620.165,79.102,242.188,-30.273,76.660,0.000
1673144620.169,46.875,506.836,-32.227,60.547,0.000
1673144620.173,-106.934,-270.508,-36.621,-74.707,0.000
1673144620.177,-106.934,-583.008,-27.832,-82.031,0.000
1673144620.180,52.246,-221.191,-20.996,53.223,0.000
1673144620.184,90.820,129.395,-27.832,96.680,0.000
1673144620.188,-55.176,-154.297,-30.273,-36.621,0.000
1673144620.192,-132.324,-510.254,-26.855,-128.906,0.000
1673144620.196,4.883,-171.875,-30.762,-9.766,0.000
1673144620.200,103.516,125.488,-31.250,99.121,0.000
1673144620.204,-24.902,-351.562,-33.691,-7.812,0.000
1673144620.208,-138.184,-721.191,-32.715,-118.164,0.000
1673144620.212,-29.785,-231.445,-26.855,-23.438,0.000
1673144620.216,96.680,41.504,-24.414,102.051,0.000
1673144620.219,14.160,-348.633,-26.855,36.133,0.000
1673144620.223,-129.883,-414.062,-26.855,-110.352,0.000
1673144620.227,-73.730,-245.117,-23.926,-72.754,0.000
1673144620.231,76.660,-39.551,-27.832,73.730,0.000
1673144620.235,59.570,161.133,-31.250,71.777,0.000
1673144620.239,-90.820,-24.902,-31.250,-63.477,0.000
1673144620.243,-105.957,-390.137,-28.320,-81.055,0.000
1673144620.247,46.387,-501.465,-24.902,57.617,0.000
1673144620.251,97.168,-294.434,-31.250,110.352,0.000
1673144620.255,-48.828,-238.770,-34.180,-13.184,0.000
1673144620.259,-138.672,-572.754,-31.738,-104.980,0.000
1673144620.262,-0.488,-655.273,-29.297,9.766,0.000
1673144620.266,117.676,14.160,-24.414,126.465,0.000
1673144620.270,6.348,282.715,-29.297,20.020,0.000
1673144620.274,-122.559,-667.969,-38.086,-108.398,0.000
1673144620.278,-24.902,-720.215,-31.250,-27.344,0.000
1673144620.282,112.793,217.773,-29.785,98.145,0.000
1673144620.286,47.852,476.562,-35.645,45.410,0.000
1673144620.290,-97.168,-292.969,-32.715,-82.031,0.000
1673144620.294,-61.035,-920.898,-29.785,-60.059,0.000
1673144620.298,86.914,-242.676,-28.320,62.988,0.000
1673144620.301,82.520,578.125,-31.250,59.082,0.000
1673144620.305,-72.754,-93.750,-37.598,-91.797,0.000
1673144620.309,-111.328,-1000.000,-38.086,-145.020,0.000
1673144620.313,35.156,-346.680,-30.762,-18.066,0.000
1673144620.317,103.516,581.055,-31.738,57.617,0.000
1673144620.321,-31.738,50.293,-35.645,-60.059,0.000
1673144620.325,-153.809,-693.848,-38.574,-187.988,0.000
1673144620.329,27.344,-77.637,-37.109,-54.199,0.000
1673144620.333,196.777,924.316,-31.250,89.844,0.000
1673144620.337,-72.266,99.121,-36.621,-119.141,0.000
1673144620.341,-270.996,-1000.000,-41.016,-284.180,0.000
1673144620.344,-5.859,-607.910,-38.086,-82.031,0.000
1673144620.348,226.074,747.070,-31.738,124.023,0.000
1673144620.352,3.906,177.246,-35.645,-13.672,0.000
1673144620.356,-265.625,-1000.000,-42.969,-242.188,0.000
1673144620.360,-90.332,-679.199,-36.133,-158.691,0.000
1673144620.364,225.098,457.031,-26.367,69.824,0.000
1673144620.368,118.164,503.418,-30.762,10.254,0.000
1673144620.372,-215.332,-664.062,-41.504,-252.441,0.000
1673144620.376,-173.828,-903.809,-28.809,-255.371,0.000
1673144620.380,168.457,94.238,-18.555,8.789,0.000
1673144620.383,196.777,640.625,-26.855,60.059,0.000
1673144620.387,-140.137,-296.387,-31.250,-183.105,0.000
1673144620.391,-233.398,-1000.000,-29.785,-279.785,0.000
1673144620.395,83.008,-341.309,-26.367,-43.945,0.000
1673144620.399,231.934,38.086,-26.855,107.422,0.000
1673144620.403,-53.223,-58.105,-32.715,-97.656,0.000
1673144620.407,-268.066,-607.422,-33.691,-282.715,0.000
1673144620.411,-20.508,-704.102,-26.367,-112.305,0.000
1673144620.415,237.793,456.055,-24.902,103.516,0.000
1673144620.419,32.715,728.027,-32.715,-30.273,0.000
1673144620.423,-258.789,-614.258,-39.551,-266.113,0.000
1673144620.426,-115.723,-1000.000,-37.598,-185.059,0.000
1673144620.430,122.070,-113.770,-30.762,16.113,0.000
1673144620.434,93.750,272.461,-28.809,33.691,0.000
1673144620.438,-73.730,-297.852,-31.738,-115.723,0.000
1673144620.442,-155.273,-959.961,-33.203,-198.730,0.000
1673144620.446,-13.672,-579.102,-30.762,-64.453,0.000
1673144620.450,95.215,538.574,-23.438,32.227,0.000
1673144620.454,-27.344,341.797,-24.902,-73.242,0.000
1673144620.458,-143.066,-594.727,-35.156,-181.152,0.000
1673144620.462,-25.391,-657.715,-32.715,-82.520,0.000
1673144620.465,106.445,84.961,-27.344,55.664,0.000
1673144620.469,19.043,298.340,-35.156,0.488,0.000
1673144620.473,-122.070,-432.617,-43.457,-127.441,0.000
1673144620.477,-62.012,-644.043,-37.598,-88.867,0.000
1673144620.481,91.309,-176.758,-27.344,59.570,0.000
1673144620.485,70.312,-18.555,-29.785,67.871,0.000
1673144620.489,-83.984,-659.668,-34.668,-68.359,0.000
1673144620.493,-96.191,-725.098,-30.273,-92.773,0.000
1673144620.497,62.500,28.320,-28.809,44.922,0.000
1673144620.501,118.164,330.078,-33.203,101.562,0.000
1673144620.505,-23.438,-73.730,-33.691,-21.484,0.000
1673144620.508,-110.352,-368.164,-35.156,-101.074,0.000
1673144620.512,16.602,-104.980,-29.297,26.855,0.000
1673144620.516,119.141,187.500,-24.902,143.066,0.000
1673144620.520,0.000,85.938,-25.879,50.293,0.000
1673144620.524,-124.512,-352.051,-26.367,-70.801,0.000
1673144620.528,-23.438,-508.789,-23.438,-1.465,0.000
1673144620.532,114.258,-549.805,-19.531,125.000,0.000
1673144620.536,46.875,-571.289,-21.484,80.078,0.000
1673144620.540,-102.539,-199.219,-23.438,-65.430,0.000
1673144620.544,-68.359,-355.957,-26.367,-61.035,0.000
1673144620.547,83.984,-130.859,-25.879,73.242,0.000
1673144620.551,87.891,362.793,-31.738,90.820,0.000
1673144620.555,-72.266,-150.879,-42.480,-52.734,0.000
1673144620.559,-119.629,-884.766,-35.645,-100.586,0.000
1673144620.563,30.273,-410.156,-28.320,37.109,0.000
1673144620.567,107.422,416.016,-29.785,115.723,0.000
1673144620.571,-31.250,141.113,-33.203,-1.465,0.000
1673144620.575,-137.207,-802.246,-35.156,-104.004,0.000
1673144620.579,-7.324,-951.660,-30.762,6.348,0.000
1673144620.583,114.258,46.875,-23.438,123.047,0.000
1673144620.587,8.789,441.895,-22.461,34.668,0.000
1673144620.590,-128.906,-524.902,-20.020,-88.867,0.000
1673144620.594,-48.340,-666.504,-17.090,-18.555,0.000
1673144620.598,96.680,264.648,-18.066,118.164,0.000
1673144620.602,45.898,501.953,-26.855,81.055,0.000
1673144620.606,-103.516,-373.047,-37.109,-59.082,0.000
1673144620.610,-89.355,-759.766,-32.715,-62.988,0.000
1673144620.614,60.059,56.152,-29.297,76.660,0.000
1673144620.618,85.938,530.762,-33.691,109.863,0.000
1673144620.622,-57.129,-316.895,-36.133,-27.344,0.000
1673144620.626,-116.211,-1000.000,-34.180,-91.309,0.000
1673144620.629,32.227,-262.207,-24.902,37.598,0.000
1673144620.633,122.559,472.168,-23.438,127.441,0.000
1673144620.637,-15.137,-144.531,-29.297,8.789,0.000
1673144620.641,-131.348,-698.730,-30.273,-100.098,0.000
1673144620.645,-23.438,-439.941,-27.344,-4.395,0.000
1673144620.649,99.609,-101.562,-25.879,113.770,0.000
1673144620.653,20.020,-251.465,-27.832,48.828,0.000
1673144620.657,-117.188,-568.359,-35.156,-88.867,0.000
1673144620.661,-57.129,-389.160,-35.645,-60.059,0.000
1673144620.665,90.332,9.277,-34.668,71.289,0.000
1673144620.669,53.711,-54.688,-34.180,58.105,0.000
1673144620.672,-103.516,-590.820,-31.738,-82.031,0.000
1673144620.676,-110.840,-542.969,-33.203,-104.004,0.000
1673144620.680,39.551,-211.426,-33.203,34.668,0.000
1673144620.684,72.266,5.371,-33.691,83.984,0.000
1673144620.688,-81.543,67.383,-37.598,-50.781,0.000
1673144620.692,-151.367,-308.594,-36.133,-131.836,0.000
1673144620.696,-8.789,-520.020,-31.250,-3.418,0.000
1673144620.700,93.750,-448.730,-34.180,103.516,0.000
1673144620.704,-26.367,-88.867,-35.645,-6.836,0.000
1673144620.708,-150.879,-312.012,-36.621,-124.023,0.000
1673144620.711,-37.109,-537.109,-33.691,-29.785,0.000
1673144620.715,108.887,-274.902,-26.855,101.074,0.000
1673144620.719,29.297,-2.930,-31.250,34.180,0.000
1673144620.723,-118.652,-274.902,-41.992,-106.934,0.000
1673144620.727,-61.035,-733.887,-39.551,-76.172,0.000
1673144620.731,88.379,-115.234,-30.762,50.293,0.000
1673144620.735,69.336,530.273,-32.715,47.852,0.000
1673144620.739,-80.566,-21.973,-39.062,-93.262,0.000
1673144620.743,-102.051,-826.172,-40.039,-132.324,0.000
1673144620.747,51.270,-350.098,-34.180,0.488,0.000
1673144620.751,114.746,631.836,-35.156,68.359,0.000
1673144620.754,-35.645,156.738,-44.922,-64.453,0.000
1673144620.758,-149.902,-908.203,-43.457,-175.781,0.000
1673144620.762,79.590,-502.441,-32.227,6.348,0.000
1673144620.766,213.867,689.941,-34.668,123.535,0.000
1673144620.770,-98.633,142.578,-44.434,-96.680,0.000
1673144620.774,-248.047,-1000.000,-40.039,-226.562,0.000
1673144620.778,-7.324,-495.605,-31.738,-63.965,0.000
1673144620.782,142.578,491.211,-29.297,71.289,0.000
1673144620.786,47.852,163.086,-29.297,10.742,0.000
1673144620.790,-103.516,-792.969,-34.668,-125.000,0.000
1673144620.794,-74.219,-513.672,-32.227,-120.117,0.000
1673144620.797,79.590,225.586,-31.250,18.555,0.000
1673144620.801,87.891,302.246,-33.691,53.711,0.000
1673144620.805,-67.383,-235.840,-36.621,-71.289,0.000
1673144620.809,-110.352,-794.922,-38.086,-114.746,0.000
1673144620.813,31.738,-576.172,-33.203,30.273,0.000
1673144620.817,98.633,-75.684,-32.715,114.258,0.000
1673144620.821,-37.598,-71.289,-40.039,-20.996,0.000
1673144620.825,-133.789,-282.715,-42.969,-129.395,0.000
1673144620.829,-4.395,-169.922,-38.574,-23.926,0.000
1673144620.833,122.070,-102.539,-35.156,93.750,0.000
1673144620.836,15.625,-284.668,-36.133,-1.953,0.000
1673144620.840,-195.312,-743.164,-40.039,-194.824,0.000
1673144620.844,-16.602,-612.793,-34.668,-68.359,0.000
1673144620.848,247.070,469.238,-30.273,153.320,0.000
1673144620.852,29.785,500.488,-34.180,6.348,0.000
1673144620.856,-264.160,-658.203,-37.109,-239.258,0.000
1673144620.860,-96.680,-1000.000,-32.227,-126.465,0.000
1673144620.864,200.195,29.297,-28.320,110.352,0.000
1673144620.868,87.891,612.305,-33.691,48.828,0.000
1673144620.872,-214.355,-383.301,-41.504,-175.293,0.000
1673144620.876,-179.688,-1000.000,-41.016,-173.828,0.000
1673144620.879,159.668,-446.289,-30.762,92.773,0.000
1673144620.883,199.219,828.125,-26.855,156.738,0.000
1673144620.887,-130.859,228.027,-28.809,-82.031,0.000
1673144620.891,-223.633,-938.477,-25.879,-172.852,0.000
1673144620.895,79.590,-259.277,-24.902,55.664,0.000
1673144620.899,209.473,958.984,-29.785,179.688,0.000
1673144620.903,-66.406,137.695,-33.691,-3.418,0.000
1673144620.907,-277.344,-1000.000,-33.203,-169.434,0.000
1673144620.911,-40.527,-529.297,-27.344,-30.273,0.000
1673144620.915,221.680,720.703,-27.344,165.039,0.000
1673144620.918,30.273,727.051,-36.133,40.039,0.000
1673144620.922,-275.879,-613.770,-41.016,-205.566,0.000
1673144620.926,-148.926,-964.844,-35.156,-140.625,0.000
1673144620.930,179.199,128.906,-30.762,116.211,0.000
1673144620.934,120.605,607.910,-29.785,100.586,0.000
1673144620.938,-216.309,-422.852,-30.762,-153.320,0.000
1673144620.942,-229.492,-953.613,-25.391,-187.500,0.000
1673144620.946,116.211,127.930,-19.043,60.547,0.000
1673144620.950,176.758,602.539,-25.879,134.766,0.000
1673144620.954,-97.168,-197.266,-33.691,-60.059,0.000
1673144620.958,-184.082,-515.625,-34.668,-157.227,0.000
1673144620.961,-49.316,-173.340,-35.645,-50.293,0.000
1673144620.965,84.473,57.617,-36.133,76.660,0.000
1673144620.969,16.602,-326.172,-34.668,19.531,0.000
1673144620.973,-126.953,-374.023,-36.133,-111.328,0.000
1673144620.977,-77.637,-295.410,-36.621,-82.031,0.000
1673144620.981,68.359,-199.219,-33.691,51.758,0.000
1673144620.985,81.543,253.906,-30.273,74.707,0.000
1673144620.989,-146.484,-59.082,-35.645,-117.188,0.000
1673144620.993,-158.691,-712.891,-42.969,-149.414,0.000
1673144620.997,176.270,-308.105,-43.457,106.934,0.000
1673144621.000,161.621,268.555,-44.434,131.836,0.000
1673144621.004,-173.828,-143.066,-46.387,-111.328,0.000
1673144621.008,-208.008,-858.887,-43.945,-164.062,0.000
1673144621.012,122.070,-683.594,-39.551,87.891,0.000
1673144621.016,216.797,233.887,-37.598,197.266,0.000
1673144621.020,-88.867,271.484,-43.457,-26.855,0.000
1673144621.024,-255.859,-964.844,-47.852,-178.223,0.000
1673144621.028,32.227,-634.766,-38.086,27.832,0.000
1673144621.032,229.492,704.102,-36.621,185.547,0.000
1673144621.036,-25.879,395.020,-47.363,5.859,0.000
1673144621.040,-254.883,-827.148,-49.805,-179.688,0.000
1673144621.043,-60.059,-918.457,-38.574,-60.059,0.000
1673144621.047,233.887,252.930,-28.809,167.969,0.000
1673144621.051,95.703,819.824,-33.691,93.750,0.000
1673144621.055,-235.840,-376.953,-41.992,-150.879,0.000
1673144621.059,-168.457,-979.004,-38.086,-122.559,0.000
1673144621.063,170.410,201.172,-29.297,133.789,0.000
1673144621.067,170.410,-957.031,-31.738,156.738,0.000
1673144621.071,-156.738,-69.336,-37.598,-88.379,0.000
1673144621.075,-220.703,-1000.000,-31.738,-165.039,0.000
1673144621.079,101.562,-137.207,-24.902,67.383,0.000
1673144621.082,236.328,967.773,-29.297,192.871,0.000
1673144621.086,-76.172,103.027,-36.133,-25.879,0.000
1673144621.090,-250.488,-1000.000,-35.645,-166.504,0.000
1673144621.094,33.691,-675.781,-25.391,34.180,0.000
1673144621.098,246.582,365.723,-23.926,208.496,0.000
1673144621.102,27.832,27.832,-36.133,73.242,0.000
1673144621.106,-252.441,-1000.000,-40.039,-154.297,0.000
1673144621.110,-90.332,-728.027,-32.227,-67.383,0.000
1673144621.114,215.332,478.027,-28.809,175.781,0.000
1673144621.118,120.117,542.969,-29.297,129.395,0.000
1673144621.122,-215.332,-597.656,-31.250,-142.578,0.000
1673144621.125,-184.082,-872.070,-26.855,-164.551,0.000
1673144621.129,156.738,4.395,-18.555,77.637,0.000
1673144621.133,197.754,687.012,-22.949,121.094,0.000
1673144621.137,-124.512,-202.148,-30.762,-125.977,0.000
1673144621.141,-229.492,-1000.000,-29.297,-245.605,0.000
1673144621.145,83.008,-369.629,-22.461,-21.973,0.000
1673144621.149,247.559,21.484,-21.484,131.348,0.000
1673144621.153,-40.527,-55.664,-26.855,-67.383,0.000
1673144621.157,-262.695,-586.426,-34.180,-246.094,0.000
1673144621.161,-14.648,-718.750,-27.832,-73.730,0.000
1673144621.164,249.512,429.688,-22.949,147.949,0.000
1673144621.168,54.199,800.293,-31.250,31.738,0.000
1673144621.172,-242.188,-405.762,-37.109,-209.961,0.000
1673144621.176,-105.957,-979.492,-30.273,-139.160,0.000
1673144621.180,199.707,148.926,-23.926,104.004,0.000
1673144621.184,129.883,579.102,-31.250,80.078,0.000
1673144621.188,-192.871,-464.355,-37.598,-157.715,0.000
1673144621.192,-199.707,-1000.000,-33.203,-172.363,0.000
1673144621.196,142.090,-377.441,-23.926,106.934,0.000
1673144621.200,185.547,858.398,-24.902,165.527,0.000
1673144621.204,-159.180,78.125,-30.762,-87.891,0.000
1673144621.207,-271.484,-970.215,-33.203,-176.270,0.000
1673144621.211,23.926,-576.172,-29.297,28.320,0.000
1673144621.215,218.262,650.879,-25.391,184.570,0.000
1673144621.219,-32.227,510.254,-35.156,18.066,0.000
1673144621.223,-271.484,-854.492,-38.574,-182.129,0.000
1673144621.227,-58.105,-663.574,-31.738,-44.922,0.000
1673144621.231,221.680,423.340,-29.297,193.848,0.000
1673144621.235,59.570,394.043,-37.109,97.168,0.000
1673144621.239,-250.977,-769.043,-40.527,-151.855,0.000
1673144621.243,-136.719,-837.891,-29.785,-107.910,0.000
1673144621.246,205.566,477.539,-26.367,143.066,0.000
1673144621.250,170.410,785.156,-33.691,151.855,0.000
1673144621.254,-171.875,-257.812,-38.574,-106.445,0.000
1673144621.258,-211.914,-840.820,-36.621,-169.434,0.000
1673144621.262,121.094,-263.184,-31.738,75.684,0.000
1673144621.266,224.121,531.250,-32.227,192.383,0.000
1673144621.270,-97.656,163.574,-39.551,-39.062,0.000
1673144621.274,-234.375,-721.191,-39.062,-175.781,0.000
1673144621.278,57.617,-504.883,-31.738,26.855,0.000
1673144621.282,234.375,-24.902,-33.691,186.523,0.000
1673144621.286,-0.488,-323.242,-38.574,36.621,0.000
1673144621.289,-259.766,-683.594,-40.039,-188.477,0.000
1673144621.293,-71.289,-625.977,-35.645,-82.031,0.000
1673144621.297,236.328,243.652,-30.762,154.785,0.000
1673144621.301,106.445,618.652,-33.691,82.520,0.000
1673144621.305,-226.074,-392.578,-41.504,-177.734,0.000
1673144621.309,-155.762,-1000.000,-39.551,-161.621,0.000
1673144621.313,187.500,-30.762,-26.855,104.004,0.000
1673144621.317,189.453,754.883,-25.391,138.672,0.000
1673144621.321,-140.625,-118.652,-32.227,-111.816,0.000
1673144621.325,-210.938,-1000.000,-35.156,-198.242,0.000
1673144621.328,104.980,-826.172,-29.297,35.156,0.000
1673144621.332,235.840,434.082,-28.320,163.086,0.000
1673144621.336,-68.848,506.836,-40.527,-54.199,0.000
1673144621.340,-257.812,-784.180,-42.480,-217.285,0.000
1673144621.344,4.883,-601.562,-32.715,-26.367,0.000
1673144621.348,251.465,777.832,-31.738,184.570,0.000
1673144621.352,35.645,722.656,-34.180,48.828,0.000
1673144621.356,-261.719,-602.539,-36.133,-192.383,0.000
1673144621.360,-101.074,-760.742,-34.668,-118.652,0.000
1673144621.364,228.027,569.824,-24.902,134.277,0.000
1673144621.368,113.281,810.547,-28.809,67.871,0.000
1673144621.371,-233.887,-499.023,-37.598,-210.938,0.000
1673144621.375,-184.570,-1000.000,-35.156,-201.172,0.000
1673144621.379,153.809,-114.258,-29.297,51.758,0.000
1673144621.383,201.172,986.328,-28.320,121.094,0.000
1673144621.387,-135.742,-97.168,-31.738,-116.699,0.000
1673144621.391,-244.141,-1000.000,-34.668,-231.445,0.000
1673144621.395,75.684,-143.066,-25.391,-6.836,0.000
1673144621.399,224.609,722.168,-17.578,138.672,0.000
1673144621.403,-10.254,255.859,-26.367,-21.484,0.000
1673144621.407,-154.785,-394.531,-26.367,-159.180,0.000
1673144621.410,-58.105,-328.613,-21.484,-90.332,0.000
1673144621.414,76.172,139.160,-25.391,44.922,0.000
1673144621.418,44.922,-118.652,-33.203,36.133,0.000
1673144621.422,-102.051,-503.906,-39.062,-104.980,0.000
1673144621.426,-102.051,-421.875,-38.574,-127.930,0.000
1673144621.430,52.246,-347.168,-31.738,9.766,0.000
1673144621.434,92.285,-230.957,-36.133,69.336,0.000
1673144621.438,-60.547,-79.102,-41.992,-57.129,0.000
1673144621.442,-138.672,-327.148,-39.551,-133.301,0.000
1673144621.446,6.836,-388.184,-30.762,-7.812,0.000
1673144621.450,123.535,182.129,-28.320,101.562,0.000
1673144621.453,7.812,372.559,-28.809,9.277,0.000
1673144621.457,-116.211,-243.652,-28.809,-107.910,0.000
1673144621.461,-20.020,-553.223,-30.273,-29.297,0.000
1673144621.465,104.004,-229.492,-29.785,92.773,0.000
1673144621.469,27.344,102.051,-30.762,34.668,0.000
1673144621.473,-110.840,-145.996,-38.086,-103.027,0.000
1673144621.477,-58.594,-841.309,-41.992,-69.336,0.000
1673144621.481,90.820,-505.371,-37.598,76.172,0.000
1673144621.485,84.961,332.520,-34.180,81.055,0.000
1673144621.489,-76.660,-264.160,-38.086,-64.941,0.000
1673144621.492,-117.676,-901.855,-35.645,-113.281,0.000
1673144621.496,31.738,-265.625,-29.297,24.902,0.000
1673144621.500,98.633,566.895,-29.297,97.168,0.000
1673144621.504,-43.457,100.098,-37.598,-29.297,0.000
1673144621.508,-142.578,-692.383,-37.598,-117.188,0.000
1673144621.512,-10.742,-525.391,-31.250,0.977,0.000
1673144621.516,104.004,79.102,-26.855,106.445,0.000
1673144621.520,-12.207,-79.590,-30.273,9.766,0.000
1673144621.524,-136.719,-846.680,-35.156,-101.074,0.000
1673144621.528,-44.434,-474.121,-32.227,-34.668,0.000
1673144621.532,85.449,480.469,-32.715,85.938,0.000
1673144621.535,25.391,337.891,-36.621,42.969,0.000
1673144621.539,-114.746,-453.613,-37.109,-89.355,0.000
1673144621.543,-80.566,-556.152,-35.156,-69.824,0.000
1673144621.547,62.500,165.527,-38.086,60.547,0.000
1673144621.551,75.195,390.137,-42.969,80.078,0.000
1673144621.555,-72.266,-138.184,-46.875,-52.246,0.000
1673144621.559,-123.535,-695.801,-47.852,-104.980,0.000
1673144621.563,20.020,-379.883,-44.922,24.902,0.000
1673144621.567,99.609,-203.125,-44.922,116.211,0.000
1673144621.571,-25.391,-568.359,-47.363,0.488,0.000
1673144621.574,-126.465,-382.324,-51.758,-100.098,0.000
1673144621.578,-7.812,-200.684,-45.410,15.137,0.000
1673144621.582,115.234,265.137,-36.133,125.488,0.000
1673144621.586,17.578,111.816,-36.621,43.945,0.000
1673144621.590,-114.746,-423.340,-30.273,-74.219,0.000
1673144621.594,-38.574,-434.570,-24.414,-11.719,0.000
1673144621.598,99.609,-113.281,-27.344,118.652,0.000
1673144621.602,52.246,356.445,-34.180,77.148,0.000
1673144621.606,-98.145,-126.465,-36.133,-62.500,0.000
1673144621.610,-87.891,-731.934,-30.762,-67.383,0.000
1673144621.614,69.336,-672.852,-22.949,85.938,0.000
1673144621.617,98.633,189.453,-20.020,137.695,0.000
1673144621.621,-60.547,443.359,-26.367,0.488,0.000
1673144621.625,-135.254,-453.613,-32.715,-62.988,0.000
1673144621.629,0.977,-314.941,-32.227,65.918,0.000
1673144621.633,97.656,556.152,-29.785,153.809,0.000
1673144621.637,-20.996,468.262,-34.668,44.922,0.000
1673144621.641,-135.742,-454.590,-35.156,-72.266,0.000
1673144621.645,-18.555,-418.457,-27.832,18.555,0.000
1673144621.649,114.258,405.762,-28.320,147.461,0.000
1673144621.653,23.926,166.504,-31.250,85.449,0.000
1673144621.656,-110.840,-739.746,-30.762,-36.621,0.000
1673144621.660,-49.805,-789.551,-21.484,8.789,0.000
1673144621.664,91.309,277.832,-22.949,132.324,0.000
1673144621.668,71.777,603.027,-31.738,112.305,0.000
1673144621.672,-81.055,-149.414,-32.715,-32.715,0.000
1673144621.676,-97.168,-455.566,-36.133,-61.035,0.000
1673144621.680,54.199,-103.516,-36.133,71.777,0.000
1673144621.684,93.750,158.691,-32.715,125.488,0.000
1673144621.688,-64.941,-149.902,-35.645,-3.906,0.000
1673144621.692,-144.531,-488.770,-35.156,-84.473,0.000
1673144621.696,-5.859,-94.238,-29.785,32.715,0.000
1673144621.699,104.492,229.980,-31.250,143.066,0.000
1673144621.703,-27.832,-386.230,-35.156,44.434,0.000
1673144621.707,-215.332,-1000.000,-37.109,-116.699,0.000
1673144621.711,4.883,-415.527,-32.227,43.457,0.000
1673144621.715,234.863,667.480,-34.180,236.816,0.000
1673144621.719,-25.391,351.074,-41.992,55.664,0.000
1673144621.723,-272.949,-753.906,-41.504,-149.414,0.000
1673144621.727,-53.223,-557.129,-33.691,-8.789,0.000
1673144621.731,229.980,501.953,-29.297,219.238,0.000
1673144621.735,97.168,710.449,-31.738,141.113,0.000
1673144621.738,-288.086,-313.477,-36.621,-156.738,0.000
1673144621.742,-197.754,-898.438,-30.273,-120.605,0.000
1673144621.746,308.594,73.242,-23.926,258.301,0.000
1673144621.750,211.914,722.656,-34.180,229.004,0.000
1673144621.754,-321.777,-210.449,-44.922,-156.738,0.000
1673144621.758,-318.848,-1000.000,-38.574,-188.477,0.000
1673144621.762,218.262,-318.848,-24.414,193.848,0.000
1673144621.766,337.891,938.965,-23.926,312.988,0.000
1673144621.770,-174.316,254.883,-40.527,-46.387,0.000
1673144621.774,-379.883,-1000.000,-45.898,-228.027,0.000
1673144621.778,39.062,-589.355,-33.691,53.223,0.000
1673144621.781,276.855,740.234,-29.785,250.977,0.000
1673144621.785,13.184,759.766,-35.156,71.777,0.000
1673144621.789,-253.418,-516.113,-41.016,-149.902,0.000
1673144621.793,-67.871,-910.645,-30.762,-41.016,0.000
1673144621.797,238.281,291.016,-23.438,197.266,0.000
1673144621.801,110.352,939.453,-31.250,129.395,0.000
1673144621.805,-220.215,-264.648,-36.133,-124.023,0.000
1673144621.809,-168.457,-943.359,-33.203,-106.934,0.000
1673144621.813,167.480,252.441,-27.832,141.602,0.000
1673144621.817,199.707,-958.496,-33.203,188.477,0.000
1673144621.820,-203.613,-112.305,-41.992,-103.027,0.000
1673144621.824,-313.965,-1000.000,-42.480,-217.773,0.000
1673144621.828,180.176,40.527,-32.227,136.719,0.000
1673144621.832,347.168,-816.895,-26.367,294.922,0.000
1673144621.836,-138.672,154.297,-32.227,-43.945,0.000
1673144621.840,-393.555,-1000.000,-32.715,-260.254,0.000
1673144621.844,42.969,-508.301,-23.438,33.691,0.000
1673144621.848,387.207,986.328,-24.414,307.129,0.000
1673144621.852,11.719,401.855,-35.156,63.965,0.000
1673144621.856,-418.457,-1000.000,-37.598,-259.766,0.000
1673144621.860,-120.605,-672.852,-34.180,-77.148,0.000
1673144621.863,366.699,823.242,-32.227,281.738,0.000
1673144621.867,165.039,397.461,-39.062,173.340,0.000
1673144621.871,-355.469,-964.355,-47.363,-214.355,0.000
1673144621.875,-245.117,-967.773,-44.434,-185.059,0.000
1673144621.879,297.852,143.066,-40.527,208.496,0.000
1673144621.883,291.504,-979.004,-41.992,245.117,0.000
1673144621.887,-261.719,-158.691,-45.410,-144.043,0.000
1673144621.891,-391.113,-1000.000,-39.062,-265.625,0.000
1673144621.895,114.746,-212.402,-31.250,93.262,0.000
1673144621.899,330.078,928.223,-34.668,281.738,0.000
1673144621.902,-131.836,448.730,-44.922,-43.457,0.000
1673144621.906,-432.617,-846.680,-44.922,-293.457,0.000
1673144621.910,-19.043,-819.824,-38.086,-17.090,0.000
1673144621.914,371.094,375.000,-40.039,285.156,0.000
1673144621.918,36.621,730.957,-44.434,69.336,0.000
1673144621.922,-417.480,-628.418,-51.270,-280.273,0.000
1673144621.926,-162.109,-991.699,-40.527,-126.953,0.000
1673144621.930,342.285,442.383,-27.832,257.812,0.000
1673144621.934,191.406,890.625,-33.203,188.477,0.000
1673144621.938,-342.773,-490.723,-50.293,-200.195,0.000
1673144621.942,-286.133,-1000.000,-41.504,-201.660,0.000
1673144621.945,262.207,161.133,-24.414,183.105,0.000
1673144621.949,309.082,-853.027,-35.156,262.207,0.000
1673144621.953,-216.309,119.629,-44.434,-98.633,0.000
1673144621.957,-383.301,-1000.000,-42.480,-250.977,0.000
1673144621.961,109.863,-406.738,-28.320,88.867,0.000
1673144621.965,382.324,-988.770,-24.902,306.641,0.000
1673144621.969,-63.477,426.758,-37.598,9.766,0.000
1673144621.973,-416.504,-1000.000,-38.574,-276.855,0.000
1673144621.977,-36.133,-611.328,-32.227,-41.016,0.000
1673144621.981,390.625,809.082,-29.785,294.434,0.000
1673144621.984,99.121,586.426,-33.691,114.746,0.000
1673144621.988,-389.160,-883.789,-38.574,-255.371,0.000
1673144621.992,-187.500,-850.098,-29.297,-142.090,0.000
1673144621.996,327.637,606.934,-21.973,236.328,0.000
1673144622.000,218.750,801.270,-30.762,193.359,0.000
1673144622.004,-314.941,-663.574,-41.992,-192.383,0.000
1673144622.008,-319.336,-1000.000,-36.621,-239.746,0.000
1673144622.012,209.473,196.777,-33.203,139.160,0.000
1673144622.016,317.871,-996.094,-34.668,257.324,0.000
1673144622.020,-185.547,30.762,-41.016,-105.469,0.000
1673144622.024,-404.785,-1000.000,-41.504,-301.270,0.000
1673144622.027,59.082,-525.391,-29.785,16.602,0.000
1673144622.031,369.141,729.492,-26.367,269.531,0.000
1673144622.035,-39.062,473.633,-34.668,4.883,0.000
1673144622.039,-432.129,-830.566,-34.668,-296.875,0.000
1673144622.043,-90.820,-719.238,-27.344,-80.566,0.000
1673144622.047,363.770,363.281,-23.926,273.926,0.000
1673144622.051,108.398,624.512,-24.902,123.535,0.000
1673144622.055,-387.695,-439.941,-33.691,-259.766,0.000
1673144622.059,-229.492,-1000.000,-30.762,-175.781,0.000
1673144622.063,296.875,143.066,-21.484,221.191,0.000
1673144622.066,236.328,-935.059,-27.344,215.332,0.000
1673144622.070,-283.691,-6.348,-40.039,-166.992,0.000
1673144622.074,-333.008,-1000.000,-38.086,-250.000,0.000
1673144622.078,169.922,-363.770,-26.855,113.281,0.000
1673144622.082,341.797,-931.152,-26.855,276.855,0.000
1673144622.086,-139.648,393.066,-34.668,-57.129,0.000
1673144622.090,-409.180,-1000.000,-38.574,-280.762,0.000
1673144622.094,22.461,-556.641,-34.180,5.371,0.000
1673144622.098,374.023,972.168,-30.762,282.227,0.000
1673144622.102,3.418,494.141,-43.457,34.180,0.000
1673144622.106,-428.711,-979.004,-44.434,-313.477,0.000
1673144622.109,-125.000,-697.266,-25.391,-125.488,0.000
1673144622.113,364.258,723.145,-14.160,251.953,0.000
1673144622.117,157.715,868.652,-20.020,145.996,0.000
1673144622.121,-353.516,-535.645,-31.250,-238.281,0.000
1673144622.125,-245.117,-979.980,-28.320,-204.590,0.000
1673144622.129,288.574,355.469,-19.043,188.477,0.000
1673144622.133,290.527,-949.219,-24.902,234.863,0.000
1673144622.137,-238.770,-183.105,-36.133,-140.625,0.000
1673144622.141,-357.910,-1000.000,-31.738,-263.184,0.000
1673144622.145,143.066,-119.141,-25.391,90.332,0.000
1673144622.148,358.398,-905.762,-30.762,277.832,0.000
1673144622.152,-100.098,207.031,-39.062,-39.551,0.000
1673144622.156,-413.086,-1000.000,-41.992,-286.133,0.000
1673144622.160,-13.184,-512.207,-32.227,-16.113,0.000
1673144622.164,377.930,950.684,-25.879,287.598,0.000
1673144622.168,43.945,410.645,-34.668,77.637,0.000
1673144622.172,-416.016,-985.352,-37.598,-264.648,0.000
1673144622.176,-155.273,-742.676,-27.344,-110.352,0.000
1673144622.180,358.398,587.891,-24.414,267.090,0.000
1673144622.184,194.336,709.473,-35.156,193.359,0.000
1673144622.188,-345.215,-470.703,-40.039,-199.707,0.000
1673144622.191,-293.945,-997.559,-33.203,-208.984,0.000
1673144622.195,245.117,61.523,-25.879,177.734,0.000
1673144622.199,310.059,-929.688,-25.879,258.301,0.000
1673144622.203,-200.684,171.387,-33.691,-111.328,0.000
1673144622.207,-365.234,-1000.000,-35.645,-266.113,0.000
1673144622.211,119.141,-545.898,-27.344,69.824,0.000
1673144622.215,380.859,813.965,-24.902,287.598,0.000
1673144622.219,-50.293,275.391,-29.785,-2.930,0.000
1673144622.223,-415.527,-997.559,-35.156,-287.109,0.000
1673144622.227,-47.852,-1000.000,-29.297,-45.410,0.000
1673144622.230,389.160,70.312,-24.414,282.715,0.000
1673144622.234,94.727,848.145,-34.668,93.262,0.000
1673144622.238,-392.578,-526.855,-37.598,-269.531,0.000
1673144622.242,-183.594,-1000.000,-25.391,-157.715,0.000
1673144622.246,333.496,298.828,-17.578,218.262,0.000
1673144622.250,230.957,-941.406,-26.855,182.617,0.000
1673144622.254,-298.828,-163.574,-44.434,-198.730,0.000
1673144622.258,-304.199,-1000.000,-36.621,-241.211,0.000
1673144622.262,229.492,-67.871,-20.020,138.184,0.000
1673144622.266,341.797,-917.969,-25.879,260.742,0.000
1673144622.270,-165.039,92.285,-34.180,-90.332,0.000
1673144622.273,-368.164,-1000.000,-33.691,-270.996,0.000
1673144622.277,52.246,-267.578,-19.531,9.766,0.000
1673144622.281,277.344,-989.746,-14.160,205.078,0.000
1673144622.285,21.484,548.340,-22.461,45.898,0.000
1673144622.289,-317.383,-870.605,-27.832,-225.586,0.000
1673144622.293,-100.098,-607.910,-22.461,-96.191,0.000
1673144622.297,370.117,877.441,-17.090,262.207,0.000
1673144622.301,131.836,636.230,-29.297,130.371,0.000
1673144622.305,-373.047,-702.148,-39.062,-243.652,0.000
1673144622.309,-212.891,-1000.000,-30.762,-166.992,0.000
1673144622.312,314.941,246.582,-20.020,219.727,0.000
1673144622.316,258.789,621.582,-24.902,227.051,0.000
1673144622.320,-276.367,-779.785,-29.785,-157.715,0.000
1673144622.324,-341.797,-1000.000,-27.832,-251.953,0.000
1673144622.328,166.504,-150.879,-24.414,113.281,0.000
1673144622.332,335.449,-906.738,-25.879,271.973,0.000
1673144622.336,-150.391,192.871,-37.598,-64.941,0.000
1673144622.340,-418.945,-1000.000,-34.180,-289.551,0.000
1673144622.344,29.297,-384.277,-20.508,4.395,0.000
1673144622.348,387.207,946.777,-17.090,287.598,0.000
1673144622.352,13.672,537.109,-21.973,48.828,0.000
1673144622.355,-415.039,-850.586,-23.438,-285.156,0.000
1673144622.359,-117.188,-903.320,-19.531,-105.469,0.000
1673144622.363,375.977,100.586,-14.648,259.766,0.000
1673144622.367,175.293,817.383,-22.461,146.973,0.000
1673144622.371,-350.098,-230.957,-36.133,-233.887,0.000
1673144622.375,-253.418,-1000.000,-32.715,-199.707,0.000
1673144622.379,280.273,-4.395,-27.344,189.453,0.000
1673144622.383,292.969,-860.352,-33.203,231.445,0.000
1673144622.387,-230.469,102.539,-38.574,-145.020,0.000
1673144622.391,-349.609,-1000.000,-36.133,-264.648,0.000
1673144622.394,154.297,-93.750,-31.250,84.961,0.000
1673144622.398,374.512,-855.957,-35.156,281.738,0.000
1673144622.402,-93.262,168.457,-42.480,-31.738,0.000
1673144622.406,-417.969,-1000.000,-42.480,-290.527,0.000
1673144622.410,-10.254,-481.934,-31.738,-19.531,0.000
1673144622.414,395.508,968.262,-26.367,286.133,0.000
1673144622.418,63.965,716.797,-33.203,74.707,0.000
1673144622.422,-401.367,-722.168,-34.668,-281.738,0.000
1673144622.426,-152.344,-823.242,-23.926,-135.742,0.000
1673144622.430,350.586,545.410,-15.137,246.582,0.000
1673144622.434,190.918,848.633,-19.531,176.758,0.000
1673144622.437,-344.238,-506.348,-28.809,-214.355,0.000
1673144622.441,-293.457,-1000.000,-28.809,-226.074,0.000
1673144622.445,248.535,273.926,-22.949,145.020,0.000
1673144622.449,307.617,-982.910,-31.738,217.773,0.000
1673144622.453,-215.820,-299.805,-49.316,-148.438,0.000
1673144622.457,-394.531,-1000.000,-49.805,-308.594,0.000
1673144622.461,96.680,-87.891,-36.133,27.344,0.000
1673144622.465,374.023,-964.844,-31.250,254.395,0.000
1673144622.469,-66.895,331.055,-44.434,-35.156,0.000
1673144622.473,-426.758,-944.824,-49.316,-322.266,0.000
1673144622.476,-53.711,-530.273,-38.086,-89.355,0.000
1673144622.480,366.699,857.422,-33.203,241.699,0.000
1673144622.484,78.125,767.090,-40.527,72.266,0.000
1673144622.488,-409.180,-540.039,-44.922,-295.898,0.000
1673144622.492,-208.984,-1000.000,-35.645,-185.059,0.000
1673144622.496,315.430,113.281,-30.762,210.938,0.000
1673144622.500,212.402,845.703,-35.645,186.035,0.000
1673144622.504,-320.801,-242.188,-42.969,-200.684,0.000
1673144622.508,-327.637,-1000.000,-39.551,-246.582,0.000
1673144622.512,210.449,-479.004,-24.902,136.230,0.000
1673144622.516,334.473,715.820,-26.855,252.441,0.000
1673144622.519,-161.621,264.160,-37.598,-97.168,0.000
1673144622.523,-387.695,-1000.000,-35.645,-282.715,0.000
1673144622.527,71.289,-524.902,-23.926,35.156,0.000
1673144622.531,386.719,961.426,-25.879,292.480,0.000
1673144622.535,-23.926,549.316,-38.086,23.926,0.000
1673144622.539,-424.316,-861.816,-40.527,-291.992,0.000
1673144622.543,-94.727,-879.395,-34.180,-86.914,0.000
1673144622.547,371.582,448.242,-32.715,251.465,0.000
1673144622.551,127.441,814.941,-44.434,100.586,0.000
1673144622.555,-379.395,-546.387,-49.316,-276.855,0.000
1673144622.558,-226.074,-975.098,-36.133,-208.984,0.000
1673144622.562,302.734,340.332,-24.902,182.129,0.000
1673144622.566,258.301,-911.621,-28.809,197.266,0.000
1673144622.570,-280.762,-120.605,-33.203,-179.688,0.000
1673144622.574,-351.562,-1000.000,-33.203,-263.672,0.000
1673144622.578,169.922,-19.531,-28.809,96.191,0.000
1673144622.582,340.332,-862.305,-29.297,248.535,0.000
1673144622.586,-151.367,98.145,-41.016,-82.520,0.000
1673144622.590,-420.898,-1000.000,-41.016,-309.570,0.000
1673144622.594,16.602,-438.965,-27.832,-19.043,0.000
1673144622.598,375.977,-934.570,-25.879,263.672,0.000
1673144622.601,9.766,278.809,-35.645,30.762,0.000
1673144622.605,-423.340,-1000.000,-41.016,-305.664,0.000
1673144622.609,-124.023,-655.273,-31.738,-131.348,0.000
1673144622.613,367.188,735.840,-25.391,244.141,0.000
1673144622.617,163.086,717.285,-35.156,141.113,0.000
1673144622.621,-355.957,-630.371,-42.969,-241.699,0.000
1673144622.625,-255.371,-949.707,-35.645,-208.984,0.000
1673144622.629,281.250,320.312,-27.832,184.082,0.000
1673144622.633,295.898,-954.102,-34.180,236.816,0.000
1673144622.637,-230.469,-187.988,-44.434,-143.555,0.000
1673144622.640,-353.027,-1000.000,-40.039,-277.832,0.000
1673144622.644,136.230,-180.664,-36.133,66.406,0.000
1673144622.648,352.539,664.551,-39.062,264.160,0.000
1673144622.652,-100.098,187.012,-44.434,-49.805,0.000
1673144622.656,-413.574,-898.438,-40.527,-310.059,0.000
1673144622.660,-7.812,-765.137,-33.691,-49.805,0.000
1673144622.664,393.066,623.047,-30.762,261.719,0.000
1673144622.668,48.828,763.672,-37.598,61.035,0.000
1673144622.672,-422.852,-625.000,-41.016,-284.668,0.000
1673144622.676,-178.711,-1000.000,-30.273,-137.695,0.000
1673144622.680,329.590,393.555,-19.531,247.070,0.000
1673144622.683,194.824,837.891,-28.809,187.988,0.000
1673144622.687,-333.984,-466.797,-44.434,-209.961,0.000
1673144622.691,-290.039,-1000.000,-37.109,-221.191,0.000
1673144622.695,250.977,-268.555,-21.973,170.898,0.000
1673144622.699,320.801,-891.602,-23.926,250.000,0.000
1673144622.703,-194.336,142.090,-39.551,-122.070,0.000
1673144622.707,-361.816,-1000.000,-39.062,-278.809,0.000
1673144622.711,119.629,-375.488,-26.367,58.594,0.000
1673144622.715,372.559,930.664,-23.926,270.508,0.000
1673144622.719,-69.824,347.168,-33.691,-27.344,0.000
1673144622.722,-426.270,-1000.000,-37.598,-304.199,0.000
1673144622.726,-49.316,-571.777,-26.855,-66.895,0.000
1673144622.730,376.953,850.098,-18.555,262.695,0.000
1673144622.734,82.520,609.375,-25.391,96.680,0.000
1673144622.738,-403.809,-862.793,-34.668,-271.973,0.000
1673144622.742,-205.078,-812.988,-26.855,-168.945,0.000
1673144622.746,322.754,613.281,-19.531,224.121,0.000
1673144622.750,235.840,855.957,-28.809,198.730,0.000
1673144622.754,-301.758,-459.473,-36.621,-189.453,0.000
1673144622.758,-319.336,-1000.000,-26.367,-241.211,0.000
1673144622.762,219.238,168.945,-12.695,140.137,0.000
1673144622.765,341.309,-966.797,-17.578,269.531,0.000
1673144622.769,-158.691,32.227,-27.832,-79.590,0.000
1673144622.773,-389.648,-1000.000,-30.762,-280.273,0.000
1673144622.777,74.219,-500.977,-26.855,25.879,0.000
1673144622.781,382.324,561.035,-29.297,278.809,0.000
1673144622.785,9.277,85.449,-36.621,36.133,0.000
1673144622.789,-298.340,-662.598,-39.551,-222.656,0.000
1673144622.793,-81.055,-628.906,-36.621,-88.379,0.000
1673144622.797,221.680,373.047,-31.250,158.203,0.000
1673144622.801,111.328,848.145,-33.203,102.051,0.000
1673144622.804,-212.891,-305.664,-41.992,-151.367,0.000
1673144622.808,-165.527,-1000.000,-41.504,-145.508,0.000
1673144622.812,171.387,-72.754,-32.227,110.352,0.000
1673144622.816,199.707,946.777,-32.715,163.086,0.000
1673144622.820,-129.395,202.148,-35.645,-83.984,0.000
1673144622.824,-223.633,-966.797,-29.297,-178.711,0.000
1673144622.828,90.820,-896.484,-23.438,56.641,0.000
1673144622.832,234.375,344.727,-23.438,189.453,0.000
1673144622.836,-57.129,616.211,-27.344,-13.672,0.000
1673144622.840,-267.578,-715.820,-28.809,-187.500,0.000
1673144622.844,-20.020,-620.117,-22.461,-11.230,0.000
1673144622.847,224.121,737.305,-18.066,195.312,0.000
1673144622.851,50.781,860.840,-22.461,81.543,0.000
1673144622.855,-144.531,-215.332,-25.391,-97.656,0.000
1673144622.859,-90.332,-654.297,-24.902,-78.613,0.000
1673144622.863,60.059,86.914,-20.020,58.594,0.000
1673144622.867,100.098,637.695,-18.555,104.492,0.000
1673144622.871,-47.363,-246.094,-31.250,-30.273,0.000
1673144622.875,-127.441,-909.668,-34.668,-117.188,0.000
1673144622.879,12.207,-26.367,-28.809,5.371,0.000
1673144622.883,105.957,502.930,-29.785,103.027,0.000
1673144622.886,-23.438,0.000,-33.691,-13.184,0.000
1673144622.890,-133.789,-426.758,-32.227,-129.883,0.000
1673144622.894,-15.625,-119.629,-25.391,-32.227,0.000
1673144622.898,112.305,137.695,-25.879,100.586,0.000
1673144622.902,27.832,26.855,-29.297,37.598,0.000
1673144622.906,-108.887,-209.961,-29.785,-98.633,0.000
1673144622.910,-48.340,-221.680,-25.391,-58.105,0.000
1673144622.914,96.680,195.312,-26.367,73.242,0.000
1673144622.918,77.637,30.762,-32.715,71.289,0.000
1673144622.922,-81.055,-400.391,-31.250,-65.430,0.000
1673144622.926,-109.863,-307.617,-27.832,-96.680,0.000
1673144622.929,38.574,-85.449,-32.227,41.992,0.000
1673144622.933,92.285,135.742,-35.156,106.445,0.000
1673144622.937,-48.828,72.266,-33.203,-14.648,0.000
1673144622.941,-134.766,-550.293,-34.180,-108.887,0.000
1673144622.945,-1.465,-672.363,-33.203,5.371,0.000
1673144622.949,104.980,-74.219,-33.203,113.770,0.000
1673144622.953,-17.090,298.340,-36.133,13.184,0.000
1673144622.957,-139.648,-218.750,-37.598,-104.004,0.000
1673144622.961,-33.691,-446.289,-34.668,-22.949,0.000
1673144622.965,102.051,-98.145,-26.367,105.957,0.000
1673144622.968,30.762,190.918,-20.996,57.129,0.000
1673144622.972,-103.027,-117.676,-25.879,-76.660,0.000
1673144622.976,-63.965,-695.801,-27.832,-59.570,0.000
1673144622.980,79.590,-77.148,-27.344,80.078,0.000
1673144622.984,85.938,599.609,-30.273,93.750,0.000
1673144622.988,-72.266,-168.457,-32.715,-48.828,0.000
1673144622.992,-109.375,-883.301,-30.762,-84.473,0.000
1673144622.996,38.086,-543.457,-22.461,50.293,0.000
1673144623.000,103.516,346.680,-23.438,118.652,0.000
1673144623.004,-33.691,242.676,-30.273,-6.348,0.000
1673144623.008,-120.605,-549.805,-40.039,-103.027,0.000
1673144623.011,11.230,-569.336,-38.086,14.648,0.000
1673144623.015,101.562,198.730,-26.855,109.375,0.000
1673144623.019,-19.531,312.988,-27.344,6.836,0.000
1673144623.023,-156.738,-573.242,-34.180,-121.094,0.000
1673144623.027,-67.383,-408.691,-33.203,-59.570,0.000
1673144623.031,76.172,448.730,-24.414,68.359,0.000
1673144623.035,18.066,246.094,-22.461,28.320,0.000
1673144623.039,-122.559,-659.180,-24.902,-107.910,0.000
1673144623.043,-101.074,-447.266,-22.461,-109.863,0.000
1673144623.047,50.293,300.293,-20.508,29.785,0.000
1673144623.050,72.754,388.184,-21.973,50.781,0.000
1673144623.054,-81.055,-199.707,-27.832,-138.672,0.000
1673144623.058,-143.066,-699.219,-30.273,-261.719,0.000
1673144623.062,2.930,-373.047,-26.855,-182.129,0.000
1673144623.066,95.215,51.758,-29.297,-127.441,0.000
1673144623.070,-31.738,-77.148,-31.250,-256.836,0.000
1673144623.074,-143.066,-283.203,-32.715,-379.883,0.000
1673144623.078,-22.949,-95.215,-33.691,-283.691,0.000
1673144623.082,103.027,-74.219,-35.645,-157.715,0.000
1673144623.086,12.695,-442.383,-40.527,-232.422,0.000
1673144623.090,-124.023,-426.270,-40.039,-364.746,0.000
1673144623.093,-53.223,-312.500,-37.598,-312.500,0.000
1673144623.097,99.609,132.812,-38.574,-172.852,0.000
1673144623.101,56.152,542.969,-38.574,-180.664,0.000
1673144623.105,-96.191,-148.438,-35.156,-311.035,0.000
1673144623.109,-81.543,-819.336,-29.785,-313.477,0.000
1673144623.113,81.055,-325.195,-26.367,-166.504,0.000
1673144623.117,113.281,529.785,-25.391,-121.582,0.000
1673144623.121,-40.039,429.199,-26.855,-252.441,0.000
1673144623.125,-110.840,-500.488,-30.762,-317.871,0.000
1673144623.129,30.762,-622.559,-25.391,-188.477,0.000
1673144623.132,135.254,432.617,-22.461,-95.703,0.000
1673144623.136,5.371,533.203,-30.273,-197.266,0.000
1673144623.140,-123.535,-450.684,-31.250,-295.898,0.000
1673144623.144,-27.832,-487.793,-31.250,-200.684,0.000
1673144623.148,100.098,413.574,-30.762,-72.754,0.000
1673144623.152,10.742,221.191,-29.785,-130.859,0.000
1673144623.156,-138.672,-666.992,-33.203,-258.301,0.000
1673144623.160,-77.148,-639.160,-30.762,-225.098,0.000
1673144623.164,75.684,57.129,-20.508,-87.891,0.000
1673144623.168,58.105,394.531,-22.461,-79.102,0.000
1673144623.172,-97.168,-347.656,-31.250,-198.730,0.000
1673144623.175,-115.723,-771.973,-31.738,-216.309,0.000
1673144623.179,37.598,-119.629,-36.133,-77.148,0.000
1673144623.183,86.914,202.637,-35.156,13.184,0.000
1673144623.187,-52.734,-66.406,-35.156,-73.242,0.000
1673144623.191,-138.672,-450.195,-40.039,-146.484,0.000
1673144623.195,-9.766,-130.859,-40.527,-23.438,0.000
1673144623.199,106.445,131.348,-41.992,121.094,0.000
1673144623.203,-4.883,-369.629,-41.504,39.551,0.000
1673144623.207,-135.742,-638.184,-38.574,-99.609,0.000
1673144623.211,-36.621,-207.031,-33.203,-31.738,0.000
1673144623.214,112.793,154.785,-31.738,103.516,0.000
1673144623.218,36.133,-351.562,-38.086,52.734,0.000
1673144623.222,-119.629,-641.602,-42.969,-87.402,0.000
1673144623.226,-77.637,-329.590,-37.598,-51.758,0.000
1673144623.230,76.660,-25.391,-30.762,95.215,0.000
1673144623.234,97.168,323.730,-32.227,121.582,0.000
1673144623.238,-81.543,160.156,-35.645,-28.320,0.000
1673144623.242,-118.164,-314.453,-33.203,-75.684,0.000
1673144623.246,164.062,-50.293,-23.926,151.367,0.000
1673144623.250,166.016,513.184,-24.414,195.312,0.000
1673144623.254,-175.293,49.316,-34.668,-61.523,0.000
1673144623.257,-229.492,-731.445,-27.832,-133.789,0.000
1673144623.261,87.891,-645.996,-21.973,109.375,0.000
1673144623.265,209.473,328.125,-25.391,216.797,0.000
1673144623.269,-82.031,572.266,-32.227,-4.395,0.000
1673144623.273,-258.789,-763.672,-37.598,-162.109,0.000
1673144623.277,12.695,-778.809,-32.227,25.391,0.000
1673144623.281,247.070,581.543,-29.785,229.980,0.000
1673144623.285,24.414,795.410,-31.738,82.520,0.000
1673144623.289,-261.719,-504.395,-39.062,-137.695,0.000
1673144623.293,-89.355,-932.617,-33.691,-23.438,0.000
1673144623.296,221.191,284.180,-30.273,215.820,0.000
1673144623.300,113.281,950.195,-38.574,160.156,0.000
1673144623.304,-125.977,24.902,-43.457,-32.715,0.000
1673144623.308,-128.418,-875.000,-41.504,-54.199,0.000
1673144623.312,11.230,-276.367,-34.180,73.242,0.000
1673144623.316,113.770,700.684,-31.250,168.945,0.000
1673144623.320,-44.434,139.160,-33.691,30.762,0.000
1673144623.324,-212.402,-919.434,-32.227,-121.094,0.000
1673144623.328,52.246,-179.688,-26.367,62.988,0.000
1673144623.332,233.398,823.242,-27.832,215.332,0.000
1673144623.336,-50.293,28.320,-39.062,17.090,0.000
1673144623.339,-259.277,-1000.000,-38.574,-159.180,0.000
1673144623.343,-11.230,-649.902,-27.832,2.930,0.000
1673144623.347,238.281,762.695,-26.367,201.172,0.000
1673144623.351,31.738,263.672,-36.621,78.613,0.000
1673144623.355,-256.836,-1000.000,-42.480,-148.926,0.000
1673144623.359,-104.980,-632.812,-32.715,-68.359,0.000
1673144623.363,210.938,532.227,-20.020,177.734,0.000
1673144623.367,124.023,609.863,-20.996,143.066,0.000
1673144623.371,-123.535,-76.172,-25.879,-56.641,0.000
1673144623.375,-146.973,-297.363,-27.344,-102.051,0.000
1673144623.378,-2.930,-116.211,-25.879,22.461,0.000
1673144623.382,91.309,179.199,-22.949,108.398,0.000
1673144623.386,-34.180,-126.465,-24.414,-10.254,0.000
1673144623.390,-143.066,-719.727,-26.855,-119.629,0.000
1673144623.394,-29.297,-657.715,-25.391,-23.926,0.000
1673144623.398,105.957,-463.379,-24.414,110.840,0.000
1673144623.402,26.855,-57.129,-23.926,44.922,0.000
1673144623.406,-120.117,-40.527,-27.832,-99.609,0.000
1673144623.410,-67.871,-556.152,-29.297,-72.754,0.000
1673144623.414,87.402,9.766,-25.879,65.430,0.000
1673144623.418,69.336,694.824,-21.973,77.148,0.000
1673144623.421,-80.566,160.156,-23.438,-51.270,0.000
1673144623.425,-97.656,-592.285,-26.855,-76.172,0.000
1673144623.429,45.410,-138.184,-22.461,59.082,0.000
1673144623.433,96.191,411.621,-23.926,120.117,0.000
1673144623.437,-43.457,-52.246,-28.320,-6.836,0.000
1673144623.441,-131.836,-834.473,-32.227,-87.891,0.000
1673144623.445,0.977,-679.688,-27.832,37.109,0.000
1673144623.449,113.770,472.168,-23.438,143.066,0.000
1673144623.453,-8.789,496.094,-30.273,45.410,0.000
1673144623.457,-145.996,-403.320,-32.715,-84.473,0.000
1673144623.460,-49.805,-578.613,-30.762,-20.508,0.000
1673144623.464,85.449,230.469,-31.250,93.262,0.000
1673144623.468,20.508,494.629,-39.062,21.484,0.000
1673144623.472,-125.000,-215.820,-46.387,-136.230,0.000
1673144623.476,-96.191,-411.621,-46.875,-126.953,0.000
1673144623.480,52.246,-22.949,-42.480,4.883,0.000
1673144623.484,81.055,272.949,-42.969,33.691,0.000
1673144623.488,-155.762,-531.738,-50.781,-153.809,0.000
1673144623.492,-194.824,-815.430,-43.945,-203.613,0.000
1673144623.496,152.832,473.633,-36.133,50.293,0.000
1673144623.500,169.922,793.945,-43.945,93.262,0.000
1673144623.503,-170.410,-270.996,-53.223,-152.832,0.000
1673144623.507,-241.211,-854.980,-53.223,-230.469,0.000
1673144623.511,91.309,12.207,-47.852,6.836,0.000
1673144623.515,202.148,711.426,-49.316,123.535,0.000
1673144623.519,-52.246,254.395,-55.176,-54.688,0.000
1673144623.523,-177.246,-278.809,-53.223,-178.223,0.000
1673144623.527,-66.406,-436.035,-50.781,-102.051,0.000
1673144623.531,68.359,-442.383,-52.734,20.508,0.000
1673144623.535,18.555,-459.473,-54.688,-18.066,0.000
1673144623.539,-128.418,-154.297,-58.105,-170.410,0.000
1673144623.542,-112.305,-319.824,-60.547,-175.293,0.000
1673144623.546,45.898,-113.281,-58.105,-31.250,0.000
1673144623.550,63.477,462.402,-55.664,-6.348,0.000
1673144623.554,-100.098,52.246,-53.711,-154.785,0.000
1673144623.558,-160.156,-684.570,-50.293,-205.566,0.000
1673144623.562,-14.648,-315.918,-43.457,-70.801,0.000
1673144623.566,70.801,609.863,-39.062,29.297,0.000
1673144623.570,-55.176,437.988,-41.992,-55.664,0.000
1673144623.574,-160.156,-531.738,-46.875,-150.391,0.000
1673144623.578,-43.457,-846.191,-42.969,-41.992,0.000
1673144623.582,86.426,103.027,-38.086,62.012,0.000
1673144623.585,2.930,749.023,-37.598,-34.668,0.000
1673144623.589,-131.348,-206.543,-29.297,-162.598,0.000
1673144623.593,-60.059,-623.047,-24.902,-117.188,0.000
1673144623.597,84.961,333.496,-23.438,15.625,0.000
1673144623.601,54.199,751.953,-18.555,17.578,0.000
1673144623.605,-91.797,-45.410,-22.949,-113.281,0.000
1673144623.609,-96.191,-617.188,-26.855,-140.137,0.000
1673144623.613,53.223,-57.617,-20.996,-5.371,0.000
1673144623.617,90.332,595.703,-21.484,45.410,0.000
1673144623.621,-51.270,-170.410,-26.855,-78.125,0.000
1673144623.624,-122.070,-1000.000,-26.367,-157.715,0.000
1673144623.628,16.113,-166.016,-20.508,-41.504,0.000
1673144623.632,115.723,658.691,-21.484,65.918,0.000
1673144623.636,-16.602,191.895,-23.438,-36.133,0.000
1673144623.640,-138.184,-399.414,-19.531,-153.809,0.000
1673144623.644,-24.902,-24.902,-12.695,-54.688,0.000
1673144623.648,104.980,297.363,-13.672,71.777,0.000
1673144623.652,25.391,160.156,-16.602,2.441,0.000
1673144623.656,-115.234,-169.922,-20.508,-131.348,0.000
1673144623.660,-69.336,-196.289,-18.066,-101.074,0.000
1673144623.664,78.613,235.352,-12.695,37.109,0.000
1673144623.667,64.941,162.109,-20.020,40.527,0.000
1673144623.671,-86.914,-457.031,-26.855,-94.238,0.000
1673144623.675,-110.840,-569.824,-24.902,-124.512,0.000
1673144623.679,46.387,-7.324,-18.066,17.090,0.000
1673144623.683,112.305,18.066,-18.555,90.820,0.000
1673144623.687,-33.203,-32.227,-22.461,-38.574,0.000
1673144623.691,-129.883,-187.012,-25.391,-112.305,0.000
1673144623.695,-1.953,-266.113,-20.508,24.902,0.000
1673144623.699,106.934,272.949,-23.926,127.441,0.000
1673144623.703,-14.160,407.715,-27.344,28.809,0.000
1673144623.706,-134.766,-178.223,-32.227,-79.590,0.000
1673144623.710,-28.320,-458.008,-30.762,10.254,0.000
1673144623.714,104.004,-160.645,-15.625,140.625,0.000
1673144623.718,25.391,203.613,-12.695,80.566,0.000
1673144623.722,-120.605,-123.535,-17.090,-49.316,0.000
1673144623.726,-81.543,-885.254,-11.230,-18.066,0.000
1673144623.730,68.359,-523.926,-5.371,126.465,0.000
1673144623.734,70.312,568.848,-3.418,137.207,0.000
1673144623.738,-85.449,199.707,-9.766,-10.742,0.000
1673144623.742,-139.160,-741.699,-18.066,-65.430,0.000
1673144623.746,3.906,-335.449,-18.066,64.453,0.000
1673144623.749,89.844,632.812,-20.020,148.926,0.000
1673144623.753,-53.223,277.344,-24.414,23.926,0.000
1673144623.757,-148.438,-552.734,-27.344,-65.430,0.000
1673144623.761,-9.277,-498.047,-24.414,59.082,0.000
1673144623.765,96.191,246.094,-24.902,157.227,0.000
1673144623.769,-7.812,299.316,-27.832,68.848,0.000
1673144623.773,-135.742,-679.199,-28.320,-42.969,0.000
1673144623.777,-56.152,-565.918,-24.902,20.996,0.000
1673144623.781,86.426,148.926,-24.902,147.949,0.000
1673144623.785,44.434,125.977,-28.320,122.559,0.000
1673144623.788,-108.398,-270.996,-30.273,-15.137,0.000
1673144623.792,-87.402,-302.246,-23.438,-12.207,0.000
1673144623.796,77.637,202.637,-16.602,135.742,0.000
1673144623.800,91.797,398.438,-16.602,164.062,0.000
1673144623.804,-63.965,-64.941,-20.020,12.695,0.000
1673144623.808,-120.117,-627.441,-24.902,-62.988,0.000
1673144623.812,29.297,-287.598,-24.902,55.664,0.000
1673144623.816,117.188,-125.488,-27.344,156.738,0.000
1673144623.820,-21.484,-586.426,-29.785,62.500,0.000
1673144623.824,-132.812,-372.559,-25.879,-46.875,0.000
1673144623.828,-8.789,-72.754,-24.414,55.664,0.000
1673144623.831,124.512,231.934,-20.020,192.871,0.000
1673144623.835,36.621,110.352,-19.531,127.441,0.000
1673144623.839,-102.051,-486.328,-27.832,-7.324,0.000
1673144623.843,-37.109,-541.016,-32.227,43.457,0.000
1673144623.847,105.957,140.137,-29.785,186.523,0.000
1673144623.851,71.777,466.797,-29.785,171.875,0.000
1673144623.855,-76.660,-198.242,-35.645,32.715,0.000
1673144623.859,-83.496,-691.895,-37.598,15.625,0.000
1673144623.863,67.383,-646.484,-30.762,145.020,0.000
1673144623.867,109.863,125.000,-24.414,186.523,0.000
1673144623.871,-40.527,353.516,-25.879,53.711,0.000
1673144623.874,-128.906,-484.863,-28.809,-33.203,0.000
1673144623.878,1.465,-275.879,-29.785,79.102,0.000
1673144623.882,105.469,638.184,-27.344,170.410,0.000
1673144623.886,-22.461,572.266,-30.273,69.336,0.000
1673144623.890,-150.391,-481.445,-33.203,-40.039,0.000
1673144623.894,-39.551,-556.641,-27.832,41.992,0.000
1673144623.898,104.492,481.445,-22.949,164.551,0.000
1673144623.902,21.484,360.840,-28.809,103.516,0.000
1673144623.906,-128.418,-649.902,-35.645,-37.109,0.000
1673144623.910,-67.871,-807.617,-33.691,-7.324,0.000
1673144623.913,83.496,249.512,-26.855,122.559,0.000
1673144623.917,72.266,668.457,-30.273,122.559,0.000
1673144623.921,-71.777,-57.617,-31.738,-7.812,0.000
1673144623.925,-101.562,-457.031,-28.320,-41.992,0.000
1673144623.929,49.805,-88.867,-26.855,88.867,0.000
1673144623.933,118.652,272.461,-23.438,159.668,0.000
1673144623.937,-33.691,20.508,-25.391,35.645,0.000
1673144623.941,-140.625,-350.586,-31.738,-66.406,0.000
1673144623.945,-4.395,-42.480,-29.785,41.992,0.000
1673144623.949,111.816,361.328,-26.367,153.809,0.000
1673144623.952,-6.348,-389.648,-25.879,62.500,0.000
1673144623.956,-136.230,-813.477,-24.414,-68.359,0.000
1673144623.960,-35.645,-78.125,-23.926,3.906,0.000
1673144623.964,108.398,270.508,-23.438,143.555,0.000
1673144623.968,38.574,265.625,-29.297,89.844,0.000
1673144623.972,-111.328,-19.043,-33.203,-54.199,0.000
1673144623.976,-84.473,-166.992,-29.297,-46.387,0.000
1673144623.980,66.895,39.062,-34.180,93.750,0.000
1673144623.984,81.055,303.223,-35.156,125.977,0.000
1673144623.988,-69.336,156.738,-34.180,-16.113,0.000
1673144623.992,-116.699,-264.160,-36.621,-80.078,0.000
1673144623.995,33.691,-528.320,-33.203,52.734,0.000
1673144623.999,109.375,-251.953,-28.809,131.836,0.000
1673144624.003,-32.227,36.621,-30.762,8.301,0.000
1673144624.007,-144.531,-405.273,-36.621,-98.145,0.000
1673144624.011,-25.391,-367.676,-34.180,-0.488,0.000
1673144624.015,103.027,285.156,-30.273,116.699,0.000
1673144624.019,2.930,521.973,-29.785,34.668,0.000
1673144624.023,-132.812,-355.469,-31.250,-87.402,0.000
1673144624.027,-46.387,-588.867,-34.180,-29.297,0.000
1673144624.031,99.609,272.461,-30.762,109.863,0.000
1673144624.034,48.340,676.758,-32.715,81.543,0.000
1673144624.038,-98.145,-44.434,-37.109,-59.570,0.000
1673144624.042,-87.891,-780.762,-32.715,-55.176,0.000
1673144624.046,58.594,-290.039,-28.809,80.078,0.000
1673144624.050,108.398,595.703,-25.879,127.930,0.000
1673144624.054,-102.051,46.387,-29.297,-41.992,0.000
1673144624.058,-187.012,-979.004,-33.203,-125.977,0.000
1673144624.062,134.766,-71.289,-27.832,114.746,0.000
1673144624.066,194.336,-901.855,-32.715,186.523,0.000
1673144624.070,-145.020,122.559,-44.922,-67.383,0.000
1673144624.074,-248.047,-1000.000,-41.504,-177.246,0.000
1673144624.077,66.895,-126.953,-27.344,56.152,0.000
1673144624.081,226.562,-935.059,-29.297,210.938,0.000
1673144624.085,-56.152,321.289,-33.203,6.348,0.000
1673144624.089,-278.320,-1000.000,-36.133,-186.035,0.000
1673144624.093,-36.133,-740.723,-34.668,-23.438,0.000
1673144624.097,227.051,658.691,-32.715,193.359,0.000
1673144624.101,36.133,502.930,-40.527,72.266,0.000
1673144624.105,-240.234,-736.328,-39.551,-158.203,0.000
1673144624.109,-107.910,-625.488,-30.273,-83.984,0.000
1673144624.113,110.352,284.180,-24.414,102.051,0.000
1673144624.117,93.262,62.988,-26.855,113.770,0.000
1673144624.120,-51.270,-580.566,-26.855,-18.066,0.000
1673144624.124,-127.441,-396.484,-24.414,-99.609,0.000
1673144624.128,1.465,-61.035,-20.020,20.508,0.000
1673144624.132,104.492,293.457,-18.066,113.770,0.000
1673144624.136,-21.973,53.711,-23.438,0.977,0.000
1673144624.140,-147.949,-412.109,-20.508,-110.352,0.000
1673144624.144,-41.016,-245.605,-16.602,-20.020,0.000
1673144624.148,91.797,113.281,-16.113,106.934,0.000
1673144624.152,16.602,402.832,-17.090,53.223,0.000
1673144624.156,-120.605,177.246,-20.020,-75.684,0.000
1673144624.159,-70.312,-361.816,-23.438,-42.969,0.000
1673144624.163,81.543,-308.594,-20.020,97.656,0.000
1673144624.167,74.219,502.441,-15.137,100.586,0.000
1673144624.171,-79.590,85.938,-16.602,-33.691,0.000
1673144624.175,-106.934,-738.281,-16.113,-64.453,0.000
1673144624.179,43.457,-186.523,-18.066,62.012,0.000
1673144624.183,106.445,376.465,-22.949,123.535,0.000
1673144624.187,-32.715,-67.871,-21.973,0.977,0.000
1673144624.191,-135.742,-745.605,-21.484,-102.051,0.000
1673144624.195,-11.230,-357.910,-22.461,2.930,0.000
1673144624.199,102.051,615.723,-17.578,122.559,0.000
1673144624.202,-4.883,558.594,-20.508,38.086,0.000
1673144624.206,-137.207,-524.414,-23.926,-85.449,0.000
1673144624.210,-48.340,-824.219,-19.531,-8.789,0.000
1673144624.214,97.168,262.207,-18.066,122.070,0.000
1673144624.218,33.203,609.375,-25.879,78.125,0.000
1673144624.222,-111.328,-125.488,-31.738,-56.641,0.000
1673144624.226,-76.172,-395.996,-29.785,-52.246,0.000
1673144624.230,79.590,59.570,-25.391,82.031,0.000
1673144624.234,83.984,290.039,-27.344,99.609,0.000
1673144624.238,-66.895,-215.820,-31.250,-39.062,0.000
1673144624.241,-111.328,-431.641,-31.250,-86.914,0.000
1673144624.245,36.133,153.809,-31.738,36.621,0.000
1673144624.249,108.398,517.090,-31.250,111.816,0.000
1673144624.253,-33.203,-210.938,-34.180,-0.488,0.000
1673144624.257,-134.766,-450.195,-35.156,-104.980,0.000
1673144624.261,-9.277,9.766,-29.297,-1.465,0.000
1673144624.265,110.840,332.520,-26.367,108.398,0.000
1673144624.269,9.277,325.684,-31.250,18.066,0.000
1673144624.273,-125.977,-75.684,-32.227,-103.516,0.000
1673144624.277,-49.805,-428.711,-27.832,-37.598,0.000
1673144624.281,91.309,-287.598,-26.367,100.586,0.000
1673144624.284,41.992,-16.602,-27.344,71.777,0.000
1673144624.288,-103.027,7.812,-26.855,-63.477,0.000
1673144624.292,-87.402,-115.723,-27.344,-69.336,0.000
1673144624.296,59.082,-335.449,-30.273,69.824,0.000
1673144624.300,83.984,-46.875,-26.855,114.746,0.000
1673144624.304,-73.730,51.270,-27.832,-29.785,0.000
1673144624.308,-143.555,-671.387,-33.203,-102.051,0.000
1673144624.312,7.324,-272.949,-33.691,30.762,0.000
1673144624.316,101.562,590.332,-32.715,124.512,0.000
1673144624.320,-30.762,480.957,-32.227,9.277,0.000
1673144624.323,-144.531,-419.922,-31.250,-101.562,0.000
1673144624.327,-30.762,-529.297,-28.809,-4.883,0.000
1673144624.331,101.562,383.301,-25.391,118.164,0.000
1673144624.335,10.254,598.633,-23.926,49.805,0.000
1673144624.339,-131.348,-342.773,-32.227,-81.055,0.000
1673144624.343,-61.523,-779.785,-35.645,-29.785,0.000
1673144624.347,89.355,234.375,-25.879,105.469,0.000
1673144624.351,63.965,801.758,-25.879,92.285,0.000
1673144624.355,-89.355,-96.191,-31.250,-42.480,0.000
1673144624.359,-102.051,-613.281,-30.762,-70.312,0.000
1673144624.363,51.758,225.586,-23.926,54.199,0.000
1673144624.366,107.910,724.609,-22.949,105.469,0.000
1673144624.370,-111.816,-219.727,-30.273,-63.965,0.000
1673144624.374,-204.590,-992.676,-30.762,-147.461,0.000
1673144624.378,109.863,131.348,-29.297,87.891,0.000
1673144624.382,203.613,-887.207,-31.738,186.523,0.000
1673144624.386,-123.047,-10.254,-42.969,-47.852,0.000
1673144624.390,-264.160,-1000.000,-43.457,-185.059,0.000
1673144624.394,39.551,-246.582,-33.691,25.391,0.000
1673144624.398,226.074,619.141,-34.668,197.266,0.000
1673144624.402,-28.320,276.855,-38.574,24.902,0.000
1673144624.405,-318.359,-770.508,-41.016,-214.355,0.000
1673144624.409,-97.656,-569.336,-31.250,-61.523,0.000
1673144624.413,236.816,687.012,-23.438,205.078,0.000
1673144624.417,56.152,451.660,-32.227,88.867,0.000
1673144624.421,-261.719,-715.332,-37.109,-158.691,0.000
1673144624.425,-158.691,-670.898,-31.250,-111.816,0.000
1673144624.429,177.246,291.992,-26.367,142.578,0.000
1673144624.433,136.230,412.598,-30.273,137.695,0.000
1673144624.437,-200.195,-205.566,-36.133,-125.000,0.000
1673144624.441,-225.098,-641.602,-39.551,-182.617,0.000
1673144624.445,114.746,-111.816,-37.598,70.312,0.000
1673144624.448,220.703,748.047,-34.180,187.500,0.000
1673144624.452,-87.402,210.938,-34.668,-34.180,0.000
1673144624.456,-265.625,-787.109,-34.180,-203.125,0.000
1673144624.460,47.852,-429.199,-28.809,18.555,0.000
1673144624.464,323.242,726.562,-29.785,250.488,0.000
1673144624.468,-60.059,332.520,-39.551,-4.883,0.000
1673144624.472,-448.730,-916.504,-39.062,-304.688,0.000
1673144624.476,-103.027,-1000.000,-27.344,-81.055,0.000
1673144624.480,362.793,86.914,-17.578,268.066,0.000
1673144624.484,110.352,875.977,-19.043,111.816,0.000
1673144624.487,-405.273,-497.070,-28.809,-265.625,0.000
1673144624.491,-232.422,-1000.000,-21.973,-175.293,0.000
1673144624.495,302.734,288.574,-11.719,214.355,0.000
1673144624.499,237.793,-924.805,-18.066,205.078,0.000
1673144624.503,-292.480,-123.047,-30.762,-176.270,0.000
1673144624.507,-326.172,-1000.000,-26.855,-240.723,0.000
1673144624.511,197.754,-177.734,-16.602,128.418,0.000
1673144624.515,337.891,-899.902,-21.973,270.020,0.000
1673144624.519,-148.926,264.160,-34.180,-62.988,0.000
1673144624.523,-407.227,-1000.000,-34.180,-275.879,0.000
1673144624.527,37.598,-277.832,-20.508,20.020,0.000
1673144624.530,379.883,-890.625,-15.625,291.992,0.000
1673144624.534,-7.812,462.891,-31.250,42.969,0.000
1673144624.538,-420.410,-1000.000,-38.574,-279.297,0.000
1673144624.542,-103.516,-687.500,-27.832,-86.914,0.000
1673144624.546,373.047,768.066,-25.391,270.996,0.000
1673144624.550,145.508,720.215,-36.621,151.367,0.000
1673144624.554,-378.906,-590.820,-43.945,-236.328,0.000
1673144624.558,-232.422,-1000.000,-38.574,-179.199,0.000
1673144624.562,312.012,179.199,-28.809,212.402,0.000
1673144624.566,267.090,660.156,-38.086,219.238,0.000
1673144624.569,-264.648,-728.027,-48.828,-158.203,0.000
1673144624.573,-336.426,-1000.000,-41.992,-257.812,0.000
1673144624.577,122.559,-175.781,-32.715,63.965,0.000
1673144624.581,268.555,803.711,-28.809,197.266,0.000
1673144624.585,-43.945,256.348,-38.086,-17.578,0.000
1673144624.589,-265.625,-841.797,-41.504,-195.312,0.000
1673144624.593,-24.902,-491.211,-35.156,-36.621,0.000
1673144624.597,244.629,589.355,-34.180,182.129,0.000
1673144624.601,58.105,718.750,-38.086,62.012,0.000
1673144624.605,-240.234,-520.508,-39.551,-175.293,0.000
1673144624.609,-107.422,-936.035,-33.691,-107.910,0.000
1673144624.612,215.332,-288.086,-30.273,143.555,0.000
1673144624.616,142.090,409.668,-34.180,129.883,0.000
1673144624.620,-202.148,-130.371,-35.645,-125.488,0.000
1673144624.624,-211.914,-1000.000,-36.621,-159.668,0.000
1673144624.628,119.141,-70.801,-42.480,90.332,0.000
1673144624.632,187.500,-966.309,-40.527,174.316,0.000
1673144624.636,-132.812,371.582,-46.387,-60.059,0.000
1673144624.640,-271.484,-859.863,-46.875,-191.895,0.000
1673144624.644,35.645,-348.145,-40.039,25.879,0.000
1673144624.648,216.309,940.918,-41.504,184.082,0.000
1673144624.651,-38.086,316.895,-43.457,6.348,0.000
1673144624.655,-333.008,-1000.000,-43.457,-234.375,0.000
1673144624.659,-55.664,-578.613,-37.109,-58.594,0.000
1673144624.663,379.395,886.230,-37.598,267.578,0.000
1673144624.667,75.684,770.508,-46.387,85.449,0.000
1673144624.671,-406.738,-641.602,-49.316,-271.973,0.000
1673144624.675,-195.312,-938.965,-46.387,-140.137,0.000
1673144624.679,329.102,405.273,-39.062,244.629,0.000
1673144624.683,220.703,927.246,-43.457,192.871,0.000
1673144624.687,-312.988,-397.949,-54.199,-204.102,0.000
1673144624.691,-308.105,-1000.000,-46.387,-240.234,0.000
1673144624.694,216.797,189.453,-35.156,144.531,0.000
1673144624.698,316.406,-920.898,-39.062,253.418,0.000
1673144624.702,-189.941,-167.480,-46.875,-96.680,0.000
1673144624.706,-400.879,-1000.000,-42.480,-283.203,0.000
1673144624.710,68.848,-165.527,-30.762,38.086,0.000
1673144624.714,369.141,-950.684,-28.809,281.250,0.000
1673144624.718,-46.875,508.301,-36.621,-1.953,0.000
1673144624.722,-421.875,-830.078,-42.480,-300.781,0.000
1673144624.726,-66.895,-574.219,-33.691,-70.312,0.000
1673144624.730,381.348,819.824,-25.879,272.949,0.000
1673144624.733,110.840,791.992,-28.809,114.258,0.000
1673144624.737,-386.230,-531.738,-29.785,-244.629,0.000
1673144624.741,-203.125,-867.676,-30.762,-149.414,0.000
1673144624.745,319.824,-2.441,-37.598,221.191,0.000
1673144624.749,232.422,605.469,-47.852,192.383,0.000
1673144624.753,-306.152,-72.266,-52.246,-196.289,0.000
1673144624.757,-343.262,-1000.000,-48.340,-267.578,0.000
1673144624.761,189.453,-210.449,-43.945,104.492,0.000
1673144624.765,341.309,-959.473,-46.875,249.512,0.000
1673144624.769,-143.555,371.582,-52.246,-87.891,0.000
1673144624.773,-402.344,-1000.000,-56.641,-304.688,0.000
1673144624.776,35.645,-561.523,-50.293,-3.418,0.000
1673144624.780,385.742,951.660,-41.992,275.391,0.000
1673144624.784,-5.859,591.797,-50.293,23.438,0.000
1673144624.788,-435.059,-865.723,-55.176,-303.711,0.000
1673144624.792,-117.188,-830.078,-44.434,-106.445,0.000
1673144624.796,367.188,528.809,-38.086,257.324,0.000
1673144624.800,148.438,928.223,-50.781,133.301,0.000
1673144624.804,-367.676,-417.969,-64.941,-256.348,0.000
1673144624.808,-242.188,-1000.000,-56.152,-206.543,0.000
1673144624.812,298.828,310.547,-47.363,178.711,0.000
1673144624.815,288.574,-874.023,-54.688,202.148,0.000
1673144624.819,-244.629,-44.434,-59.570,-165.039,0.000
1673144624.823,-355.957,-1000.000,-51.758,-266.602,0.000
1673144624.827,145.508,-32.715,-38.574,91.309,0.000
1673144624.831,352.051,-823.242,-41.016,269.043,0.000
1673144624.835,-107.422,195.801,-53.223,-48.828,0.000
1673144624.839,-399.902,-1000.000,-54.688,-287.109,0.000
1673144624.843,18.066,-612.305,-46.387,-3.418,0.000
1673144624.847,398.438,867.188,-35.156,292.969,0.000
1673144624.851,41.016,351.074,-40.527,69.336,0.000
1673144624.855,-410.645,-1000.000,-42.480,-270.996,0.000
1673144624.858,-139.160,-721.680,-29.297,-118.164,0.000
1673144624.862,360.352,667.480,-26.367,250.000,0.000
1673144624.866,190.430,788.574,-39.062,167.480,0.000
1673144624.870,-339.355,-544.922,-37.598,-209.961,0.000
1673144624.874,-274.902,-943.848,-27.832,-203.125,0.000
1673144624.878,261.719,304.688,-27.832,177.246,0.000
1673144624.882,308.105,-916.504,-32.715,250.000,0.000
1673144624.886,-208.496,-89.355,-39.062,-116.699,0.000
1673144624.890,-361.816,-1000.000,-36.621,-261.719,0.000
1673144624.894,125.488,-106.934,-30.762,74.707,0.000
1673144624.897,369.141,766.113,-33.691,283.691,0.000
1673144624.901,-73.730,146.484,-37.109,-14.648,0.000
1673144624.905,-406.738,-862.305,-34.180,-284.668,0.000
1673144624.909,-29.297,-614.746,-25.391,-41.016,0.000
1673144624.913,384.766,703.125,-23.926,272.461,0.000
1673144624.917,85.938,849.609,-38.086,91.309,0.000
1673144624.921,-391.602,-483.887,-44.434,-266.113,0.000
1673144624.925,-173.340,-999.023,-34.180,-151.367,0.000
1673144624.929,345.215,381.836,-21.484,231.934,0.000
1673144624.933,221.680,865.234,-26.367,182.617,0.000
1673144624.937,-328.125,-388.672,-37.598,-216.797,0.000
1673144624.940,-326.172,-1000.000,-35.645,-240.723,0.000
1673144624.944,215.332,-284.180,-21.973,140.137,0.000
1673144624.948,325.684,-870.117,-18.555,252.441,0.000
1673144624.952,-187.012,257.812,-32.715,-95.215,0.000
1673144624.956,-410.645,-1000.000,-36.621,-292.969,0.000
1673144624.960,63.477,-446.289,-24.414,25.391,0.000
1673144624.964,375.977,971.680,-20.508,273.438,0.000
1673144624.968,-47.363,541.504,-30.762,-2.930,0.000
1673144624.972,-441.895,-946.289,-36.621,-306.152,0.000
1673144624.976,-87.891,-628.906,-25.879,-78.125,0.000
1673144624.979,358.398,776.855,-18.066,271.973,0.000
1673144624.983,92.285,741.699,-23.926,112.305,0.000
1673144624.987,-396.484,-708.496,-25.879,-256.348,0.000
1673144624.991,-222.656,-816.895,-10.742,-168.945,0.000
1673144624.995,310.547,595.215,0.488,221.680,0.000
1673144624.999,257.812,966.309,-5.371,218.262,0.000
1673144625.003,-273.438,-274.414,-22.461,-164.551,0.000
1673144625.007,-320.312,-1000.000,-22.949,-233.398,0.000
1673144625.011,206.543,-13.672,-15.625,129.395,0.000
1673144625.015,351.562,-990.723,-21.973,263.672,0.000
1673144625.019,-140.137,222.656,-32.715,-79.590,0.000
1673144625.022,-391.602,-1000.000,-37.109,-297.852,0.000
1673144625.026,46.387,-514.160,-32.715,4.395,0.000
1673144625.030,382.324,623.535,-30.273,285.156,0.000
1673144625.034,2.930,105.469,-35.156,36.621,0.000
1673144625.038,-410.156,-880.371,-35.156,-288.086,0.000
1673144625.042,-105.957,-631.836,-26.855,-99.609,0.000
1673144625.046,375.000,673.340,-23.438,258.789,0.000
1673144625.050,162.109,956.055,-30.273,141.113,0.000
1673144625.054,-360.840,-351.074,-31.250,-233.887,0.000
1673144625.058,-243.652,-1000.000,-22.461,-187.988,0.000
1673144625.061,300.781,242.188,-15.625,196.777,0.000
1673144625.065,288.574,-971.680,-21.484,226.074,0.000
1673144625.069,-251.953,-118.164,-32.227,-159.180,0.000
1673144625.073,-354.980,-1000.000,-30.762,-266.113,0.000
1673144625.077,152.344,-594.727,-22.949,95.703,0.000
1673144625.081,354.492,783.203,-19.043,271.973,0.000
1673144625.085,-112.305,561.523,-27.832,-53.223,0.000
1673144625.089,-404.297,-961.426,-28.320,-291.504,0.000
1673144625.093,17.578,-522.949,-17.090,-12.207,0.000
1673144625.097,392.578,916.992,-16.602,280.762,0.000
1673144625.101,42.480,729.980,-26.855,61.523,0.000
1673144625.104,-400.391,-687.500,-31.250,-275.391,0.000
1673144625.108,-133.301,-752.930,-20.508,-115.234,0.000
1673144625.112,365.723,684.570,-8.789,267.578,0.000
1673144625.116,199.219,956.055,-18.555,192.383,0.000
1673144625.120,-329.102,-380.371,-37.109,-203.125,0.000
1673144625.124,-277.832,-1000.000,-29.785,-213.867,0.000
1673144625.128,253.418,94.238,-12.695,163.574,0.000
1673144625.132,305.664,-863.770,-18.555,237.305,0.000
1673144625.136,-214.355,-38.574,-29.297,-126.465,0.000
1673144625.140,-377.441,-1000.000,-26.855,-275.879,0.000
1673144625.143,116.211,-69.824,-24.902,52.246,0.000
1673144625.147,377.930,-887.207,-29.297,259.277,0.000
1673144625.151,-69.824,311.035,-35.645,-41.016,0.000
1673144625.155,-416.504,-1000.000,-38.086,-315.918,0.000
1673144625.159,-24.902,-479.004,-31.738,-63.965,0.000
1673144625.163,382.812,968.750,-33.691,250.000,0.000
1673144625.167,86.914,516.113,-47.363,65.918,0.000
1673144625.171,-294.434,-743.164,-48.828,-222.656,0.000
1673144625.175,-145.508,-711.914,-43.457,-151.855,0.000
1673144625.179,184.082,213.867,-41.992,104.492,0.000
1673144625.183,160.156,630.371,-41.016,128.906,0.000
1673144625.186,-175.293,-0.488,-45.898,-125.488,0.000
1673144625.190,-222.168,-603.516,-45.898,-182.129,0.000
1673144625.194,110.840,-185.059,-39.062,68.359,0.000
1673144625.198,225.098,469.238,-36.133,183.594,0.000
1673144625.202,-84.961,328.125,-41.016,-40.527,0.000
1673144625.206,-258.789,-581.055,-39.551,-191.406,0.000
1673144625.210,23.438,-527.832,-32.227,11.230,0.000
1673144625.214,242.676,329.102,-33.203,195.801,0.000
1673144625.218,6.836,430.176,-36.621,31.250,0.000
1673144625.222,-251.953,-477.051,-40.039,-185.547,0.000
1673144625.225,-57.617,-897.949,-38.086,-65.430,0.000
1673144625.229,242.188,266.602,-28.320,163.086,0.000
1673144625.233,134.766,836.914,-27.832,107.422,0.000
1673144625.237,-266.602,-454.590,-36.133,-180.664,0.000
1673144625.241,-219.727,-1000.000,-39.062,-174.316,0.000
1673144625.245,305.176,61.523,-27.832,202.637,0.000
1673144625.249,270.996,-910.645,-25.879,212.402,0.000
1673144625.253,-268.555,-91.309,-40.039,-174.316,0.000
1673144625.257,-320.801,-1000.000,-40.039,-248.535,0.000
1673144625.261,202.148,-144.531,-28.809,112.305,0.000
1673144625.265,361.328,-883.789,-28.809,255.371,0.000
1673144625.268,-128.418,270.020,-38.086,-80.078,0.000
1673144625.272,-384.766,-1000.000,-40.039,-298.828,0.000
1673144625.276,62.500,-270.996,-29.785,4.395,0.000
1673144625.280,394.043,-880.859,-28.320,271.484,0.000
1673144625.284,0.488,448.730,-38.086,22.949,0.000
1673144625.288,-416.992,-1000.000,-40.527,-291.504,0.000
1673144625.292,-104.980,-759.277,-30.762,-104.004,0.000
1673144625.296,372.070,696.777,-29.297,260.254,0.000
1673144625.300,146.973,740.234,-39.551,144.043,0.000
1673144625.304,-371.582,-597.656,-44.434,-238.281,0.000
1673144625.307,-251.465,-1000.000,-35.645,-198.730,0.000
1673144625.311,274.902,158.203,-28.320,181.641,0.000
1673144625.315,266.113,854.004,-31.250,213.867,0.000
1673144625.319,-257.812,-291.016,-44.922,-164.062,0.000
1673144625.323,-356.934,-1000.000,-44.434,-277.344,0.000
1673144625.327,156.738,2.441,-27.832,70.801,0.000
1673144625.331,359.863,862.793,-34.180,260.742,0.000
1673144625.335,-105.957,-269.531,-45.898,-53.223,0.000
1673144625.339,-411.133,-1000.000,-39.062,-306.641,0.000
1673144625.343,1.953,-426.758,-25.879,-29.785,0.000
1673144625.347,390.137,872.070,-28.320,271.484,0.000
1673144625.350,52.246,665.039,-41.504,57.617,0.000
1673144625.354,-397.461,-743.164,-45.410,-278.809,0.000
1673144625.358,-139.648,-878.906,-35.645,-124.512,0.000
1673144625.362,364.258,371.094,-30.273,252.930,0.000
1673144625.366,199.219,962.891,-36.133,180.176,0.000
1673144625.370,-326.172,-168.457,-41.016,-205.566,0.000
1673144625.374,-267.578,-1000.000,-32.715,-205.078,0.000
1673144625.378,261.230,-268.555,-20.020,181.152,0.000
1673144625.382,308.105,-923.340,-22.949,253.906,0.000
1673144625.386,-209.961,227.539,-35.645,-115.723,0.000
1673144625.389,-371.582,-1000.000,-33.691,-270.508,0.000
1673144625.393,131.836,-183.105,-18.555,74.707,0.000
1673144625.397,349.609,-985.352,-20.020,262.695,0.000
1673144625.401,-113.770,-1.953,-32.227,-45.898,0.000
1673144625.405,-406.738,-1000.000,-32.227,-285.645,0.000
1673144625.409,-25.879,-515.625,-18.555,-49.316,0.000
1673144625.413,394.531,923.828,-14.160,270.996,0.000
1673144625.417,99.609,725.098,-31.250,95.703,0.000
1673144625.421,-372.070,-708.984,-40.527,-254.395,0.000
1673144625.425,-166.504,-878.418,-28.809,-150.879,0.000
1673144625.429,341.797,439.941,-10.254,216.797,0.000
1673144625.432,227.539,920.410,-12.695,179.688,0.000
1673144625.436,-309.570,-380.371,-23.926,-210.449,0.000
1673144625.440,-300.781,-1000.000,-22.461,-249.023,0.000
1673144625.444,232.910,229.492,-21.484,129.395,0.000
1673144625.448,332.031,-923.340,-29.785,243.164,0.000
1673144625.452,-172.852,-124.512,-34.668,-103.516,0.000
1673144625.456,-368.652,-1000.000,-32.715,-275.879,0.000
1673144625.460,50.293,-413.086,-18.555,16.602,0.000
1673144625.464,275.879,777.832,-13.184,213.867,0.000
1673144625.468,6.836,251.953,-26.367,36.133,0.000
1673144625.471,-251.465,-693.848,-31.738,-179.688,0.000
1673144625.475,-70.312,-407.715,-26.367,-70.801,0.000
1673144625.479,232.910,513.184,-21.973,167.969,0.000
1673144625.483,109.375,740.723,-24.902,105.469,0.000
1673144625.487,-215.332,-104.004,-28.320,-143.555,0.000
1673144625.491,-157.715,-624.512,-22.461,-121.582,0.000
1673144625.495,179.688,-131.836,-18.555,133.301,0.000
1673144625.499,182.617,441.406,-27.344,153.809,0.000
1673144625.503,-157.227,109.863,-36.621,-108.887,0.000
1673144625.507,-229.980,-593.750,-33.203,-196.777,0.000
1673144625.511,87.891,-513.184,-27.344,50.781,0.000
1673144625.514,228.027,119.629,-18.555,185.059,0.000
1673144625.518,-61.523,260.742,-15.625,-26.855,0.000
1673144625.522,-262.695,-768.066,-25.879,-200.195,0.000
1673144625.526,0.488,-628.418,-24.414,-25.879,0.000
1673144625.530,256.348,716.309,-14.160,188.477,0.000
1673144625.534,36.133,832.520,-20.020,49.805,0.000
1673144625.538,-262.207,-381.836,-31.738,-181.152,0.000
1673144625.542,-104.004,-916.992,-28.320,-86.426,0.000
1673144625.546,209.961,239.258,-23.926,145.996,0.000
1673144625.550,112.793,997.070,-23.926,102.051,0.000
1673144625.553,-214.355,-126.953,-22.949,-145.996,0.000
1673144625.557,-187.500,-1000.000,-20.996,-156.250,0.000
1673144625.561,150.391,101.074,-12.695,98.145,0.000
1673144625.565,199.707,-881.836,-13.184,161.133,0.000
1673144625.569,-132.324,70.801,-21.484,-80.566,0.000
1673144625.573,-247.070,-995.605,-21.973,-188.965,0.000
1673144625.577,68.359,-54.199,-14.160,32.715,0.000
1673144625.581,231.445,-909.180,-16.113,174.316,0.000
1673144625.585,-47.363,297.852,-22.949,-16.113,0.000
1673144625.589,-269.043,-1000.000,-25.879,-202.148,0.000
1673144625.593,-33.691,-640.137,-18.066,-42.480,0.000
1673144625.596,231.445,824.219,-11.719,181.152,0.000
1673144625.600,45.410,368.652,-18.066,74.707,0.000
1673144625.604,-254.395,-1000.000,-26.367,-178.223,0.000
1673144625.608,-126.465,-736.816,-21.973,-118.164,0.000
1673144625.612,202.148,515.625,-20.508,134.277,0.000
1673144625.616,144.531,714.355,-25.879,113.770,0.000
1673144625.620,-198.242,-293.457,-27.344,-140.137,0.000
1673144625.624,-216.309,-787.598,-25.879,-181.641,0.000
1673144625.628,124.023,-132.812,-20.508,65.918,0.000
1673144625.632,208.496,703.125,-24.414,149.902,0.000
1673144625.635,-112.793,-48.340,-30.762,-86.426,0.000
1673144625.639,-260.742,-1000.000,-29.297,-216.309,0.000
1673144625.643,31.738,-326.660,-22.461,0.977,0.000
1673144625.647,236.328,237.793,-15.137,175.781,0.000
1673144625.651,-6.836,155.762,-20.020,8.789,0.000
1673144625.655,-324.707,-583.984,-28.320,-241.211,0.000
1673144625.659,-54.199,-729.980,-23.438,-67.383,0.000
1673144625.663,380.859,613.770,-16.113,262.207,0.000
1673144625.667,87.891,820.312,-22.949,88.379,0.000
1673144625.671,-396.973,-530.762,-26.367,-267.090,0.000
1673144625.675,-185.059,-1000.000,-19.531,-160.156,0.000
1673144625.678,337.891,349.121,-17.578,219.238,0.000
1673144625.682,220.215,916.504,-26.855,183.105,0.000
1673144625.686,-313.477,-357.422,-35.645,-207.031,0.000
1673144625.690,-292.480,-1000.000,-28.809,-230.957,0.000
1673144625.694,239.258,-285.156,-15.137,156.250,0.000
1673144625.698,336.426,-865.234,-19.043,257.324,0.000
1673144625.702,-168.945,285.645,-35.645,-96.191,0.000
1673144625.706,-388.672,-1000.000,-37.109,-285.156,0.000
1673144625.710,72.754,-369.629,-27.344,31.250,0.000
1673144625.714,370.117,986.328,-26.367,276.855,0.000
1673144625.717,-42.969,530.273,-33.691,2.441,0.000
1673144625.721,-425.293,-935.059,-37.109,-296.875,0.000
1673144625.725,-81.543,-627.441,-29.785,-81.055,0.000
1673144625.729,374.512,802.734,-24.414,261.719,0.000
1673144625.733,114.746,690.918,-30.762,112.793,0.000
1673144625.737,-389.648,-759.766,-37.109,-261.230,0.000
1673144625.741,-215.820,-852.051,-28.809,-185.059,0.000
1673144625.745,312.012,546.387,-19.043,200.684,0.000
1673144625.749,242.188,971.680,-30.273,191.895,0.000
1673144625.753,-300.293,-317.871,-44.922,-198.242,0.000
1673144625.757,-353.027,-1000.000,-38.086,-267.578,0.000
1673144625.760,179.688,102.051,-23.438,104.980,0.000
1673144625.764,341.309,-961.426,-27.344,250.488,0.000
1673144625.768,-150.879,140.625,-42.480,-85.449,0.000
1673144625.772,-413.574,-1000.000,-39.062,-299.316,0.000
1673144625.776,35.156,-524.902,-25.391,-3.418,0.000
1673144625.780,388.184,655.273,-25.391,273.438,0.000
1673144625.784,9.277,67.871,-30.273,32.227,0.000
1673144625.788,-414.551,-933.105,-29.297,-291.504,0.000
1673144625.792,-106.445,-703.613,-24.414,-104.492,0.000
1673144625.796,374.023,594.238,-17.090,250.488,0.000
1673144625.799,160.156,907.715,-24.414,131.836,0.000
1673144625.803,-362.793,-401.855,-37.598,-251.465,0.000
1673144625.807,-238.281,-1000.000,-29.785,-197.266,0.000
1673144625.811,219.238,-60.547,-23.926,141.113,0.000
1673144625.815,202.637,985.840,-27.832,168.457,0.000
1673144625.819,-141.113,306.641,-32.715,-83.984,0.000
1673144625.823,-246.582,-866.699,-36.133,-191.406,0.000
1673144625.827,60.059,-926.758,-25.391,31.250,0.000
1673144625.831,230.957,335.449,-18.555,177.246,0.000
1673144625.835,-41.016,722.168,-23.926,-25.391,0.000
1673144625.839,-270.508,-683.594,-26.855,-226.074,0.000
1673144625.842,-38.086,-675.293,-21.484,-72.266,0.000
1673144625.846,228.027,753.418,-19.043,151.367,0.000
1673144625.850,38.574,690.430,-26.855,33.203,0.000
1673144625.854,-267.578,-681.152,-32.715,-212.402,0.000
1673144625.858,-133.301,-808.105,-27.832,-140.137,0.000
1673144625.862,202.148,490.234,-20.508,117.676,0.000
1673144625.866,145.508,962.402,-23.438,102.051,0.000
1673144625.870,-198.242,-289.551,-31.250,-148.926,0.000
1673144625.874,-219.727,-991.211,-28.320,-185.547,0.000
1673144625.878,114.258,139.160,-21.484,68.359,0.000
1673144625.881,192.871,-935.059,-25.391,158.691,0.000
1673144625.885,-120.117,-34.180,-33.691,-80.078,0.000
1673144625.889,-246.582,-1000.000,-27.344,-209.961,0.000
1673144625.893,50.293,-174.805,-20.020,-2.441,0.000
1673144625.897,233.887,737.793,-27.344,162.598,0.000
1673144625.901,-39.062,270.508,-31.250,-13.184,0.000
1673144625.905,-289.062,-827.637,-28.809,-213.379,0.000
1673144625.909,-71.777,-711.426,-19.531,-65.918,0.000
1673144625.913,219.727,586.914,-21.973,163.086,0.000
1673144625.917,62.988,428.711,-31.250,75.684,0.000
1673144625.921,-244.141,-772.461,-33.691,-167.480,0.000
1673144625.924,-155.273,-761.719,-30.762,-127.930,0.000
1673144625.928,170.898,301.758,-29.297,128.906,0.000
1673144625.932,155.273,489.258,-33.691,141.602,0.000
1673144625.936,-187.012,-288.574,-38.086,-110.352,0.000
1673144625.940,-226.562,-816.895,-35.156,-169.922,0.000
1673144625.944,110.840,-198.730,-28.809,79.590,0.000
1673144625.948,215.820,721.191,-25.391,189.941,0.000
1673144625.952,-81.543,430.176,-28.320,-37.109,0.000
1673144625.956,-302.246,-745.117,-36.621,-237.305,0.000
1673144625.960,33.203,-614.258,-28.809,-2.441,0.000
1673144625.963,365.234,750.977,-22.949,264.160,0.000
1673144625.967,-22.461,303.711,-33.691,0.000,0.000
1673144625.971,-406.250,-977.539,-36.133,-304.688,0.000
1673144625.975,-63.965,-1000.000,-31.250,-80.078,0.000
1673144625.979,386.719,19.043,-25.879,271.484,0.000
1673144625.983,126.465,864.746,-26.855,117.188,0.000
1673144625.987,-387.207,-456.055,-28.809,-257.812,0.000
1673144625.991,-225.098,-1000.000,-20.020,-173.828,0.000
1673144625.995,307.617,199.219,-10.742,217.773,0.000
1673144625.999,246.094,-920.898,-16.113,210.938,0.000
1673144626.003,-290.039,-92.773,-32.227,-185.059,0.000
1673144626.006,-341.309,-1000.000,-31.250,-256.836,0.000
1673144626.010,182.129,-190.430,-19.531,115.234,0.000
1673144626.014,339.844,-935.547,-20.996,259.277,0.000
1673144626.018,-146.973,158.691,-31.250,-75.195,0.000
1673144626.022,-404.785,-1000.000,-26.367,-284.180,0.000
1673144626.026,41.016,-303.223,-13.184,10.254,0.000
1673144626.030,387.695,-908.691,-19.043,283.203,0.000
1673144626.034,7.324,440.430,-34.180,46.387,0.000
1673144626.038,-409.668,-1000.000,-35.156,-282.715,0.000
1673144626.042,-95.703,-687.988,-22.949,-96.191,0.000
1673144626.045,390.137,781.738,-14.648,259.277,0.000
1673144626.049,166.992,660.156,-25.391,134.766,0.000
1673144626.053,-362.793,-691.406,-33.691,-239.746,0.000
1673144626.057,-246.582,-1000.000,-24.902,-195.312,0.000
1673144626.061,287.598,191.895,-17.090,184.570,0.000
1673144626.065,279.297,736.328,-20.508,222.656,0.000
1673144626.069,-257.324,-667.480,-32.227,-140.137,0.000
1673144626.073,-356.934,-1000.000,-30.762,-252.441,0.000
1673144626.077,164.062,-225.586,-20.508,100.586,0.000
1673144626.081,344.238,-963.379,-20.996,270.996,0.000
1673144626.085,-83.984,285.156,-30.762,-31.250,0.000
1673144626.088,-309.570,-992.188,-29.297,-234.375,0.000
1673144626.092,-40.039,-617.188,-27.832,-55.176,0.000
1673144626.096,220.703,538.574,-25.879,160.156,0.000
1673144626.100,43.457,680.664,-27.832,49.805,0.000
1673144626.104,-255.371,-583.008,-36.133,-189.453,0.000
1673144626.108,-125.488,-936.035,-31.738,-121.582,0.000
1673144626.112,201.660,-350.586,-26.367,140.137,0.000
1673144626.116,137.695,377.930,-28.320,127.441,0.000
1673144626.120,-205.078,65.430,-40.527,-138.184,0.000
1673144626.124,-206.543,-902.344,-39.551,-168.945,0.000
1673144626.127,145.996,-219.238,-26.367,96.191,0.000
1673144626.131,227.051,771.484,-24.414,185.059,0.000
1673144626.135,-106.445,242.676,-35.156,-64.941,0.000
1673144626.139,-253.418,-872.559,-39.551,-206.055,0.000
1673144626.143,45.410,-446.777,-24.414,11.719,0.000
1673144626.147,232.422,856.445,-21.484,178.711,0.000
1673144626.151,-28.809,298.340,-31.738,1.465,0.000
1673144626.155,-277.832,-973.145,-34.180,-200.684,0.000
1673144626.159,-64.453,-711.426,-27.344,-68.848,0.000
1673144626.163,229.492,628.906,-21.973,160.156,0.000
1673144626.167,68.848,892.578,-32.227,73.242,0.000
1673144626.170,-251.465,-430.176,-35.645,-180.664,0.000
1673144626.174,-150.391,-806.641,-25.879,-134.277,0.000
1673144626.178,184.570,303.711,-22.461,128.906,0.000
1673144626.182,157.227,686.035,-25.879,134.277,0.000
1673144626.186,-184.570,-371.094,-32.715,-128.418,0.000
1673144626.190,-231.934,-995.605,-27.832,-187.500,0.000
1673144626.194,103.027,56.152,-15.625,51.758,0.000
1673144626.198,218.262,809.570,-18.066,154.785,0.000
1673144626.202,-87.891,-242.676,-28.320,-62.012,0.000
1673144626.206,-247.559,-1000.000,-25.879,-206.543,0.000
1673144626.209,-16.113,-242.188,-20.508,-31.738,0.000
1673144626.213,128.418,427.734,-25.391,108.887,0.000
1673144626.217,31.250,321.777,-26.855,42.480,0.000
1673144626.221,-110.840,-51.270,-26.367,-93.262,0.000
1673144626.225,-85.449,-202.148,-22.949,-85.938,0.000
1673144626.229,62.012,72.266,-20.996,54.199,0.000
1673144626.233,66.406,332.520,-29.785,77.148,0.000
1673144626.237,-79.102,173.340,-32.227,-62.012,0.000
1673144626.241,-124.512,-416.016,-26.855,-114.258,0.000
1673144626.245,12.695,-455.078,-26.367,22.461,0.000
1673144626.249,93.750,-69.336,-26.367,96.680,0.000
1673144626.252,-36.621,66.406,-30.273,-24.414,0.000
1673144626.256,-135.254,-248.535,-29.785,-121.582,0.000
1673144626.260,-12.207,-496.094,-20.020,-23.438,0.000
1673144626.264,107.910,169.922,-13.672,93.750,0.000
1673144626.268,16.602,560.059,-15.625,17.090,0.000
1673144626.272,-109.375,-345.215,-18.555,-109.375,0.000
1673144626.276,-42.480,-833.984,-16.602,-52.734,0.000
1673144626.280,90.332,29.297,-15.137,81.055,0.000
1673144626.284,55.176,685.547,-17.090,58.105,0.000
1673144626.288,-95.215,37.598,-20.020,-82.031,0.000
1673144626.291,-76.172,-645.020,-25.879,-81.055,0.000
1673144626.295,72.754,-227.051,-25.391,61.523,0.000
1673144626.299,75.684,380.859,-21.484,85.449,0.000
1673144626.303,-68.848,20.508,-24.414,-44.922,0.000
1673144626.307,-133.789,-664.062,-25.391,-115.723,0.000
1673144626.311,2.930,-137.207,-16.602,4.395,0.000
1673144626.315,95.703,664.551,-9.277,99.121,0.000
1673144626.319,-30.762,170.410,-15.625,-9.766,0.000
1673144626.323,-144.043,-711.426,-19.531,-125.977,0.000
1673144626.327,-26.367,-209.473,-12.695,-33.203,0.000
1673144626.331,99.609,558.594,-12.695,96.191,0.000
1673144626.334,2.930,255.371,-20.508,19.531,0.000
1673144626.338,-136.230,-695.801,-23.438,-107.422,0.000
1673144626.342,-70.312,-623.047,-16.602,-54.199,0.000
1673144626.346,83.496,363.281,-13.184,79.590,0.000
1673144626.350,59.570,245.605,-16.602,66.406,0.000
1673144626.354,-95.215,-582.031,-19.043,-69.336,0.000
1673144626.358,-98.145,-540.039,-21.484,-89.844,0.000
1673144626.362,60.547,-14.648,-18.555,48.340,0.000
1673144626.366,105.469,-132.812,-13.672,102.051,0.000
1673144626.370,-45.410,-439.453,-18.066,-31.738,0.000
1673144626.374,-126.465,-217.285,-23.926,-115.234,0.000
1673144626.377,8.301,38.574,-20.508,3.906,0.000
1673144626.381,109.375,426.270,-17.090,105.469,0.000
1673144626.385,-16.602,90.332,-21.484,8.789,0.000
1673144626.389,-138.184,-535.156,-21.973,-111.328,0.000
1673144626.393,-25.879,-372.559,-19.043,-29.297,0.000
1673144626.397,106.934,83.496,-13.672,104.492,0.000
1673144626.401,29.297,398.926,-16.113,45.898,0.000
1673144626.405,-108.398,87.402,-18.555,-85.938,0.000
1673144626.409,-64.941,-477.539,-16.113,-56.152,0.000
1673144626.413,71.777,-454.102,-16.113,69.336,0.000
1673144626.416,85.449,376.465,-15.625,83.496,0.000
1673144626.420,-137.695,106.934,-24.902,-101.562,0.000
1673144626.424,-164.062,-860.840,-25.391,-141.602,0.000
1673144626.428,170.410,19.531,-17.578,112.793,0.000
1673144626.432,159.668,802.246,-22.949,137.207,0.000
1673144626.436,-177.734,-332.520,-27.832,-118.652,0.000
1673144626.440,-218.750,-1000.000,-25.879,-181.641,0.000
1673144626.444,112.305,-193.848,-19.043,66.895,0.000
1673144626.448,219.238,-974.609,-17.578,180.664,0.000
1673144626.452,-89.844,484.375,-22.461,-39.551,0.000
1673144626.456,-252.441,-850.098,-23.926,-189.453,0.000
1673144626.459,23.438,-727.539,-19.531,5.371,0.000
1673144626.463,234.863,608.887,-20.508,187.500,0.000
1673144626.467,-5.859,449.219,-31.738,26.367,0.000
1673144626.471,-274.902,-789.551,-33.203,-187.988,0.000
1673144626.475,-86.426,-624.023,-26.855,-73.730,0.000
1673144626.479,219.727,440.430,-22.461,164.062,0.000
1673144626.483,89.844,566.406,-24.902,100.098,0.000
1673144626.487,-241.699,-578.125,-30.762,-149.902,0.000
1673144626.491,-166.016,-858.398,-22.949,-123.047,0.000
1673144626.495,173.828,435.059,-19.043,126.465,0.000
1673144626.498,169.922,866.211,-27.832,144.531,0.000
1673144626.502,-161.621,-471.191,-33.203,-97.656,0.000
1673144626.506,-230.469,-1000.000,-29.297,-181.152,0.000
1673144626.510,92.285,58.105,-25.879,49.805,0.000
1673144626.514,228.027,812.988,-25.391,178.711,0.000
1673144626.518,-66.406,151.367,-30.762,-30.273,0.000
1673144626.522,-264.648,-848.145,-28.809,-203.613,0.000
1673144626.526,-7.324,-680.176,-20.996,-15.137,0.000
1673144626.530,239.746,234.863,-20.020,199.707,0.000
1673144626.534,29.785,362.305,-22.949,51.758,0.000
1673144626.538,-250.000,-437.012,-26.855,-181.641,0.000
1673144626.541,-86.914,-527.344,-21.484,-87.891,0.000
1673144626.545,223.145,45.898,-17.090,166.504,0.000
1673144626.549,124.512,269.043,-21.973,126.465,0.000
1673144626.553,-203.613,-277.832,-28.809,-131.836,0.000
1673144626.557,-178.711,-1000.000,-26.855,-141.602,0.000
1673144626.561,156.250,-183.594,-13.184,110.840,0.000
1673144626.565,192.871,983.398,-17.090,176.758,0.000
1673144626.569,-147.461,287.598,-31.250,-65.918,0.000
1673144626.573,-249.023,-971.191,-33.691,-174.316,0.000
1673144626.577,64.941,-697.266,-23.926,55.176,0.000
1673144626.580,231.934,504.883,-17.578,201.172,0.000
1673144626.584,-41.016,578.613,-20.508,2.441,0.000
1673144626.588,-263.184,-627.930,-25.391,-188.477,0.000
1673144626.592,-32.227,-868.652,-23.926,-32.715,0.000
1673144626.596,229.004,488.281,-11.719,182.129,0.000
1673144626.600,49.805,913.086,-16.113,64.941,0.000
1673144626.604,-246.582,-420.410,-24.902,-177.734,0.000
1673144626.608,-111.816,-818.848,-20.508,-109.375,0.000
