timestamp,TP9,AF7,AF8,TP10,Right AUX
1673144784.199,49.805,-692.383,24.902,-56.641,0.000
1673144784.203,-77.148,-521.484,20.996,-183.105,0.000
1673144784.206,-130.371,-989.258,16.602,-233.398,0.000
1673144784.210,-1.465,-888.184,34.180,-105.469,0.000
1673144784.214,83.008,-300.781,38.574,-17.090,0.000
1673144784.218,-24.414,-566.895,15.625,-115.234,0.000
1673144784.222,-123.047,-1000.000,10.742,-216.309,0.000
1673144784.226,-31.250,-914.551,32.715,-136.230,0.000
1673144784.230,70.312,-300.293,43.457,-23.438,0.000
1673144784.234,1.953,-125.977,23.926,-84.473,0.000
1673144784.238,-95.215,-762.695,12.207,-190.430,0.000
1673144784.242,-47.852,-1000.000,30.762,-129.395,0.000
1673144784.245,61.523,-390.137,52.246,-9.766,0.000
1673144784.249,34.668,-7.812,36.133,-26.855,0.000
1673144784.253,-82.520,-615.723,15.625,-148.438,0.000
1673144784.257,-84.473,-1000.000,27.344,-163.086,0.000
1673144784.261,45.410,-594.727,42.480,-37.109,0.000
1673144784.265,77.148,-401.855,38.086,10.254,0.000
1673144784.269,-43.457,-798.340,26.367,-97.656,0.000
1673144784.273,-108.887,-1000.000,28.809,-182.129,0.000
1673144784.277,-2.441,-727.539,48.828,-74.219,0.000
1673144784.281,76.172,-383.301,41.016,22.949,0.000
1673144784.285,-26.367,-728.027,16.602,-80.078,0.000
1673144784.288,-125.488,-1000.000,29.297,-179.199,0.000
1673144784.292,-40.039,-785.156,52.246,-101.562,0.000
1673144784.296,72.754,-278.320,49.316,23.926,0.000
1673144784.300,10.742,-457.520,41.504,-20.508,0.000
1673144784.304,-97.168,-927.734,41.992,-128.906,0.000
1673144784.308,-58.594,-943.359,49.316,-86.426,0.000
1673144784.312,60.059,-782.227,59.570,39.062,0.000
1673144784.316,63.477,-757.324,59.082,41.504,0.000
1673144784.320,-75.684,-899.902,52.246,-89.844,0.000
1673144784.324,-108.887,-963.379,62.012,-124.023,0.000
1673144784.327,21.484,-658.691,68.359,5.371,0.000
1673144784.331,71.289,-602.539,65.430,69.336,0.000
1673144784.335,-45.898,-883.789,63.965,-40.527,0.000
1673144784.339,-123.047,-974.121,63.965,-100.586,0.000
1673144784.343,-6.836,-882.812,80.078,11.230,0.000
1673144784.347,89.355,-434.570,92.285,105.469,0.000
1673144784.351,-7.324,-327.148,81.543,29.785,0.000
1673144784.355,-107.910,-840.332,69.824,-75.684,0.000
1673144784.359,-31.250,-1000.000,72.754,0.977,0.000
1673144784.363,85.449,-726.562,85.449,134.277,0.000
1673144784.367,22.461,-253.906,83.984,87.891,0.000
1673144784.370,-109.375,-676.758,72.754,-39.062,0.000
1673144784.374,-72.754,-1000.000,79.590,-24.414,0.000
1673144784.378,53.223,-886.230,102.051,100.098,0.000
1673144784.382,53.711,-411.133,112.305,111.328,0.000
1673144784.386,-63.477,-500.977,88.379,-23.438,0.000
1673144784.390,-102.539,-1000.000,86.426,-62.988,0.000
1673144784.394,8.789,-812.012,109.375,52.246,0.000
1673144784.398,80.078,-140.137,110.352,120.605,0.000
1673144784.402,-25.391,-372.559,86.914,19.043,0.000
1673144784.406,-121.582,-1000.000,81.543,-79.590,0.000
1673144784.410,-18.066,-865.723,98.145,0.000,0.000
1673144784.413,83.008,-218.262,108.887,88.867,0.000
1673144784.417,0.000,-285.156,91.797,-7.812,0.000
1673144784.421,-101.562,-923.828,80.566,-144.043,0.000
1673144784.425,-45.898,-932.129,105.469,-93.262,0.000
1673144784.429,61.035,-334.961,106.445,16.602,0.000
1673144784.433,23.926,-223.145,82.520,-27.832,0.000
1673144784.437,-102.051,-852.539,77.148,-162.598,0.000
1673144784.441,-100.586,-1000.000,86.914,-166.992,0.000
1673144784.445,29.297,-531.250,91.797,-28.320,0.000
1673144784.449,63.965,-485.352,85.938,6.348,0.000
1673144784.452,-59.082,-948.242,75.195,-119.141,0.000
1673144784.456,-120.605,-1000.000,83.984,-182.617,0.000
1673144784.460,-4.883,-625.000,96.191,-74.707,0.000
1673144784.464,96.680,-500.977,78.613,21.973,0.000
1673144784.468,-24.414,-965.332,65.430,-72.266,0.000
1673144784.472,-192.871,-1000.000,72.754,-219.727,0.000
1673144784.476,20.020,-652.832,93.750,-62.988,0.000
1673144784.480,204.102,86.426,91.797,93.262,0.000
1673144784.484,-45.898,-375.977,59.570,-87.402,0.000
1673144784.488,-250.488,-1000.000,58.594,-248.047,0.000
1673144784.492,-34.668,-833.984,91.309,-89.844,0.000
1673144784.495,215.332,-143.555,99.609,122.070,0.000
1673144784.499,46.875,-394.043,69.824,9.766,0.000
1673144784.503,-242.676,-1000.000,53.223,-207.520,0.000
1673144784.507,-127.930,-947.266,77.637,-132.812,0.000
1673144784.511,172.852,-852.539,93.262,102.539,0.000
1673144784.515,114.746,-455.566,83.496,89.355,0.000
1673144784.519,-183.105,-536.621,62.012,-139.160,0.000
1673144784.523,-195.801,-1000.000,64.941,-167.969,0.000
1673144784.527,100.098,-577.148,94.727,65.918,0.000
1673144784.531,179.688,394.043,90.820,155.273,0.000
1673144784.534,-110.352,-238.770,61.523,-64.453,0.000
1673144784.538,-243.652,-1000.000,61.523,-189.941,0.000
1673144784.542,28.809,-736.816,85.938,17.090,0.000
1673144784.546,200.195,-42.969,83.008,201.172,0.000
1673144784.550,-40.527,-390.625,53.711,41.016,0.000
1673144784.554,-264.648,-1000.000,41.016,-159.180,0.000
1673144784.558,-67.871,-988.281,70.312,-28.809,0.000
1673144784.562,196.777,-175.293,93.262,182.617,0.000
1673144784.566,63.477,-84.473,59.082,104.004,0.000
1673144784.570,-219.727,-969.727,40.039,-124.512,0.000
1673144784.574,-130.859,-1000.000,64.941,-83.496,0.000
1673144784.577,91.797,-478.516,77.637,103.027,0.000
1673144784.581,94.727,-0.488,61.035,127.930,0.000
1673144784.585,-20.508,-518.066,46.875,9.766,0.000
1673144784.589,-106.934,-1000.000,46.387,-83.984,0.000
1673144784.593,-9.277,-917.969,57.617,12.695,0.000
1673144784.597,96.191,-579.102,62.988,114.746,0.000
1673144784.601,-4.395,-677.734,43.457,28.809,0.000
1673144784.605,-117.676,-1000.000,44.434,-92.285,0.000
1673144784.609,-48.828,-743.652,56.641,-39.551,0.000
1673144784.613,63.477,-367.676,52.246,85.938,0.000
1673144784.617,16.602,-577.637,43.457,60.547,0.000
1673144784.620,-116.211,-898.438,39.551,-62.012,0.000
1673144784.624,-93.750,-891.602,49.805,-57.617,0.000
1673144784.628,49.805,-648.926,56.641,71.777,0.000
1673144784.632,53.711,-468.262,53.223,90.332,0.000
1673144784.636,-83.496,-646.484,41.016,-64.453,0.000
1673144784.640,-123.047,-992.188,44.434,-133.789,0.000
1673144784.644,11.230,-998.535,61.035,-11.719,0.000
1673144784.648,83.008,-823.242,61.523,63.477,0.000
1673144784.652,-41.016,-611.328,58.105,-53.223,0.000
1673144784.656,-134.277,-847.168,50.293,-151.367,0.000
1673144784.659,-16.113,-1000.000,59.082,-66.895,0.000
1673144784.663,91.797,-532.715,66.895,36.621,0.000
1673144784.667,-7.324,-255.859,49.316,-39.062,0.000
1673144784.671,-122.070,-843.262,37.109,-159.180,0.000
1673144784.675,-61.523,-1000.000,52.246,-104.980,0.000
1673144784.679,60.547,-412.598,59.082,6.836,0.000
1673144784.683,26.855,-219.727,44.922,-16.602,0.000
1673144784.687,-93.750,-809.570,38.086,-125.000,0.000
1673144784.691,-98.145,-1000.000,42.480,-131.836,0.000
1673144784.695,16.113,-685.547,57.129,-21.973,0.000
1673144784.699,53.711,-63.477,52.246,12.695,0.000
1673144784.702,-62.012,-471.680,26.367,-97.656,0.000
1673144784.706,-123.047,-1000.000,26.367,-157.227,0.000
1673144784.710,-19.531,-687.988,44.434,-45.410,0.000
1673144784.714,59.082,-68.359,41.504,44.922,0.000
1673144784.718,-42.969,-393.066,20.508,-61.523,0.000
1673144784.722,-132.324,-1000.000,23.926,-166.992,0.000
1673144784.726,-41.016,-901.367,38.086,-85.938,0.000
1673144784.730,60.059,-545.410,39.062,25.391,0.000
1673144784.734,-0.488,-674.805,23.926,-27.344,0.000
1673144784.738,-117.188,-1000.000,21.973,-154.297,0.000
1673144784.741,-67.871,-937.988,50.293,-122.559,0.000
1673144784.745,66.895,-402.344,55.664,5.859,0.000
1673144784.749,39.062,-335.449,43.457,3.906,0.000
1673144784.753,-94.238,-933.594,36.133,-117.676,0.000
1673144784.757,-108.398,-1000.000,44.922,-144.531,0.000
1673144784.761,14.648,-585.938,50.293,-15.625,0.000
1673144784.765,67.871,-400.391,45.410,38.574,0.000
1673144784.769,-55.176,-638.184,31.738,-86.426,0.000
1673144784.773,-133.301,-918.945,31.738,-151.855,0.000
1673144784.777,-20.996,-740.723,43.945,-42.480,0.000
1673144784.781,81.055,-620.605,47.363,51.758,0.000
1673144784.784,-17.578,-880.371,36.621,-37.598,0.000
1673144784.788,-137.695,-989.746,29.785,-155.273,0.000
1673144784.792,-54.688,-874.512,41.992,-75.684,0.000
1673144784.796,64.941,-769.043,50.781,51.758,0.000
1673144784.800,16.113,-588.379,52.734,9.766,0.000
1673144784.804,-107.422,-692.871,42.969,-104.492,0.000
1673144784.808,-76.660,-1000.000,46.387,-82.520,0.000
1673144784.812,67.871,-684.570,58.105,44.922,0.000
1673144784.816,66.895,-161.133,49.805,58.105,0.000
1673144784.820,-73.242,-579.102,41.016,-65.430,0.000
1673144784.823,-110.840,-1000.000,46.387,-108.398,0.000
1673144784.827,14.160,-917.969,54.199,14.160,0.000
1673144784.831,81.055,-465.820,58.105,65.430,0.000
1673144784.835,-31.738,-485.840,46.387,-59.082,0.000
1673144784.839,-113.281,-1000.000,28.320,-135.254,0.000
1673144784.843,-13.672,-884.766,45.410,-29.297,0.000
1673144784.847,79.590,-505.371,65.430,60.059,0.000
1673144784.851,-2.930,-501.465,41.016,-25.879,0.000
1673144784.855,-121.582,-878.418,30.273,-139.160,0.000
1673144784.859,-51.270,-904.785,51.270,-78.125,0.000
1673144784.863,72.754,-272.949,54.688,43.457,0.000
1673144784.866,18.555,-156.738,39.062,9.766,0.000
1673144784.870,-108.398,-789.062,35.156,-111.328,0.000
1673144784.874,-90.820,-1000.000,46.387,-103.027,0.000
1673144784.878,31.250,-629.883,55.664,20.508,0.000
1673144784.882,48.828,-219.727,47.363,49.805,0.000
1673144784.886,-76.172,-691.406,30.273,-66.895,0.000
1673144784.890,-128.418,-1000.000,38.086,-128.906,0.000
1673144784.894,4.883,-696.777,44.434,-3.418,0.000
1673144784.898,82.031,-408.203,39.062,93.750,0.000
1673144784.902,-39.062,-615.234,33.203,4.395,0.000
1673144784.906,-173.828,-1000.000,36.133,-105.957,0.000
1673144784.909,14.160,-575.195,57.129,51.270,0.000
1673144784.913,176.758,130.371,48.340,179.688,0.000
1673144784.917,-81.055,-470.703,10.742,-41.504,0.000
1673144784.921,-269.043,-1000.000,4.883,-191.406,0.000
1673144784.925,-39.551,-711.914,40.527,7.324,0.000
1673144784.929,205.566,-131.836,36.621,232.422,0.000
1673144784.933,34.180,-720.215,7.812,132.324,0.000
1673144784.937,-249.512,-1000.000,11.230,-91.309,0.000
1673144784.941,-125.488,-982.422,23.926,-17.090,0.000
1673144784.945,163.574,-507.324,38.086,221.191,0.000
1673144784.948,97.656,-17.090,22.461,200.195,0.000
1673144784.952,-204.590,-645.996,-3.906,-51.758,0.000
1673144784.956,-210.938,-1000.000,6.348,-119.141,0.000
1673144784.960,99.121,-574.707,35.156,104.492,0.000
1673144784.964,136.230,48.340,26.855,139.160,0.000
1673144784.968,-161.621,-647.949,-10.254,-120.605,0.000
1673144784.972,-246.094,-1000.000,-3.418,-215.332,0.000
1673144784.976,16.602,-1000.000,30.273,-12.207,0.000
1673144784.980,187.500,-342.773,43.945,142.578,0.000
1673144784.984,-42.969,-69.824,15.137,-41.992,0.000
1673144784.988,-261.230,-1000.000,-3.906,-223.633,0.000
1673144784.991,-67.383,-880.859,22.949,-88.379,0.000
1673144784.995,193.359,129.395,41.504,117.676,0.000
1673144784.999,47.363,214.844,16.602,29.785,0.000
1673144785.003,-239.746,-749.512,-8.301,-194.336,0.000
1673144785.007,-150.391,-1000.000,10.742,-144.043,0.000
1673144785.011,163.086,-334.961,37.109,114.258,0.000
1673144785.015,125.000,49.805,23.926,148.438,0.000
1673144785.019,-187.012,-774.902,-2.441,-63.477,0.000
1673144785.023,-210.449,-1000.000,14.648,-100.098,0.000
1673144785.027,92.773,-444.824,51.758,131.836,0.000
1673144785.030,184.570,371.582,33.691,235.352,0.000
1673144785.034,-91.797,-359.863,-2.441,25.391,0.000
1673144785.038,-239.258,-1000.000,8.301,-118.164,0.000
1673144785.042,9.277,-715.820,41.504,62.012,0.000
1673144785.046,203.125,270.508,37.598,231.445,0.000
1673144785.050,-15.137,-185.547,12.207,77.148,0.000
1673144785.054,-258.789,-1000.000,8.789,-149.902,0.000
1673144785.058,-75.195,-881.836,30.762,-63.965,0.000
1673144785.062,196.289,-275.879,45.410,141.113,0.000
1673144785.066,60.059,-447.754,19.043,64.453,0.000
1673144785.070,-230.957,-1000.000,10.254,-167.480,0.000
1673144785.073,-164.551,-991.211,35.156,-166.992,0.000
1673144785.077,140.625,-357.422,46.875,52.246,0.000
1673144785.081,148.438,76.660,34.180,85.938,0.000
1673144785.085,-153.809,-545.410,10.254,-136.719,0.000
1673144785.089,-223.145,-1000.000,15.625,-238.770,0.000
1673144785.093,67.383,-672.363,38.574,-31.738,0.000
1673144785.097,199.707,19.043,36.621,90.332,0.000
1673144785.101,-62.012,-313.965,13.184,-104.004,0.000
1673144785.105,-249.512,-1000.000,14.648,-247.070,0.000
1673144785.109,-17.578,-1000.000,36.133,-57.617,0.000
1673144785.112,203.125,-684.570,43.945,145.020,0.000
1673144785.116,13.672,-344.727,29.297,11.719,0.000
1673144785.120,-245.117,-891.113,10.254,-187.500,0.000
1673144785.124,-107.910,-1000.000,31.250,-77.148,0.000
1673144785.128,173.828,-386.230,44.922,153.809,0.000
1673144785.132,102.051,-5.371,25.391,121.582,0.000
1673144785.136,-191.406,-665.527,1.953,-105.469,0.000
1673144785.140,-171.387,-1000.000,14.648,-99.121,0.000
1673144785.144,129.883,-320.312,48.828,160.645,0.000
1673144785.148,162.598,450.684,35.645,214.355,0.000
1673144785.152,-116.699,-345.215,7.324,-7.324,0.000
1673144785.155,-221.680,-1000.000,13.672,-116.211,0.000
1673144785.159,39.551,-814.453,42.480,80.078,0.000
1673144785.163,193.848,119.141,45.410,213.867,0.000
1673144785.167,-56.641,-153.809,7.324,18.555,0.000
1673144785.171,-249.512,-1000.000,5.859,-162.109,0.000
1673144785.175,-26.367,-981.445,40.039,-31.738,0.000
1673144785.179,194.824,-97.168,43.945,145.508,0.000
1673144785.183,17.578,-11.719,14.648,41.016,0.000
1673144785.187,-245.117,-954.102,0.000,-184.082,0.000
1673144785.191,-131.348,-1000.000,29.785,-135.254,0.000
1673144785.195,158.203,-190.918,49.805,97.656,0.000
1673144785.198,117.188,96.680,20.996,77.637,0.000
1673144785.202,-187.988,-849.609,-8.301,-166.992,0.000
1673144785.206,-211.426,-1000.000,15.137,-214.844,0.000
1673144785.210,97.168,-391.602,44.434,0.977,0.000
1673144785.214,166.504,-13.672,27.832,80.566,0.000
1673144785.218,-113.770,-811.523,3.906,-135.254,0.000
1673144785.222,-238.281,-1000.000,11.719,-258.789,0.000
1673144785.226,26.855,-636.230,39.062,-55.176,0.000
1673144785.230,203.125,-336.914,31.738,114.258,0.000
1673144785.234,-30.273,-903.320,9.766,-42.480,0.000
1673144785.237,-249.512,-1000.000,14.160,-241.699,0.000
1673144785.241,-60.059,-850.586,33.691,-121.094,0.000
1673144785.245,205.566,-206.543,42.480,96.191,0.000
1673144785.249,68.848,-284.668,19.531,12.695,0.000
1673144785.253,-224.609,-939.941,5.859,-216.797,0.000
1673144785.257,-151.367,-1000.000,22.461,-190.430,0.000
1673144785.261,151.855,-550.293,41.992,47.363,0.000
1673144785.265,142.578,71.289,32.715,64.453,0.000
1673144785.269,-162.598,-506.348,5.859,-174.316,0.000
1673144785.273,-214.844,-1000.000,9.277,-237.793,0.000
1673144785.277,79.590,-875.000,41.504,-23.926,0.000
1673144785.280,185.059,60.547,46.387,76.660,0.000
1673144785.284,-89.844,-193.359,9.277,-121.094,0.000
1673144785.288,-249.512,-1000.000,5.859,-248.047,0.000
1673144785.292,2.930,-744.629,37.598,-43.945,0.000
1673144785.296,211.914,-59.570,42.969,143.066,0.000
1673144785.300,-10.254,-323.730,11.230,-17.090,0.000
1673144785.304,-238.770,-992.676,-13.672,-237.305,0.000
1673144785.308,-60.059,-919.922,17.578,-144.531,0.000
1673144785.312,196.289,31.738,43.457,81.543,0.000
1673144785.316,83.008,25.879,13.184,20.020,0.000
1673144785.319,-213.379,-908.203,-12.695,-215.332,0.000
1673144785.323,-168.457,-1000.000,16.602,-202.637,0.000
1673144785.327,140.137,-276.367,56.152,29.785,0.000
1673144785.331,167.480,343.262,30.273,80.566,0.000
1673144785.335,-143.066,-494.141,-0.977,-158.203,0.000
1673144785.339,-230.469,-1000.000,11.230,-246.582,0.000
1673144785.343,56.641,-739.746,34.668,-27.832,0.000
1673144785.347,184.570,-127.930,27.344,96.680,0.000
1673144785.351,-67.383,-527.344,4.883,-87.402,0.000
1673144785.355,-247.070,-1000.000,11.719,-256.348,0.000
1673144785.359,-21.484,-800.781,39.062,-89.844,0.000
1673144785.362,199.219,98.633,39.551,111.816,0.000
1673144785.366,24.902,-297.852,9.766,0.488,0.000
1673144785.370,-233.398,-1000.000,3.906,-218.262,0.000
1673144785.374,-109.375,-877.441,24.902,-148.438,0.000
1673144785.378,189.941,-195.801,39.062,94.727,0.000
1673144785.382,123.535,26.855,22.461,62.500,0.000
1673144785.386,-182.129,-649.414,5.371,-180.664,0.000
1673144785.390,-174.316,-1000.000,18.066,-190.918,0.000
1673144785.394,117.676,-715.820,35.645,39.551,0.000
1673144785.398,158.691,-272.461,26.855,96.680,0.000
1673144785.402,-129.883,-644.531,2.441,-125.977,0.000
1673144785.405,-230.957,-1000.000,5.371,-238.281,0.000
1673144785.409,41.992,-1000.000,20.020,-28.320,0.000
1673144785.413,198.242,-562.988,20.020,132.812,0.000
1673144785.417,-36.133,-291.992,8.789,-29.785,0.000
1673144785.421,-239.258,-978.516,0.488,-200.195,0.000
1673144785.425,-37.109,-1000.000,26.855,-41.992,0.000
1673144785.429,223.145,-34.668,43.945,184.570,0.000
1673144785.433,51.758,81.055,17.090,86.426,0.000
1673144785.437,-245.605,-928.711,-5.859,-142.578,0.000
1673144785.441,-128.906,-1000.000,28.809,-70.312,0.000
1673144785.444,162.598,-193.359,56.152,176.758,0.000
1673144785.448,123.535,314.941,26.367,182.617,0.000
1673144785.452,-179.199,-556.641,0.977,-53.223,0.000
1673144785.456,-202.148,-1000.000,21.973,-104.492,0.000
1673144785.460,105.957,-423.828,62.988,126.953,0.000
1673144785.464,188.965,436.523,55.664,201.172,0.000
1673144785.468,-83.008,-259.277,14.648,-11.719,0.000
1673144785.472,-231.445,-1000.000,17.578,-124.023,0.000
1673144785.476,28.320,-683.105,52.734,85.938,0.000
1673144785.480,202.148,208.496,49.316,247.559,0.000
1673144785.484,-41.016,-303.223,9.766,79.590,0.000
1673144785.487,-252.441,-1000.000,8.301,-109.375,0.000
1673144785.491,-59.570,-884.766,49.316,13.672,0.000
1673144785.495,203.125,103.027,64.453,233.398,0.000
1673144785.499,62.988,-25.879,26.855,167.969,0.000
1673144785.503,-226.562,-1000.000,12.695,-57.617,0.000
1673144785.507,-143.555,-1000.000,52.246,-45.410,0.000
1673144785.511,158.203,-438.965,64.941,188.965,0.000
1673144785.515,134.766,-171.875,44.922,206.543,0.000
1673144785.519,-165.039,-729.980,21.484,-37.598,0.000
1673144785.523,-210.938,-1000.000,33.691,-106.445,0.000
1673144785.526,90.820,-575.195,58.105,120.117,0.000
1673144785.530,192.383,-131.836,44.434,226.074,0.000
1673144785.534,-89.844,-674.805,26.367,18.555,0.000
1673144785.538,-245.117,-1000.000,31.250,-139.648,0.000
1673144785.542,7.324,-768.555,49.316,39.062,0.000
1673144785.546,208.496,-427.734,52.246,227.539,0.000
1673144785.550,2.930,-517.090,33.203,89.844,0.000
1673144785.554,-239.746,-880.859,18.066,-122.559,0.000
1673144785.558,-79.102,-1000.000,41.016,-36.621,0.000
1673144785.562,169.434,-288.574,58.105,162.598,0.000
1673144785.566,60.547,-9.277,31.738,109.375,0.000
1673144785.569,-206.543,-801.270,12.207,-114.746,0.000
1673144785.573,-166.504,-1000.000,32.715,-114.258,0.000
1673144785.577,135.742,-683.594,56.641,133.789,0.000
1673144785.581,155.273,-133.789,51.758,177.734,0.000
1673144785.585,-142.578,-577.637,28.320,-49.805,0.000
1673144785.589,-227.051,-1000.000,17.090,-141.602,0.000
1673144785.593,54.688,-732.910,49.805,71.289,0.000
1673144785.597,189.453,32.715,67.383,202.637,0.000
1673144785.601,-48.828,-373.535,31.738,23.438,0.000
1673144785.605,-308.594,-1000.000,22.949,-184.082,0.000
1673144785.608,-42.969,-693.359,68.848,5.859,0.000
1673144785.612,345.215,734.863,82.031,301.758,0.000
1673144785.616,23.926,398.926,27.832,88.867,0.000
1673144785.620,-354.492,-979.492,13.672,-210.938,0.000
1673144785.624,-76.172,-1000.000,59.570,-36.133,0.000
1673144785.628,333.984,-29.297,77.637,266.602,0.000
1673144785.632,171.387,258.789,42.969,166.504,0.000
1673144785.636,-317.383,-828.613,10.742,-183.594,0.000
1673144785.640,-249.512,-1000.000,45.410,-173.340,0.000
1673144785.644,233.887,9.277,82.520,173.340,0.000
1673144785.648,253.418,837.891,55.176,233.398,0.000
1673144785.651,-223.145,-399.414,16.113,-113.281,0.000
1673144785.655,-358.887,-1000.000,30.762,-260.254,0.000
1673144785.659,93.750,-416.016,75.684,63.965,0.000
1673144785.663,324.219,731.445,62.988,260.742,0.000
1673144785.667,-87.891,-140.137,7.812,-32.715,0.000
1673144785.671,-403.320,-1000.000,5.859,-274.902,0.000
1673144785.675,-46.387,-825.195,60.547,-35.645,0.000
1673144785.679,332.520,94.727,66.895,247.070,0.000
1673144785.683,51.758,-316.895,23.438,38.086,0.000
1673144785.687,-375.000,-1000.000,11.230,-347.656,0.000
1673144785.691,-171.387,-952.637,38.574,-235.840,0.000
1673144785.694,208.008,-463.867,64.941,117.676,0.000
1673144785.698,142.090,143.066,47.852,128.418,0.000
1673144785.702,-160.645,-426.270,17.578,-136.230,0.000
1673144785.706,-210.938,-1000.000,22.949,-192.383,0.000
1673144785.710,82.031,-708.984,51.270,60.547,0.000
1673144785.714,184.570,77.148,42.969,162.598,0.000
1673144785.718,-81.543,-437.988,11.230,-36.133,0.000
1673144785.722,-245.605,-1000.000,20.508,-164.551,0.000
1673144785.726,17.090,-1000.000,44.434,39.551,0.000
1673144785.730,201.172,-396.484,50.781,202.148,0.000
1673144785.733,-23.438,-207.031,26.367,40.527,0.000
1673144785.737,-236.328,-1000.000,5.371,-126.953,0.000
1673144785.741,-70.801,-919.434,34.668,-17.578,0.000
1673144785.745,200.684,94.238,58.105,205.566,0.000
1673144785.749,76.660,299.805,24.902,129.883,0.000
1673144785.753,-221.680,-746.582,-8.301,-131.348,0.000
1673144785.757,-152.832,-1000.000,15.625,-109.375,0.000
1673144785.761,149.414,-253.418,41.016,129.883,0.000
1673144785.765,138.672,15.137,24.902,155.273,0.000
1673144785.769,-149.902,-738.281,-6.836,-66.406,0.000
1673144785.773,-222.656,-1000.000,-0.488,-160.645,0.000
1673144785.776,114.746,-401.367,46.875,84.961,0.000
1673144785.780,284.668,807.617,39.062,239.258,0.000
1673144785.784,-136.719,-67.871,-6.836,-60.547,0.000
1673144785.788,-384.766,-1000.000,0.977,-262.695,0.000
1673144785.792,33.203,-722.168,54.688,24.902,0.000
1673144785.796,351.562,640.137,57.617,272.461,0.000
1673144785.800,-4.395,142.090,5.859,34.180,0.000
1673144785.804,-375.977,-1000.000,-0.977,-250.977,0.000
1673144785.808,-88.379,-902.832,41.504,-65.430,0.000
1673144785.812,342.285,131.348,57.129,268.555,0.000
1673144785.815,138.184,-5.371,13.184,166.016,0.000
1673144785.819,-342.285,-1000.000,-15.625,-186.035,0.000
1673144785.823,-230.957,-1000.000,17.090,-149.414,0.000
1673144785.827,262.695,-126.953,43.945,209.473,0.000
1673144785.831,247.070,561.035,17.090,237.793,0.000
1673144785.835,-243.164,-440.918,-17.090,-109.375,0.000
1673144785.839,-335.938,-1000.000,1.953,-208.008,0.000
1673144785.843,131.836,-552.246,40.039,125.977,0.000
1673144785.847,321.289,315.430,28.320,298.340,0.000
1673144785.851,-98.633,-286.621,-7.812,1.953,0.000
1673144785.855,-378.906,-1000.000,-9.277,-235.840,0.000
1673144785.858,-17.090,-921.387,20.996,15.625,0.000
1673144785.862,344.238,-267.578,40.039,303.223,0.000
1673144785.866,37.109,-53.223,7.812,98.145,0.000
1673144785.870,-387.695,-882.812,-21.973,-236.328,0.000
1673144785.874,-138.184,-1000.000,18.066,-93.262,0.000
1673144785.878,335.449,-161.621,51.270,263.672,0.000
1673144785.882,184.570,406.250,19.531,183.105,0.000
1673144785.886,-306.641,-622.070,-17.090,-177.734,0.000
1673144785.890,-252.441,-1000.000,7.324,-178.711,0.000
1673144785.894,246.582,-77.637,52.734,185.059,0.000
1673144785.898,255.371,788.086,33.691,239.746,0.000
1673144785.901,-233.887,-370.117,-22.949,-116.211,0.000
1673144785.905,-345.703,-1000.000,-9.277,-235.352,0.000
1673144785.909,104.004,-703.125,47.363,76.660,0.000
1673144785.913,344.238,449.219,44.922,278.809,0.000
1673144785.917,-64.453,38.574,-4.883,4.395,0.000
1673144785.921,-389.648,-1000.000,-20.508,-253.906,0.000
1673144785.925,-45.410,-800.781,31.738,-34.180,0.000
1673144785.929,354.980,569.336,51.270,260.742,0.000
1673144785.933,77.637,382.324,-3.418,82.031,0.000
1673144785.937,-375.488,-1000.000,-28.320,-261.230,0.000
1673144785.940,-180.176,-1000.000,18.066,-152.832,0.000
1673144785.944,301.758,195.312,49.805,191.895,0.000
1673144785.948,203.613,590.820,8.789,151.855,0.000
1673144785.952,-302.246,-765.137,-28.809,-198.242,0.000
1673144785.956,-305.664,-1000.000,6.348,-241.211,0.000
1673144785.960,181.152,-328.125,46.875,105.957,0.000
1673144785.964,286.133,362.793,19.043,220.703,0.000
1673144785.968,-165.039,-621.094,-22.461,-105.469,0.000
1673144785.972,-356.934,-1000.000,-2.930,-277.832,0.000
1673144785.976,28.809,-624.512,29.785,-12.207,0.000
1673144785.980,253.906,137.695,24.902,169.922,0.000
1673144785.983,6.836,-86.914,-5.859,4.883,0.000
1673144785.987,-238.281,-887.695,-18.066,-193.359,0.000
1673144785.991,-69.336,-919.922,6.836,-94.727,0.000
1673144785.995,198.730,-255.371,26.855,127.930,0.000
1673144785.999,83.496,-225.586,10.742,79.590,0.000
1673144786.003,-209.961,-887.695,-5.371,-154.785,0.000
1673144786.007,-157.227,-983.887,14.648,-147.949,0.000
1673144786.011,149.414,-896.484,28.809,96.680,0.000
1673144786.015,159.180,-584.473,17.090,131.836,0.000
1673144786.019,-131.836,-600.586,-5.371,-98.145,0.000
1673144786.022,-211.914,-1000.000,-2.441,-186.523,0.000
1673144786.026,60.059,-643.555,25.879,26.367,0.000
1673144786.030,192.871,391.602,26.367,157.227,0.000
1673144786.034,-73.242,-61.523,-4.395,-30.273,0.000
1673144786.038,-245.117,-1000.000,-17.578,-193.848,0.000
1673144786.042,-3.906,-829.590,10.254,-34.668,0.000
1673144786.046,215.332,-138.672,32.715,157.715,0.000
1673144786.050,31.250,-242.676,13.184,31.738,0.000
1673144786.054,-229.492,-916.992,-10.742,-175.781,0.000
1673144786.058,-104.492,-1000.000,16.602,-93.750,0.000
1673144786.062,175.781,-53.711,53.223,125.977,0.000
1673144786.065,122.559,147.461,18.066,114.746,0.000
1673144786.069,-260.742,-860.352,-20.020,-177.734,0.000
1673144786.073,-251.953,-1000.000,13.672,-187.500,0.000
1673144786.077,233.398,-1.953,58.594,171.387,0.000
1673144786.081,261.230,913.086,27.344,212.891,0.000
1673144786.085,-222.656,-291.016,-16.113,-142.090,0.000
1673144786.089,-345.215,-1000.000,6.836,-266.602,0.000
1673144786.093,103.027,-627.930,52.734,74.219,0.000
1673144786.097,315.430,430.176,43.457,253.418,0.000
1673144786.101,-99.121,-148.926,-10.742,-41.016,0.000
1673144786.104,-406.738,-1000.000,-3.418,-277.832,0.000
1673144786.108,-32.227,-684.082,47.363,-39.551,0.000
1673144786.112,349.609,646.973,51.758,253.418,0.000
1673144786.116,40.527,289.062,7.812,67.383,0.000
1673144786.120,-404.297,-996.582,-14.648,-267.090,0.000
1673144786.124,-177.246,-973.633,26.367,-125.000,0.000
1673144786.128,301.270,28.809,48.828,223.145,0.000
1673144786.132,175.781,427.734,13.184,143.555,0.000
1673144786.136,-308.594,-605.469,-20.020,-215.820,0.000
1673144786.140,-283.691,-1000.000,6.348,-218.750,0.000
1673144786.144,207.520,-536.621,45.410,141.113,0.000
1673144786.147,283.691,-22.461,34.668,230.469,0.000
1673144786.151,-187.988,-532.227,3.418,-101.562,0.000
1673144786.155,-354.004,-1000.000,7.324,-262.207,0.000
1673144786.159,96.191,-840.820,41.992,46.387,0.000
1673144786.163,343.262,394.043,43.457,253.418,0.000
1673144786.167,-31.738,247.070,3.906,1.953,0.000
1673144786.171,-292.480,-1000.000,-9.766,-221.191,0.000
1673144786.175,-64.941,-1000.000,25.391,-79.590,0.000
1673144786.179,198.242,-33.203,46.387,136.719,0.000
1673144786.183,73.242,50.293,11.230,59.082,0.000
1673144786.187,-223.145,-889.648,-11.719,-173.828,0.000
1673144786.190,-153.320,-1000.000,13.184,-126.953,0.000
1673144786.194,154.297,-474.609,42.969,125.488,0.000
1673144786.198,144.531,310.059,29.297,140.625,0.000
1673144786.202,-164.551,-453.613,-6.836,-102.539,0.000
1673144786.206,-214.844,-1000.000,2.930,-169.922,0.000
1673144786.210,87.402,-597.656,39.551,60.059,0.000
1673144786.214,197.266,376.465,35.156,169.434,0.000
1673144786.218,-74.219,-211.914,-0.488,-36.621,0.000
1673144786.222,-241.211,-1000.000,0.977,-181.641,0.000
1673144786.226,-0.488,-723.145,41.992,1.465,0.000
1673144786.229,217.773,239.258,45.410,190.430,0.000
1673144786.233,11.230,-228.027,3.906,54.688,0.000
1673144786.237,-254.395,-1000.000,-7.324,-160.156,0.000
1673144786.241,-102.051,-943.359,32.715,-66.406,0.000
1673144786.245,188.477,14.160,55.176,160.156,0.000
1673144786.249,100.586,85.449,27.344,110.840,0.000
1673144786.253,-202.148,-933.105,0.488,-125.000,0.000
1673144786.257,-164.551,-1000.000,23.438,-122.070,0.000
1673144786.261,152.344,-275.391,47.363,110.840,0.000
1673144786.265,163.574,184.082,29.785,154.785,0.000
1673144786.269,-150.391,-617.188,6.836,-68.848,0.000
1673144786.272,-229.980,-1000.000,15.137,-163.086,0.000
1673144786.276,61.523,-583.496,40.039,51.270,0.000
1673144786.280,204.590,-271.973,35.156,188.965,0.000
1673144786.284,-58.594,-791.992,18.555,-8.789,0.000
1673144786.288,-251.465,-1000.000,14.160,-195.801,0.000
1673144786.292,-28.320,-878.906,35.156,-38.574,0.000
1673144786.296,211.914,-267.578,43.457,164.062,0.000
1673144786.300,42.480,-113.281,18.066,46.387,0.000
1673144786.304,-237.793,-784.180,2.930,-172.852,0.000
1673144786.308,-112.793,-1000.000,25.391,-102.539,0.000
1673144786.311,188.965,-468.750,41.992,133.789,0.000
1673144786.315,123.047,142.578,24.902,103.516,0.000
1673144786.319,-187.500,-573.730,2.441,-138.672,0.000
1673144786.323,-192.871,-1000.000,9.277,-165.527,0.000
1673144786.327,118.164,-744.629,34.180,59.570,0.000
1673144786.331,184.570,-104.492,38.086,130.859,0.000
1673144786.335,-117.188,-427.734,14.648,-84.961,0.000
1673144786.339,-235.840,-1000.000,7.812,-197.754,0.000
1673144786.343,29.297,-687.012,39.551,4.883,0.000
1673144786.347,199.219,21.484,43.457,152.832,0.000
1673144786.351,-28.320,-459.473,13.184,-34.668,0.000
1673144786.354,-249.023,-1000.000,-0.488,-220.703,0.000
1673144786.358,-62.500,-841.797,33.203,-69.824,0.000
1673144786.362,198.730,172.852,56.152,144.531,0.000
1673144786.366,64.453,214.844,19.043,64.941,0.000
1673144786.370,-229.980,-815.430,-1.465,-165.527,0.000
1673144786.374,-151.367,-1000.000,23.438,-133.789,0.000
1673144786.378,154.785,-408.691,48.340,109.375,0.000
1673144786.382,129.395,230.957,26.855,112.793,0.000
1673144786.386,-173.340,-594.238,-1.953,-138.672,0.000
1673144786.390,-203.125,-1000.000,20.996,-199.219,0.000
1673144786.393,94.727,-415.039,50.781,33.203,0.000
1673144786.397,181.152,317.871,33.203,127.930,0.000
1673144786.401,-89.844,-465.820,10.254,-63.477,0.000
1673144786.405,-232.910,-1000.000,24.902,-192.871,0.000
1673144786.409,17.578,-723.633,45.410,-18.555,0.000
1673144786.413,214.844,103.516,41.992,155.273,0.000
1673144786.417,-7.812,-289.551,10.742,2.930,0.000
1673144786.421,-249.512,-1000.000,2.441,-197.754,0.000
1673144786.425,-72.266,-958.984,30.273,-91.797,0.000
1673144786.429,207.520,-431.641,41.992,138.184,0.000
1673144786.433,92.285,-256.836,22.461,91.309,0.000
1673144786.436,-213.379,-775.391,9.277,-154.785,0.000
1673144786.440,-153.320,-1000.000,21.484,-139.648,0.000
1673144786.444,157.715,-791.992,32.715,88.867,0.000
1673144786.448,174.805,-395.508,23.926,106.934,0.000
1673144786.452,-163.574,-492.676,5.371,-145.996,0.000
1673144786.456,-285.156,-1000.000,5.371,-251.465,0.000
1673144786.460,145.020,-630.859,49.805,79.590,0.000
1673144786.464,310.547,344.727,49.316,255.371,0.000
1673144786.468,-140.137,-331.543,11.719,-55.664,0.000
1673144786.472,-356.445,-1000.000,16.113,-240.723,0.000
1673144786.476,7.812,-904.785,54.199,20.508,0.000
1673144786.479,255.859,44.922,57.129,225.098,0.000
1673144786.483,31.738,176.758,24.902,76.172,0.000
1673144786.487,-236.328,-847.168,8.789,-136.719,0.000
1673144786.491,-88.379,-1000.000,36.133,-48.828,0.000
1673144786.495,181.641,-102.539,62.012,175.293,0.000
1673144786.499,115.723,309.570,39.062,152.832,0.000
1673144786.503,-222.168,-626.953,4.883,-107.422,0.000
1673144786.507,-224.609,-1000.000,26.367,-135.254,0.000
1673144786.511,241.211,-11.719,69.336,210.938,0.000
1673144786.515,259.766,537.598,35.156,257.324,0.000
1673144786.518,-222.168,-607.422,-13.184,-101.074,0.000
1673144786.522,-320.801,-1000.000,8.789,-216.309,0.000
1673144786.526,129.883,-367.188,59.570,109.375,0.000
1673144786.530,329.590,895.020,55.176,285.645,0.000
1673144786.534,-99.609,2.930,-2.441,-7.324,0.000
1673144786.538,-388.184,-1000.000,-3.906,-233.887,0.000
1673144786.542,-3.418,-684.570,60.059,15.137,0.000
1673144786.546,360.352,713.867,61.035,290.039,0.000
1673144786.550,44.434,236.328,8.301,84.473,0.000
1673144786.554,-376.465,-1000.000,0.000,-239.746,0.000
1673144786.558,-127.441,-953.125,43.457,-92.285,0.000
1673144786.561,336.426,35.645,62.012,267.578,0.000
1673144786.565,162.598,142.578,34.668,183.594,0.000
1673144786.569,-227.539,-864.258,14.648,-127.441,0.000
1673144786.573,-174.805,-1000.000,28.809,-125.977,0.000
1673144786.577,121.094,-636.230,48.340,105.957,0.000
1673144786.581,190.430,-319.336,41.016,194.824,0.000
1673144786.585,-102.539,-758.789,15.625,-27.344,0.000
1673144786.589,-227.051,-1000.000,15.625,-149.902,0.000
1673144786.593,29.785,-827.637,41.016,49.316,0.000
1673144786.597,204.590,40.039,44.434,197.266,0.000
1673144786.600,-16.113,-26.367,19.531,39.062,0.000
1673144786.604,-232.422,-888.184,4.395,-154.785,0.000
1673144786.608,-55.176,-1000.000,20.508,-27.832,0.000
1673144786.612,193.848,-537.598,42.969,193.848,0.000
1673144786.616,59.570,26.367,26.367,102.539,0.000
1673144786.620,-220.703,-698.242,5.371,-138.184,0.000
1673144786.624,-141.602,-1000.000,16.113,-97.168,0.000
1673144786.628,152.832,-682.617,37.109,148.926,0.000
1673144786.632,137.207,-205.078,36.621,161.621,0.000
1673144786.636,-164.551,-736.328,4.395,-82.520,0.000
1673144786.640,-213.867,-1000.000,14.648,-156.738,0.000
1673144786.643,87.891,-490.723,47.852,73.730,0.000
1673144786.647,187.988,378.906,37.598,180.176,0.000
1673144786.651,-79.590,-211.426,-1.465,-23.926,0.000
1673144786.655,-228.027,-1000.000,-1.953,-162.598,0.000
1673144786.659,6.836,-782.715,40.039,14.160,0.000
1673144786.663,194.336,226.562,42.480,186.035,0.000
1673144786.667,-18.555,-21.484,-2.441,32.227,0.000
1673144786.671,-259.277,-1000.000,-11.230,-174.316,0.000
1673144786.675,-97.656,-929.199,30.273,-71.289,0.000
1673144786.679,186.035,80.078,41.504,163.086,0.000
1673144786.683,88.867,174.316,11.719,112.793,0.000
1673144786.686,-208.008,-856.445,-5.859,-130.371,0.000
1673144786.690,-164.551,-1000.000,20.020,-123.047,0.000
1673144786.694,142.578,-258.301,43.945,115.234,0.000
1673144786.698,158.203,178.711,15.137,153.320,0.000
1673144786.702,-149.414,-754.883,-18.066,-82.031,0.000
1673144786.706,-226.074,-1000.000,9.766,-167.480,0.000
1673144786.710,55.176,-483.887,39.062,54.199,0.000
1673144786.714,199.219,31.738,18.555,185.547,0.000
1673144786.718,-54.688,-747.070,-5.859,-10.254,0.000
1673144786.722,-258.301,-1000.000,6.348,-185.547,0.000
1673144786.725,-32.227,-758.301,30.273,-20.020,0.000
1673144786.729,202.637,-57.617,32.715,174.316,0.000
1673144786.733,11.230,-100.586,8.301,44.434,0.000
1673144786.737,-232.422,-824.219,-4.883,-152.344,0.000
1673144786.741,-88.379,-1000.000,16.113,-68.848,0.000
1673144786.745,165.527,-531.250,34.668,134.766,0.000
1673144786.749,84.961,-321.289,14.648,100.098,0.000
1673144786.753,-215.332,-879.395,-5.371,-137.207,0.000
1673144786.757,-202.637,-1000.000,11.719,-161.621,0.000
1673144786.761,103.027,-1000.000,25.879,77.148,0.000
1673144786.765,165.039,-435.059,22.461,151.367,0.000
1673144786.768,-115.234,-349.609,3.906,-68.359,0.000
1673144786.772,-228.027,-1000.000,2.441,-176.758,0.000
1673144786.776,37.109,-758.301,31.738,25.391,0.000
1673144786.780,206.543,239.258,38.574,177.734,0.000
1673144786.784,-36.133,-79.102,9.277,-5.371,0.000
1673144786.788,-237.305,-1000.000,-0.488,-184.570,0.000
1673144786.792,-53.711,-893.066,27.832,-47.363,0.000
1673144786.796,98.633,-558.594,37.598,106.934,0.000
1673144786.800,40.039,-555.176,25.391,71.289,0.000
1673144786.804,-78.125,-896.973,6.348,-58.105,0.000
1673144786.807,-96.680,-1000.000,16.113,-81.543,0.000
1673144786.811,30.762,-507.812,42.969,44.434,0.000
1673144786.815,91.309,-337.891,28.320,97.656,0.000
1673144786.819,-32.715,-793.945,16.602,-27.832,0.000
1673144786.823,-107.422,-1000.000,22.461,-108.887,0.000
1673144786.827,14.648,-665.039,35.645,-2.441,0.000
1673144786.831,94.238,-133.301,31.250,87.891,0.000
1673144786.835,-3.906,-523.926,15.137,5.371,0.000
1673144786.839,-115.234,-1000.000,3.906,-104.004,0.000
1673144786.843,-49.316,-974.121,11.230,-41.504,0.000
1673144786.847,79.102,-649.902,20.996,86.426,0.000
1673144786.850,35.645,-670.898,-2.441,39.062,0.000
1673144786.854,-101.562,-1000.000,-5.371,-98.145,0.000
1673144786.858,-61.523,-900.391,15.137,-88.379,0.000
1673144786.862,78.613,-438.965,19.043,36.133,0.000
1673144786.866,71.777,-280.762,19.043,59.082,0.000
1673144786.870,-58.594,-630.859,16.113,-60.059,0.000
1673144786.874,-93.750,-905.762,16.113,-106.445,0.000
1673144786.878,23.926,-674.805,23.438,9.766,0.000
1673144786.882,84.961,-334.473,28.809,95.215,0.000
1673144786.886,-28.809,-481.445,12.207,-18.555,0.000
1673144786.889,-114.746,-972.656,6.836,-109.863,0.000
1673144786.893,-8.301,-1000.000,19.531,6.348,0.000
1673144786.897,90.332,-852.539,24.902,101.562,0.000
1673144786.901,-2.930,-526.855,24.902,10.254,0.000
1673144786.905,-108.398,-740.234,10.254,-96.191,0.000
1673144786.909,-43.457,-1000.000,14.648,-29.297,0.000
1673144786.913,68.848,-754.395,27.344,84.473,0.000
1673144786.917,23.438,-433.105,26.367,55.664,0.000
1673144786.921,-96.191,-659.180,13.184,-71.777,0.000
1673144786.925,-90.332,-1000.000,16.113,-83.496,0.000
1673144786.929,35.156,-511.719,32.227,41.016,0.000
1673144786.932,64.453,-85.938,23.438,77.637,0.000
1673144786.936,-64.941,-676.758,9.766,-44.922,0.000
1673144786.940,-116.699,-1000.000,9.766,-104.492,0.000
1673144786.944,6.836,-783.691,33.203,17.578,0.000
1673144786.948,79.102,-100.586,42.969,87.402,0.000
1673144786.952,-25.391,-253.906,16.602,-20.020,0.000
1673144786.956,-131.836,-981.934,12.695,-121.582,0.000
1673144786.960,-36.133,-783.203,26.367,-45.898,0.000
1673144786.964,81.055,-195.801,25.391,63.477,0.000
1673144786.968,13.672,-461.426,11.719,8.789,0.000
1673144786.972,-116.211,-1000.000,8.301,-113.281,0.000
1673144786.975,-47.363,-845.703,28.809,-58.105,0.000
1673144786.979,145.996,-32.715,38.574,117.676,0.000
1673144786.983,17.578,-311.035,0.488,40.039,0.000
1673144786.987,-247.070,-1000.000,-9.277,-175.781,0.000
1673144786.991,-123.535,-972.656,37.109,-101.562,0.000
1673144786.995,178.711,-36.133,49.805,151.367,0.000
1673144786.999,116.699,86.914,18.066,120.605,0.000
1673144787.003,-187.500,-935.547,-5.859,-140.137,0.000
1673144787.007,-183.594,-1000.000,16.113,-171.875,0.000
1673144787.011,105.469,-313.965,41.992,57.617,0.000
1673144787.014,159.668,168.457,26.367,141.113,0.000
1673144787.018,-123.535,-560.059,2.930,-62.500,0.000
1673144787.022,-240.234,-1000.000,11.719,-185.547,0.000
1673144787.026,36.621,-680.664,40.527,16.113,0.000
1673144787.030,214.355,-147.461,42.969,182.129,0.000
1673144787.034,-24.414,-581.055,18.555,11.230,0.000
1673144787.038,-244.629,-1000.000,16.113,-189.941,0.000
1673144787.042,-51.758,-824.219,36.621,-58.105,0.000
1673144787.046,204.102,-446.777,39.551,164.551,0.000
1673144787.050,61.035,-441.406,16.113,68.359,0.000
1673144787.054,-225.586,-845.703,-4.395,-168.457,0.000
1673144787.057,-129.883,-1000.000,14.648,-111.816,0.000
1673144787.061,169.922,-391.113,36.621,133.789,0.000
1673144787.065,153.320,308.105,23.926,126.953,0.000
1673144787.069,-159.180,-482.422,0.000,-114.746,0.000
1673144787.073,-203.125,-1000.000,9.277,-151.367,0.000
1673144787.077,115.234,-656.738,43.457,94.727,0.000
1673144787.081,193.359,-41.992,37.598,177.246,0.000
1673144787.085,-90.820,-524.902,5.371,-32.227,0.000
1673144787.089,-234.375,-1000.000,6.348,-172.363,0.000
1673144787.093,15.137,-864.746,41.016,5.371,0.000
1673144787.096,204.590,-154.785,58.105,179.688,0.000
1673144787.100,-8.789,-210.938,24.414,26.855,0.000
1673144787.104,-242.676,-965.332,11.230,-177.734,0.000
1673144787.108,-68.848,-886.719,37.598,-60.547,0.000
1673144787.112,200.195,102.051,44.922,166.992,0.000
1673144787.116,77.637,286.621,13.672,95.703,0.000
1673144787.120,-218.262,-713.867,-5.859,-143.555,0.000
1673144787.124,-152.344,-1000.000,18.066,-122.559,0.000
1673144787.128,73.730,-644.531,37.109,78.613,0.000
1673144787.132,92.285,-158.203,24.414,124.512,0.000
1673144787.136,-20.996,-615.723,-1.953,3.906,0.000
1673144787.139,-109.375,-1000.000,6.836,-88.379,0.000
1673144787.143,-10.742,-666.016,31.250,5.859,0.000
1673144787.147,93.750,-224.609,24.902,105.957,0.000
1673144787.151,10.254,-479.980,8.789,20.996,0.000
1673144787.155,-111.816,-878.906,7.812,-91.309,0.000
1673144787.159,-56.641,-781.250,20.996,-27.832,0.000
1673144787.163,69.824,-405.762,23.926,93.750,0.000
1673144787.167,27.344,-515.137,8.789,45.410,0.000
1673144787.171,-105.469,-950.195,-4.883,-83.008,0.000
1673144787.175,-92.773,-954.102,11.719,-88.867,0.000
1673144787.178,33.691,-725.586,20.996,35.156,0.000
1673144787.182,52.246,-769.531,16.602,75.195,0.000
1673144787.186,-71.777,-781.250,16.602,-48.828,0.000
1673144787.190,-112.793,-970.215,2.441,-102.539,0.000
1673144787.194,10.742,-1000.000,15.137,15.625,0.000
1673144787.198,81.543,-486.328,21.973,102.539,0.000
1673144787.202,-24.414,-278.809,6.836,-7.324,0.000
1673144787.206,-120.117,-873.535,-0.977,-112.305,0.000
1673144787.210,-18.066,-980.469,12.695,-24.414,0.000
1673144787.214,83.008,-394.531,18.555,74.707,0.000
1673144787.218,-5.371,-516.602,0.488,5.371,0.000
1673144787.221,-117.676,-992.188,-3.906,-113.281,0.000
1673144787.225,-59.570,-1000.000,-1.953,-62.500,0.000
1673144787.229,59.082,-700.684,16.113,60.059,0.000
1673144787.233,41.016,-101.562,25.391,49.316,0.000
1673144787.237,-92.285,-575.684,7.812,-72.266,0.000
1673144787.241,-101.074,-1000.000,10.742,-97.656,0.000
1673144787.245,29.297,-606.934,23.926,29.297,0.000
1673144787.249,68.848,-242.676,19.043,70.312,0.000
1673144787.253,-51.758,-534.668,4.395,-58.105,0.000
1673144787.257,-140.137,-1000.000,3.906,-140.137,0.000
1673144787.261,-20.020,-705.566,19.531,-19.043,0.000
1673144787.264,83.984,-362.793,21.484,83.008,0.000
1673144787.268,-20.996,-683.594,4.883,-16.113,0.000
1673144787.272,-127.930,-1000.000,5.859,-113.770,0.000
1673144787.276,-41.504,-760.254,34.180,-41.992,0.000
1673144787.280,65.918,-180.664,30.762,67.871,0.000
1673144787.284,20.020,-479.980,9.277,31.738,0.000
1673144787.288,-94.238,-1000.000,9.766,-85.449,0.000
1673144787.292,-79.590,-888.672,24.902,-69.824,0.000
1673144787.296,52.734,-330.566,32.227,56.641,0.000
1673144787.300,56.152,-365.723,17.578,68.359,0.000
1673144787.303,-69.336,-922.852,11.719,-58.105,0.000
1673144787.307,-93.262,-1000.000,22.461,-91.309,0.000
1673144787.311,19.043,-836.426,25.879,23.438,0.000
1673144787.315,86.426,-795.898,18.066,93.262,0.000
1673144787.319,-20.996,-969.238,13.672,-11.719,0.000
1673144787.323,-99.609,-932.617,17.578,-98.633,0.000
1673144787.327,14.160,-766.602,20.508,-8.301,0.000
1673144787.331,106.445,-459.473,30.273,102.539,0.000
1673144787.335,3.906,-448.242,18.555,27.832,0.000
1673144787.339,-123.535,-825.684,8.301,-101.562,0.000
1673144787.343,-60.547,-979.004,19.531,-40.039,0.000
1673144787.346,60.059,-598.145,24.902,78.613,0.000
1673144787.350,13.672,-196.777,19.531,42.480,0.000
1673144787.354,-106.934,-620.605,7.812,-99.121,0.000
1673144787.358,-85.938,-1000.000,11.230,-89.844,0.000
1673144787.362,41.992,-978.516,28.320,61.035,0.000
1673144787.366,53.223,-524.414,31.738,70.801,0.000
1673144787.370,-77.148,-500.488,11.230,-63.965,0.000
1673144787.374,-115.723,-985.352,13.184,-109.863,0.000
1673144787.378,6.836,-922.363,30.762,13.672,0.000
1673144787.382,87.402,-407.715,36.621,97.656,0.000
1673144787.385,-37.598,-409.668,19.043,-30.273,0.000
1673144787.389,-179.199,-1000.000,10.742,-166.016,0.000
1673144787.393,39.062,-666.504,41.992,6.836,0.000
1673144787.397,201.660,298.340,38.086,156.250,0.000
1673144787.401,-53.223,-204.590,3.418,-30.273,0.000
1673144787.405,-239.746,-1000.000,0.977,-193.848,0.000
1673144787.409,-16.113,-773.438,34.668,-36.621,0.000
1673144787.413,219.727,114.746,45.410,164.551,0.000
1673144787.417,33.691,-226.074,15.625,47.363,0.000
1673144787.421,-246.094,-1000.000,5.371,-179.688,0.000
1673144787.425,-109.375,-935.059,34.180,-106.934,0.000
1673144787.428,198.242,-10.742,50.293,130.859,0.000
1673144787.432,120.605,220.703,26.367,106.445,0.000
1673144787.436,-190.430,-760.254,0.488,-128.418,0.000
1673144787.440,-175.781,-1000.000,16.113,-147.461,0.000
1673144787.444,128.418,-308.105,47.363,87.402,0.000
1673144787.448,186.035,166.016,33.203,160.156,0.000
1673144787.452,-112.305,-738.770,3.906,-60.059,0.000
1673144787.456,-235.840,-1000.000,22.949,-178.711,0.000
1673144787.460,36.133,-541.504,52.734,24.414,0.000
1673144787.464,197.754,49.316,33.203,171.875,0.000
1673144787.467,-45.410,-628.906,-5.371,-2.441,0.000
1673144787.471,-267.090,-1000.000,-4.395,-190.918,0.000
1673144787.475,-55.664,-891.113,28.809,-53.711,0.000
1673144787.479,212.891,-481.445,37.598,166.992,0.000
1673144787.483,43.457,-408.691,10.254,66.895,0.000
1673144787.487,-238.770,-840.332,-7.812,-176.758,0.000
1673144787.491,-120.605,-959.473,1.953,-128.906,0.000
1673144787.495,93.750,-682.617,16.113,59.570,0.000
1673144787.499,83.496,-524.902,11.230,77.637,0.000
1673144787.503,-41.504,-724.609,5.371,-36.133,0.000
1673144787.507,-122.070,-1000.000,5.859,-116.699,0.000
1673144787.510,-13.672,-926.270,16.113,-14.648,0.000
1673144787.514,85.449,-299.316,24.414,90.820,0.000
1673144787.518,-2.441,-186.035,7.324,6.348,0.000
1673144787.522,-119.141,-822.754,-2.441,-102.051,0.000
1673144787.526,-50.293,-1000.000,13.672,-33.203,0.000
1673144787.530,63.965,-448.242,26.855,81.543,0.000
1673144787.534,9.766,-138.184,12.207,31.738,0.000
1673144787.538,-111.328,-714.355,-2.930,-88.867,0.000
1673144787.542,-90.332,-1000.000,3.906,-73.242,0.000
1673144787.546,38.086,-784.668,16.113,58.105,0.000
1673144787.550,40.527,-471.680,11.230,72.754,0.000
1673144787.553,-91.309,-692.383,-5.371,-62.500,0.000
1673144787.557,-118.164,-1000.000,3.906,-100.098,0.000
1673144787.561,11.719,-645.996,23.438,20.020,0.000
1673144787.565,77.148,-369.141,12.207,78.613,0.000
1673144787.569,-32.227,-730.469,-8.789,-30.762,0.000
1673144787.573,-108.887,-1000.000,-3.418,-115.723,0.000
1673144787.577,-25.391,-750.488,19.531,-17.578,0.000
1673144787.581,80.078,-290.039,12.695,86.914,0.000
1673144787.585,7.812,-585.938,0.000,1.953,0.000
1673144787.589,-126.953,-1000.000,0.977,-110.840,0.000
1673144787.592,-64.453,-978.027,14.648,-48.340,0.000
1673144787.596,48.828,-688.477,22.461,73.730,0.000
1673144787.600,15.625,-690.918,8.789,29.785,0.000
1673144787.604,-107.422,-937.012,1.465,-100.098,0.000
1673144787.608,-105.957,-895.020,10.254,-101.074,0.000
1673144787.612,20.020,-474.609,15.137,19.043,0.000
1673144787.616,64.453,-532.227,10.742,68.848,0.000
1673144787.620,-123.047,-928.223,2.930,-99.609,0.000
1673144787.624,-189.453,-994.629,8.301,-168.945,0.000
1673144787.628,114.746,-478.516,29.297,74.707,0.000
1673144787.632,166.016,51.270,21.484,132.324,0.000
1673144787.635,-144.531,-502.930,-2.930,-101.562,0.000
1673144787.639,-230.469,-1000.000,-0.488,-181.641,0.000
1673144787.643,49.316,-924.805,25.391,29.785,0.000
1673144787.647,187.012,-265.137,28.809,157.715,0.000
1673144787.651,-62.500,-275.879,12.695,-24.902,0.000
1673144787.655,-250.488,-970.703,6.348,-193.848,0.000
1673144787.659,-30.273,-1000.000,22.461,-36.133,0.000
1673144787.663,215.332,-510.742,32.715,166.504,0.000
1673144787.667,39.062,-9.277,12.207,49.805,0.000
1673144787.671,-241.699,-801.758,-10.254,-175.781,0.000
1673144787.674,-110.352,-1000.000,18.066,-116.211,0.000
1673144787.678,170.898,-90.820,46.875,115.723,0.000
1673144787.682,126.465,329.590,22.461,127.441,0.000
1673144787.686,-218.750,-686.523,-17.090,-151.367,0.000
1673144787.690,-245.605,-1000.000,10.742,-209.961,0.000
1673144787.694,219.727,-266.602,62.012,134.766,0.000
1673144787.698,270.996,673.340,36.621,194.336,0.000
1673144787.702,-207.520,-188.477,-12.695,-155.273,0.000
1673144787.706,-345.703,-1000.000,-1.953,-277.832,0.000
1673144787.710,114.258,-514.160,55.176,47.363,0.000
1673144787.714,338.867,823.730,52.246,243.652,0.000
1673144787.717,-89.355,124.512,-3.418,-35.645,0.000
1673144787.721,-403.809,-1000.000,-9.277,-300.781,0.000
1673144787.725,-44.434,-753.906,45.410,-52.246,0.000
1673144787.729,341.797,586.914,60.547,242.676,0.000
1673144787.733,63.477,226.562,13.672,54.688,0.000
1673144787.737,-292.969,-1000.000,-0.488,-208.984,0.000
1673144787.741,-145.508,-1000.000,25.391,-138.672,0.000
1673144787.745,146.484,-139.160,39.551,100.098,0.000
1673144787.749,126.465,6.836,13.672,123.535,0.000
1673144787.753,-164.062,-948.730,-12.207,-110.840,0.000
1673144787.756,-202.637,-1000.000,18.555,-171.875,0.000
1673144787.760,94.238,-415.039,51.758,52.246,0.000
1673144787.764,185.059,106.934,41.992,150.879,0.000
1673144787.768,-91.797,-546.875,11.230,-60.059,0.000
1673144787.772,-235.352,-1000.000,18.066,-199.707,0.000
1673144787.776,17.090,-701.660,46.875,-6.836,0.000
1673144787.780,213.379,-200.195,44.922,175.293,0.000
1673144787.784,2.441,-566.406,20.996,29.785,0.000
1673144787.788,-234.863,-1000.000,15.625,-177.734,0.000
1673144787.792,-81.543,-895.020,38.574,-88.867,0.000
1673144787.796,98.145,-835.938,47.852,79.590,0.000
1673144787.799,47.852,-521.973,43.457,68.848,0.000
1673144787.803,-70.312,-533.691,26.367,-57.617,0.000
1673144787.807,-103.516,-1000.000,27.832,-98.145,0.000
1673144787.811,15.137,-784.180,42.480,21.484,0.000
1673144787.815,75.684,-153.809,39.062,86.426,0.000
1673144787.819,-30.273,-321.777,24.902,-20.508,0.000
1673144787.823,-125.488,-923.340,13.184,-116.699,0.000
1673144787.827,-44.434,-970.215,26.367,-31.250,0.000
1673144787.831,57.617,-458.984,38.086,68.848,0.000
1673144787.835,-18.555,-254.883,20.020,-3.906,0.000
1673144787.839,-127.441,-826.172,0.488,-120.117,0.000
1673144787.842,-67.383,-942.871,14.648,-71.289,0.000
1673144787.846,49.316,-577.148,36.133,50.781,0.000
1673144787.850,23.438,-403.809,19.531,35.156,0.000
1673144787.854,-100.586,-718.262,0.977,-90.332,0.000
1673144787.858,-116.699,-1000.000,9.277,-97.168,0.000
1673144787.862,25.391,-701.172,21.484,36.133,0.000
1673144787.866,71.777,-308.594,15.625,72.754,0.000
1673144787.870,-67.383,-575.195,-2.930,-38.574,0.000
1673144787.874,-145.020,-1000.000,-1.953,-101.562,0.000
1673144787.878,-20.996,-798.340,20.508,-7.324,0.000
1673144787.881,78.125,-194.824,20.508,74.707,0.000
1673144787.885,-39.062,-569.824,-1.465,-13.184,0.000
1673144787.889,-134.766,-1000.000,9.277,-108.398,0.000
1673144787.893,-29.785,-750.488,28.809,-23.926,0.000
1673144787.897,80.078,-522.461,21.973,86.426,0.000
1673144787.901,3.906,-528.320,14.160,15.137,0.000
1673144787.905,-129.395,-790.039,3.906,-109.375,0.000
1673144787.909,-77.637,-797.363,11.719,-69.824,0.000
1673144787.913,46.875,-429.688,16.602,55.664,0.000
1673144787.917,30.762,-531.738,0.977,38.574,0.000
1673144787.921,-88.867,-883.301,-7.324,-85.938,0.000
1673144787.924,-104.980,-1000.000,0.488,-109.375,0.000
1673144787.928,17.578,-883.301,5.371,18.066,0.000
1673144787.932,61.523,-816.895,-0.488,69.824,0.000
1673144787.936,-54.688,-772.461,-1.465,-58.105,0.000
1673144787.940,-131.348,-955.078,-10.742,-136.230,0.000
1673144787.944,-26.367,-1000.000,0.000,-24.414,0.000
1673144787.948,70.312,-471.191,9.277,70.312,0.000
1673144787.952,-25.879,-322.754,-1.465,-20.996,0.000
1673144787.956,-119.141,-919.922,-2.930,-120.117,0.000
1673144787.960,-39.551,-983.887,14.648,-47.363,0.000
1673144787.963,72.266,-375.000,22.949,74.219,0.000
1673144787.967,7.812,-416.504,6.348,24.902,0.000
1673144787.971,-122.070,-936.523,0.000,-96.191,0.000
1673144787.975,-88.867,-1000.000,2.930,-65.918,0.000
1673144787.979,32.227,-694.336,15.625,48.828,0.000
1673144787.983,44.922,-30.273,18.555,59.082,0.000
1673144787.987,-81.543,-476.074,-4.883,-61.035,0.000
1673144787.991,-127.930,-1000.000,-5.371,-104.980,0.000
1673144787.995,0.488,-577.148,16.602,10.254,0.000
1673144787.999,72.754,34.180,13.184,81.055,0.000
1673144788.003,-45.898,-374.023,-3.906,-28.320,0.000
1673144788.006,-126.953,-1000.000,-0.977,-109.863,0.000
1673144788.010,-19.043,-758.789,13.672,-11.230,0.000
1673144788.014,87.402,-437.012,24.414,95.703,0.000
1673144788.018,-12.207,-650.391,0.977,3.906,0.000
1673144788.022,-204.102,-1000.000,-16.113,-156.250,0.000
1673144788.026,-26.367,-716.309,22.949,-19.043,0.000
1673144788.030,208.008,118.164,26.855,170.410,0.000
1673144788.034,0.488,-309.082,-7.812,22.461,0.000
1673144788.038,-248.047,-1000.000,-17.578,-190.430,0.000
1673144788.042,-96.191,-876.465,16.602,-85.449,0.000
1673144788.046,175.293,82.520,30.273,142.090,0.000
1673144788.049,83.496,85.449,4.883,91.309,0.000
1673144788.053,-217.773,-842.773,-12.207,-150.879,0.000
1673144788.057,-172.852,-1000.000,-0.977,-146.484,0.000
1673144788.061,135.742,-533.691,23.926,98.633,0.000
1673144788.065,153.809,-385.254,7.812,140.137,0.000
1673144788.069,-140.137,-1000.000,-9.766,-85.938,0.000
1673144788.073,-214.355,-1000.000,9.277,-182.129,0.000
1673144788.077,69.336,-503.418,22.949,31.250,0.000
1673144788.081,168.457,104.004,24.414,147.949,0.000
1673144788.085,-98.633,-433.105,2.441,-42.480,0.000
1673144788.088,-253.418,-1000.000,1.953,-181.641,0.000
1673144788.092,-36.621,-838.379,33.203,-30.273,0.000
1673144788.096,193.848,-10.254,40.039,163.086,0.000
1673144788.100,13.184,40.039,15.137,46.387,0.000
1673144788.104,-245.605,-822.266,2.441,-166.992,0.000
1673144788.108,-111.816,-1000.000,21.484,-95.703,0.000
1673144788.112,170.410,-788.086,41.016,135.742,0.000
1673144788.116,116.699,-112.305,34.180,112.305,0.000
1673144788.120,-182.129,-503.906,7.324,-119.629,0.000
1673144788.124,-186.035,-1000.000,11.230,-143.555,0.000
1673144788.128,109.375,-681.152,35.645,83.008,0.000
1673144788.131,161.621,130.371,32.227,148.926,0.000
1673144788.135,-116.699,-311.523,2.930,-71.289,0.000
1673144788.139,-222.656,-1000.000,5.859,-172.852,0.000
1673144788.143,37.598,-767.090,37.598,24.902,0.000
1673144788.147,193.359,259.766,41.504,170.898,0.000
1673144788.151,-37.109,-34.180,8.301,2.930,0.000
1673144788.155,-241.699,-1000.000,-6.836,-179.688,0.000
1673144788.159,-35.645,-903.809,30.273,-46.387,0.000
1673144788.163,223.145,110.352,47.363,162.598,0.000
1673144788.167,64.941,178.223,7.812,67.871,0.000
1673144788.170,-226.562,-864.258,-12.695,-157.227,0.000
1673144788.174,-136.719,-1000.000,20.996,-112.305,0.000
1673144788.178,164.551,-157.715,41.992,123.047,0.000
1673144788.182,125.977,251.953,20.996,123.047,0.000
1673144788.186,-183.594,-689.453,-4.883,-123.535,0.000
1673144788.190,-209.473,-1000.000,9.766,-179.199,0.000
1673144788.194,90.820,-440.430,40.527,59.082,0.000
1673144788.198,178.711,69.336,29.297,146.973,0.000
1673144788.202,-104.004,-655.762,-12.207,-81.055,0.000
1673144788.206,-245.117,-1000.000,-9.277,-211.914,0.000
1673144788.210,20.508,-594.727,28.320,-24.414,0.000
1673144788.213,213.379,45.898,19.043,142.578,0.000
1673144788.217,-11.230,-651.367,-12.695,-2.441,0.000
1673144788.221,-240.723,-1000.000,-9.277,-197.266,0.000
1673144788.225,-65.430,-791.016,19.043,-82.520,0.000
1673144788.229,189.941,-131.348,30.273,138.672,0.000
1673144788.233,65.918,-25.391,12.695,72.266,0.000
1673144788.237,-224.609,-724.609,-8.789,-164.551,0.000
1673144788.241,-157.715,-1000.000,7.812,-142.090,0.000
1673144788.245,147.461,-509.277,30.273,104.980,0.000
1673144788.249,147.461,-206.055,11.719,129.883,0.000
1673144788.252,-155.762,-754.395,-11.230,-112.793,0.000
1673144788.256,-222.168,-1000.000,3.906,-172.852,0.000
1673144788.260,76.172,-1000.000,26.855,56.641,0.000
1673144788.264,188.965,-427.246,28.320,157.227,0.000
1673144788.268,-88.867,-229.980,5.859,-54.199,0.000
1673144788.272,-253.418,-1000.000,-12.695,-209.473,0.000
1673144788.276,-10.742,-806.641,15.137,-38.574,0.000
1673144788.280,196.777,234.375,31.250,148.926,0.000
1673144788.284,-4.395,132.324,0.977,17.578,0.000
1673144788.288,-243.164,-869.141,-12.695,-185.547,0.000
1673144788.292,-79.590,-969.238,14.648,-78.613,0.000
1673144788.295,192.383,-322.266,29.785,148.438,0.000
1673144788.299,92.285,-36.133,11.719,97.656,0.000
1673144788.303,-205.078,-663.086,-15.625,-136.719,0.000
1673144788.307,-164.062,-1000.000,-0.488,-141.113,0.000
1673144788.311,141.113,-507.324,34.180,85.938,0.000
1673144788.315,162.109,61.523,16.602,138.184,0.000
1673144788.319,-132.324,-621.094,-14.160,-85.938,0.000
1673144788.323,-224.121,-1000.000,-5.371,-191.406,0.000
1673144788.327,53.711,-543.945,28.809,24.414,0.000
1673144788.331,196.289,436.035,25.879,168.457,0.000
1673144788.335,-65.430,-202.637,-5.371,-15.625,0.000
1673144788.338,-258.301,-1000.000,-8.301,-190.918,0.000
1673144788.342,-31.250,-945.312,15.625,-48.340,0.000
1673144788.346,199.219,-191.406,28.809,157.715,0.000
1673144788.350,37.109,-290.527,-2.930,46.875,0.000
1673144788.354,-230.469,-1000.000,-8.789,-184.570,0.000
1673144788.358,-128.906,-931.641,25.879,-114.746,0.000
1673144788.362,162.598,-135.254,35.645,125.000,0.000
1673144788.366,115.234,-31.250,16.113,108.398,0.000
1673144788.370,-182.617,-803.711,1.465,-130.371,0.000
1673144788.374,-187.988,-1000.000,12.695,-161.133,0.000
1673144788.377,104.980,-494.629,32.715,67.871,0.000
1673144788.381,160.645,48.828,29.297,134.766,0.000
1673144788.385,-114.258,-463.379,14.648,-91.309,0.000
1673144788.389,-231.934,-1000.000,33.691,-201.660,0.000
1673144788.393,15.625,-870.117,64.453,-4.883,0.000
1673144788.397,186.523,-523.438,71.777,158.691,0.000
1673144788.401,-41.992,-514.160,55.664,0.000,0.000
1673144788.405,-251.465,-913.086,37.109,-200.684,0.000
1673144788.409,-45.898,-1000.000,55.664,-59.570,0.000
1673144788.413,205.566,-287.109,72.266,149.902,0.000
1673144788.417,73.730,185.547,47.852,59.570,0.000
1673144788.420,-208.008,-765.625,23.926,-159.668,0.000
1673144788.424,-147.949,-1000.000,45.410,-117.188,0.000
1673144788.428,147.461,-171.387,69.336,125.977,0.000
1673144788.432,119.141,341.309,45.898,123.047,0.000
1673144788.436,-177.734,-602.051,11.719,-119.629,0.000
1673144788.440,-196.289,-1000.000,18.555,-162.598,0.000
1673144788.444,97.656,-577.148,52.246,67.383,0.000
1673144788.448,190.918,411.621,51.270,164.551,0.000
1673144788.452,-83.008,-166.504,10.742,-42.969,0.000
1673144788.456,-240.723,-1000.000,8.301,-194.336,0.000
1673144788.459,24.414,-705.566,37.598,-17.578,0.000
1673144788.463,221.191,329.102,38.086,159.180,0.000
1673144788.467,-11.719,-36.133,5.371,13.672,0.000
1673144788.471,-237.305,-1000.000,-1.953,-179.688,0.000
1673144788.475,-62.988,-932.129,29.297,-64.453,0.000
1673144788.479,201.172,-203.125,41.504,158.203,0.000
1673144788.483,77.637,-209.473,16.602,87.402,0.000
1673144788.487,-209.961,-950.684,0.977,-143.066,0.000
1673144788.491,-156.250,-1000.000,28.809,-127.441,0.000
1673144788.495,145.020,-182.617,41.504,102.051,0.000
1673144788.499,154.297,200.684,18.066,142.090,0.000
1673144788.502,-143.555,-739.258,-5.371,-87.402,0.000
1673144788.506,-236.816,-1000.000,7.812,-191.406,0.000
1673144788.510,108.887,-301.270,38.086,76.172,0.000
1673144788.514,281.250,600.586,21.973,220.703,0.000
1673144788.518,-144.043,-296.875,-20.020,-92.773,0.000
1673144788.522,-378.418,-1000.000,-10.254,-277.832,0.000
1673144788.526,-13.184,-689.453,26.367,-26.855,0.000
1673144788.530,234.863,-280.762,28.320,175.781,0.000
1673144788.534,21.484,-657.227,5.371,37.109,0.000
1673144788.538,-239.746,-1000.000,-6.348,-182.129,0.000
1673144788.542,-109.863,-931.152,20.508,-106.934,0.000
1673144788.545,175.293,-375.000,41.016,135.254,0.000
1673144788.549,98.145,6.836,21.484,95.703,0.000
1673144788.553,-199.219,-613.770,-6.348,-137.207,0.000
1673144788.557,-185.547,-1000.000,7.324,-135.254,0.000
1673144788.561,120.605,-604.004,30.762,92.773,0.000
1673144788.565,172.852,221.191,17.090,146.484,0.000
1673144788.569,-120.605,-363.770,-9.277,-75.195,0.000
1673144788.573,-229.004,-1000.000,-8.789,-176.758,0.000
1673144788.577,38.086,-815.918,11.230,18.066,0.000
1673144788.581,189.941,-12.695,23.926,156.738,0.000
1673144788.584,-52.246,-177.246,-3.418,-16.602,0.000
1673144788.588,-261.719,-1000.000,-25.391,-195.312,0.000
1673144788.592,-45.410,-841.309,6.836,-49.316,0.000
1673144788.596,196.777,-112.305,24.414,158.203,0.000
1673144788.600,54.199,-123.047,-1.953,66.406,0.000
1673144788.604,-291.016,-872.070,-32.227,-226.074,0.000
1673144788.608,-154.785,-974.121,5.371,-145.996,0.000
1673144788.612,313.477,342.773,56.152,208.496,0.000
1673144788.616,175.293,763.184,17.578,143.555,0.000
1673144788.620,-312.012,-572.754,-24.414,-217.773,0.000
1673144788.624,-274.902,-1000.000,3.906,-230.957,0.000
1673144788.627,224.121,-304.688,54.688,143.066,0.000
1673144788.631,297.363,734.863,34.180,229.980,0.000
1673144788.635,-190.430,-277.832,-16.113,-129.883,0.000
1673144788.639,-355.469,-1000.000,2.441,-272.949,0.000
1673144788.643,95.215,-534.668,44.434,56.641,0.000
1673144788.647,342.773,530.762,30.273,262.695,0.000
1673144788.651,-55.664,-159.668,-11.230,-21.973,0.000
1673144788.655,-378.906,-1000.000,-8.301,-276.855,0.000
1673144788.659,-31.738,-747.070,36.133,-46.387,0.000
1673144788.663,360.352,461.914,43.945,256.348,0.000
1673144788.666,74.219,201.660,-3.906,84.961,0.000
1673144788.670,-366.211,-1000.000,-22.949,-252.930,0.000
1673144788.674,-177.246,-962.891,15.625,-159.668,0.000
1673144788.678,291.016,-66.895,36.133,191.895,0.000
1673144788.682,202.637,247.070,12.207,180.664,0.000
1673144788.686,-287.109,-598.633,-18.066,-190.918,0.000
1673144788.690,-300.293,-1000.000,-3.418,-243.164,0.000
1673144788.694,180.176,-679.199,35.156,122.070,0.000
1673144788.698,290.527,45.898,22.949,236.816,0.000
1673144788.702,-162.598,-313.965,-13.184,-90.820,0.000
1673144788.706,-367.676,-1000.000,-10.254,-265.625,0.000
1673144788.709,50.781,-797.852,34.668,28.320,0.000
1673144788.713,345.215,479.492,42.480,262.695,0.000
1673144788.717,-15.625,40.039,-3.906,8.789,0.000
1673144788.721,-378.906,-1000.000,-17.090,-283.691,0.000
1673144788.725,-75.684,-971.191,31.738,-78.125,0.000
1673144788.729,349.121,326.660,55.664,243.652,0.000
1673144788.733,116.211,625.000,10.254,97.656,0.000
1673144788.737,-359.375,-779.297,-20.996,-247.559,0.000
1673144788.741,-218.750,-1000.000,16.113,-178.711,0.000
1673144788.745,274.902,38.086,62.012,189.453,0.000
1673144788.748,227.051,852.539,26.367,187.988,0.000
1673144788.752,-256.348,-357.422,-25.391,-176.270,0.000
1673144788.756,-319.336,-1000.000,-1.465,-247.070,0.000
1673144788.760,146.973,-462.402,51.270,104.980,0.000
1673144788.764,312.988,487.305,37.109,249.023,0.000
1673144788.768,-135.254,-289.062,-11.719,-75.195,0.000
1673144788.772,-391.113,-1000.000,-5.371,-280.762,0.000
1673144788.776,14.160,-657.227,47.363,3.418,0.000
1673144788.780,333.984,708.984,51.270,252.441,0.000
1673144788.784,17.578,165.039,-1.953,42.969,0.000
1673144788.788,-290.527,-1000.000,-8.301,-201.172,0.000
1673144788.791,-112.305,-945.312,39.062,-95.703,0.000
1673144788.795,175.293,-19.531,48.340,136.230,0.000
1673144788.799,105.469,125.977,15.625,111.816,0.000
1673144788.803,-136.719,-704.102,-0.488,-93.750,0.000
1673144788.807,-168.457,-1000.000,8.301,-130.371,0.000
1673144788.811,79.102,-691.895,21.973,72.266,0.000
1673144788.815,161.133,-404.297,15.137,141.113,0.000
1673144788.819,-134.277,-856.445,-8.789,-80.566,0.000
1673144788.823,-242.188,-1000.000,-1.953,-174.316,0.000
1673144788.827,32.227,-646.484,23.438,14.648,0.000
1673144788.831,201.172,-344.727,23.926,147.461,0.000
1673144788.834,-48.340,-721.680,6.836,-27.832,0.000
1673144788.838,-264.160,-968.262,-0.488,-208.496,0.000
1673144788.842,-77.637,-964.355,18.066,-76.172,0.000
1673144788.846,92.773,-643.555,29.297,88.379,0.000
1673144788.850,41.504,-308.594,20.996,60.059,0.000
1673144788.854,-81.543,-636.230,6.836,-60.547,0.000
1673144788.858,-108.887,-1000.000,5.371,-94.238,0.000
1673144788.862,18.555,-761.230,23.438,20.508,0.000
1673144788.866,75.684,-202.148,31.250,85.449,0.000
1673144788.870,-45.898,-585.449,17.090,-21.973,0.000
1673144788.873,-125.000,-1000.000,13.672,-95.215,0.000
1673144788.877,-18.555,-934.570,29.297,2.930,0.000
1673144788.881,86.426,-349.609,45.898,100.586,0.000
1673144788.885,-13.672,-279.297,18.555,8.301,0.000
1673144788.889,-131.348,-919.922,1.465,-107.422,0.000
1673144788.893,-50.781,-874.512,20.996,-28.809,0.000
1673144788.897,62.988,-203.613,31.250,88.379,0.000
1673144788.901,8.789,-179.199,11.719,32.715,0.000
1673144788.905,-108.398,-854.004,-0.488,-84.473,0.000
1673144788.909,-77.148,-1000.000,20.996,-72.754,0.000
1673144788.913,52.246,-461.426,27.832,48.828,0.000
1673144788.916,62.012,-146.484,11.719,74.219,0.000
1673144788.920,-66.406,-692.383,0.000,-60.547,0.000
1673144788.924,-118.652,-1000.000,9.277,-116.211,0.000
1673144788.928,4.883,-717.285,24.414,-2.441,0.000
1673144788.932,75.684,-192.871,20.020,77.148,0.000
1673144788.936,-32.715,-608.398,3.906,-25.391,0.000
1673144788.940,-120.605,-1000.000,2.930,-121.582,0.000
1673144788.944,-14.160,-752.930,9.766,-30.762,0.000
1673144788.948,84.473,-339.355,7.324,71.289,0.000
1673144788.952,-4.883,-765.625,-8.301,-12.695,0.000
1673144788.955,-99.121,-1000.000,-9.277,-120.117,0.000
1673144788.959,-38.574,-812.988,11.230,-58.105,0.000
1673144788.963,53.223,-572.266,8.789,61.035,0.000
1673144788.967,6.348,-714.355,-0.977,33.691,0.000
1673144788.971,-113.770,-896.484,3.906,-80.566,0.000
1673144788.975,-101.562,-917.969,11.230,-83.008,0.000
1673144788.979,36.133,-778.809,17.090,35.156,0.000
1673144788.983,62.988,-571.777,15.137,65.918,0.000
1673144788.987,-70.312,-525.879,7.324,-53.711,0.000
1673144788.991,-124.512,-899.414,4.395,-106.934,0.000
1673144788.995,0.000,-936.035,14.160,3.906,0.000
1673144788.998,77.637,-672.852,16.602,89.355,0.000
1673144789.002,-27.344,-703.125,12.695,-8.301,0.000
1673144789.006,-132.812,-929.688,11.230,-112.305,0.000
1673144789.010,-44.434,-1000.000,8.789,-27.344,0.000
1673144789.014,71.289,-723.633,9.277,86.426,0.000
1673144789.018,4.883,-277.832,4.395,16.602,0.000
1673144789.022,-116.211,-741.211,-9.277,-109.375,0.000
1673144789.026,-59.570,-996.582,3.906,-69.824,0.000
1673144789.030,70.801,-401.367,25.391,57.129,0.000
1673144789.034,52.246,-125.000,14.160,43.945,0.000
1673144789.037,-92.773,-711.426,-5.371,-84.473,0.000
1673144789.041,-105.957,-1000.000,3.906,-102.539,0.000
1673144789.045,35.156,-826.660,12.695,20.996,0.000
1673144789.049,77.637,-438.477,11.719,70.801,0.000
1673144789.053,-49.316,-597.656,-3.906,-44.434,0.000
1673144789.057,-125.000,-1000.000,-6.348,-114.746,0.000
1673144789.061,-18.066,-674.316,15.137,-7.812,0.000
1673144789.065,64.941,-322.754,4.395,74.219,0.000
1673144789.069,-30.273,-682.617,-5.371,-17.090,0.000
1673144789.073,-125.000,-1000.000,0.000,-112.793,0.000
1673144789.077,-31.738,-739.258,15.625,-29.785,0.000
1673144789.080,79.102,-155.273,10.742,81.055,0.000
1673144789.084,23.438,-353.027,-5.859,22.949,0.000
1673144789.088,-103.516,-925.781,-7.324,-92.773,0.000
1673144789.092,-75.684,-995.605,3.906,-64.941,0.000
1673144789.096,49.805,-705.078,15.625,48.828,0.000
1673144789.100,43.457,-721.191,4.883,60.547,0.000
1673144789.104,-85.938,-1000.000,2.441,-58.594,0.000
1673144789.108,-109.863,-974.609,17.090,-89.844,0.000
1673144789.112,25.879,-618.652,18.555,41.992,0.000
1673144789.116,82.031,-283.203,13.672,96.680,0.000
1673144789.120,-41.016,-458.496,1.953,-24.414,0.000
1673144789.123,-128.418,-768.555,-4.883,-106.445,0.000
1673144789.127,-19.043,-800.781,7.812,-8.301,0.000
1673144789.131,79.102,-410.645,15.137,85.449,0.000
1673144789.135,-17.578,-338.867,0.488,3.906,0.000
1673144789.139,-125.000,-910.645,-6.348,-108.398,0.000
1673144789.143,-47.363,-1000.000,12.207,-46.875,0.000
1673144789.147,58.594,-916.992,17.578,66.895,0.000
1673144789.151,9.277,-686.523,18.555,24.902,0.000
1673144789.155,-110.352,-732.910,10.254,-100.098,0.000
1673144789.159,-88.867,-1000.000,6.348,-84.961,0.000
1673144789.162,38.086,-771.484,18.066,47.852,0.000
1673144789.166,56.152,-196.289,15.625,72.754,0.000
1673144789.170,-68.848,-456.055,-4.395,-51.758,0.000
1673144789.174,-113.770,-1000.000,-0.977,-100.586,0.000
1673144789.178,15.137,-660.645,20.996,16.113,0.000
1673144789.182,74.707,-156.738,19.531,83.496,0.000
1673144789.186,-35.156,-622.559,-0.488,-19.531,0.000
1673144789.190,-118.164,-1000.000,-8.301,-110.352,0.000
1673144789.194,-18.555,-791.504,17.578,-20.508,0.000
1673144789.198,88.379,-115.723,33.203,83.984,0.000
1673144789.202,0.977,-221.191,7.324,9.766,0.000
1673144789.205,-118.652,-930.664,2.441,-105.469,0.000
1673144789.209,-58.594,-877.441,23.438,-41.016,0.000
1673144789.213,63.477,-231.934,28.320,85.449,0.000
1673144789.217,38.574,-169.434,9.766,49.805,0.000
1673144789.221,-90.820,-813.477,0.977,-89.355,0.000
1673144789.225,-88.867,-962.891,12.695,-107.910,0.000
1673144789.229,38.086,-417.480,23.438,15.625,0.000
1673144789.233,72.266,-337.402,13.672,70.801,0.000
1673144789.237,-135.254,-869.141,-7.324,-97.168,0.000
1673144789.241,-178.223,-1000.000,15.625,-155.762,0.000
1673144789.244,133.301,-233.887,37.598,75.195,0.000
1673144789.248,168.945,284.668,12.207,134.766,0.000
1673144789.252,-146.484,-677.734,-16.113,-97.656,0.000
1673144789.256,-239.258,-1000.000,-0.977,-200.684,0.000
1673144789.260,41.992,-707.520,20.996,19.531,0.000
1673144789.264,194.336,-90.820,16.113,160.156,0.000
1673144789.268,-50.293,-322.754,-4.883,-25.391,0.000
1673144789.272,-250.488,-994.629,-3.418,-198.730,0.000
1673144789.276,-38.574,-873.047,25.879,-49.316,0.000
1673144789.280,200.684,-339.844,30.762,148.926,0.000
1673144789.284,41.992,-414.062,12.695,48.828,0.000
1673144789.287,-227.539,-931.152,3.418,-170.410,0.000
1673144789.291,-121.094,-934.570,20.996,-118.164,0.000
1673144789.295,165.039,-739.258,37.598,129.883,0.000
1673144789.299,109.863,-361.816,23.926,116.211,0.000
1673144789.303,-193.848,-525.879,-0.977,-136.719,0.000
1673144789.307,-205.566,-1000.000,6.836,-173.828,0.000
1673144789.311,103.516,-591.797,35.156,64.453,0.000
1673144789.315,170.410,248.535,27.832,145.020,0.000
1673144789.319,-122.559,-435.059,1.465,-81.543,0.000
1673144789.323,-242.188,-1000.000,5.859,-197.266,0.000
1673144789.326,19.043,-863.281,27.344,6.836,0.000
1673144789.330,196.777,2.441,32.227,166.992,0.000
1673144789.334,-19.043,-22.461,6.348,7.324,0.000
1673144789.338,-245.117,-979.492,-8.789,-186.035,0.000
1673144789.342,-70.312,-892.578,12.207,-65.430,0.000
1673144789.346,188.477,-122.559,31.738,152.832,0.000
1673144789.350,51.758,-108.398,3.906,65.430,0.000
1673144789.354,-230.469,-834.961,-17.090,-168.457,0.000
1673144789.358,-149.902,-1000.000,6.836,-139.648,0.000
1673144789.362,160.156,-192.383,27.344,99.121,0.000
1673144789.366,145.020,380.859,6.348,125.488,0.000
1673144789.369,-146.484,-513.184,-21.484,-103.027,0.000
1673144789.373,-191.406,-1000.000,-4.883,-169.922,0.000
1673144789.377,87.402,-701.660,28.320,45.898,0.000
1673144789.381,200.684,-39.551,22.461,157.227,0.000
1673144789.385,-88.867,-475.098,-20.508,-55.176,0.000
1673144789.389,-237.793,-1000.000,-9.766,-197.754,0.000
1673144789.393,-17.578,-732.910,23.438,-32.227,0.000
1673144789.397,117.188,-167.969,9.766,101.074,0.000
1673144789.401,34.180,-275.879,-2.441,31.738,0.000
1673144789.405,-83.008,-698.730,-7.324,-96.191,0.000
1673144789.409,-75.684,-832.031,-0.977,-96.680,0.000
1673144789.412,44.434,-523.926,10.254,31.738,0.000
1673144789.416,60.547,-420.410,7.812,62.988,0.000
1673144789.420,-64.941,-789.062,-2.930,-60.547,0.000
1673144789.424,-108.398,-1000.000,0.488,-122.070,0.000
1673144789.428,11.719,-855.957,3.418,0.000,0.000
1673144789.432,87.402,-802.246,4.883,85.938,0.000
1673144789.436,-27.832,-653.320,10.742,-17.090,0.000
1673144789.440,-120.605,-867.676,-0.977,-115.723,0.000
1673144789.444,-24.414,-1000.000,10.742,-27.832,0.000
1673144789.448,76.172,-519.043,23.926,76.172,0.000
1673144789.451,5.859,-176.758,9.766,12.207,0.000
1673144789.455,-108.887,-731.445,-5.371,-105.469,0.000
1673144789.459,-53.223,-976.562,5.371,-56.641,0.000
1673144789.463,63.477,-404.785,18.555,69.824,0.000
1673144789.467,36.621,-307.129,3.906,45.410,0.000
1673144789.471,-90.820,-849.121,-10.742,-82.520,0.000
1673144789.475,-92.773,-1000.000,-13.672,-100.098,0.000
1673144789.479,32.227,-697.266,6.348,24.902,0.000
1673144789.483,55.664,-70.801,12.207,64.453,0.000
1673144789.487,-43.945,-559.082,-7.812,-53.711,0.000
1673144789.491,-103.516,-1000.000,3.906,-117.676,0.000
1673144789.494,-2.930,-619.141,18.555,-4.883,0.000
1673144789.498,96.191,4.883,15.625,89.355,0.000
1673144789.502,-12.695,-342.285,-4.883,-10.742,0.000
1673144789.506,-113.770,-1000.000,-12.695,-111.328,0.000
1673144789.510,-31.250,-813.965,3.906,-34.668,0.000
1673144789.514,67.871,-427.246,9.766,75.195,0.000
1673144789.518,9.766,-598.145,-8.789,21.484,0.000
1673144789.522,-97.656,-991.211,-15.625,-90.820,0.000
1673144789.526,-58.594,-872.070,8.789,-62.500,0.000
1673144789.530,41.504,-260.254,7.812,57.129,0.000
1673144789.533,22.461,-375.000,-11.230,53.223,0.000
1673144789.537,-183.594,-989.258,-24.414,-129.883,0.000
1673144789.541,-144.531,-1000.000,-7.812,-119.629,0.000
1673144789.545,160.645,-176.270,15.625,115.234,0.000
1673144789.549,121.094,214.355,-2.930,116.211,0.000
1673144789.553,-190.918,-721.680,-26.855,-130.859,0.000
1673144789.557,-209.961,-1000.000,-12.207,-170.898,0.000
1673144789.561,91.309,-589.844,10.742,67.871,0.000
1673144789.565,175.781,-341.797,-8.789,148.438,0.000
1673144789.569,-98.633,-952.148,-28.809,-72.754,0.000
1673144789.573,-243.652,-1000.000,-15.625,-206.543,0.000
1673144789.576,4.883,-705.566,7.812,-3.906,0.000
1673144789.580,203.613,54.688,7.812,163.086,0.000
1673144789.584,-13.184,-225.586,-20.996,1.953,0.000
1673144789.588,-247.559,-982.422,-28.809,-187.988,0.000
1673144789.592,-70.801,-943.359,-2.930,-70.801,0.000
1673144789.596,181.641,-378.906,8.789,146.973,0.000
1673144789.600,51.270,-148.438,-15.625,69.336,0.000
1673144789.604,-230.957,-737.305,-39.551,-167.969,0.000
1673144789.608,-155.273,-1000.000,-27.344,-136.719,0.000
1673144789.612,160.645,-872.559,9.277,110.352,0.000
1673144789.616,164.062,-142.578,16.113,139.648,0.000
1673144789.619,-145.020,-426.270,-13.672,-108.887,0.000
1673144789.623,-215.332,-1000.000,-20.020,-175.293,0.000
1673144789.627,69.336,-758.789,5.371,53.223,0.000
1673144789.631,183.105,35.645,11.230,155.762,0.000
1673144789.635,-81.055,-272.949,-19.531,-41.016,0.000
1673144789.639,-251.465,-1000.000,-27.344,-199.707,0.000
1673144789.643,-11.719,-787.598,5.859,-27.344,0.000
1673144789.647,205.566,252.441,13.672,161.621,0.000
1673144789.651,1.465,21.973,-19.043,24.902,0.000
1673144789.655,-255.371,-963.867,-37.109,-185.547,0.000
1673144789.658,-101.074,-1000.000,-0.488,-87.891,0.000
1673144789.662,186.035,-210.938,26.855,144.043,0.000
1673144789.666,92.773,232.422,-4.883,94.727,0.000
1673144789.670,-207.031,-735.840,-26.855,-153.809,0.000
1673144789.674,-157.715,-1000.000,-8.789,-160.645,0.000
1673144789.678,146.484,-295.410,12.207,81.543,0.000
1673144789.682,150.391,285.645,0.488,142.578,0.000
1673144789.686,-147.949,-574.219,-27.832,-88.379,0.000
1673144789.690,-222.168,-1000.000,-11.719,-185.059,0.000
1673144789.694,60.059,-538.086,13.184,22.461,0.000
1673144789.698,198.242,213.867,9.277,161.133,0.000
1673144789.701,-68.848,-493.164,-16.602,-21.484,0.000
1673144789.705,-260.742,-1000.000,-17.578,-194.824,0.000
1673144789.709,-32.715,-882.324,11.230,-33.203,0.000
1673144789.713,197.266,-285.645,15.625,160.645,0.000
1673144789.717,24.902,-367.676,-9.766,41.992,0.000
1673144789.721,-225.586,-993.164,-22.949,-184.570,0.000
1673144789.725,-101.074,-917.480,5.859,-116.211,0.000
1673144789.729,188.477,-445.801,23.926,134.277,0.000
1673144789.733,130.371,-270.020,0.000,115.723,0.000
1673144789.737,-181.152,-646.484,-13.672,-124.023,0.000
1673144789.740,-185.547,-1000.000,0.000,-168.945,0.000
1673144789.744,114.746,-742.676,18.066,69.824,0.000
1673144789.748,167.969,-268.555,11.719,139.648,0.000
1673144789.752,-115.234,-609.863,-10.254,-102.539,0.000
1673144789.756,-218.750,-1000.000,-9.277,-216.797,0.000
1673144789.760,44.434,-917.969,20.020,0.000,0.000
1673144789.764,202.637,-128.418,29.297,167.969,0.000
1673144789.768,-23.438,-237.305,-2.930,-5.371,0.000
1673144789.772,-238.770,-1000.000,-17.578,-197.266,0.000
1673144789.776,-64.453,-1000.000,9.766,-65.918,0.000
1673144789.780,185.059,-110.352,35.645,155.273,0.000
1673144789.783,46.875,206.543,6.836,69.336,0.000
1673144789.787,-230.469,-732.422,-23.438,-160.645,0.000
1673144789.791,-145.020,-1000.000,-6.348,-121.094,0.000
1673144789.795,154.785,-446.289,20.996,121.094,0.000
1673144789.799,141.602,-109.863,8.301,135.742,0.000
1673144789.803,-164.062,-772.461,-20.996,-104.492,0.000
1673144789.807,-197.266,-1000.000,-0.488,-152.832,0.000
1673144789.811,97.656,-401.367,31.738,69.336,0.000
1673144789.815,176.758,228.027,16.602,163.574,0.000
1673144789.819,-109.375,-509.277,-18.066,-45.898,0.000
1673144789.822,-255.859,-1000.000,-15.625,-186.523,0.000
1673144789.826,5.859,-674.805,25.391,0.000,0.000
1673144789.830,208.008,389.648,22.461,176.270,0.000
1673144789.834,-2.930,-84.473,-15.137,20.508,0.000
1673144789.838,-241.699,-1000.000,-23.926,-192.871,0.000
1673144789.842,-71.289,-1000.000,5.371,-80.078,0.000
1673144789.846,198.730,-283.691,20.508,151.855,0.000
1673144789.850,84.961,-257.324,-4.395,88.867,0.000
1673144789.854,-212.402,-1000.000,-18.555,-156.738,0.000
1673144789.858,-153.320,-1000.000,0.977,-146.973,0.000
1673144789.862,150.391,-206.055,18.066,102.051,0.000
1673144789.865,144.531,-187.500,3.906,136.719,0.000
1673144789.869,-153.809,-970.215,-10.742,-106.934,0.000
1673144789.873,-215.820,-1000.000,-1.953,-176.758,0.000
1673144789.877,67.871,-765.625,16.602,55.664,0.000
1673144789.881,185.547,18.555,17.578,164.551,0.000
1673144789.885,-68.359,-243.164,-5.859,-31.738,0.000
1673144789.889,-236.816,-1000.000,-13.184,-186.035,0.000
1673144789.893,-6.348,-963.867,9.277,-23.438,0.000
1673144789.897,209.961,-209.473,18.555,166.016,0.000
1673144789.901,20.996,50.293,-1.465,39.062,0.000
1673144789.905,-231.445,-772.949,-20.996,-183.594,0.000
1673144789.908,-92.285,-1000.000,2.441,-99.609,0.000
1673144789.912,189.941,-547.852,27.832,133.789,0.000
1673144789.916,103.027,197.266,12.207,94.727,0.000
1673144789.920,-205.078,-551.270,-17.578,-146.484,0.000
1673144789.924,-185.547,-1000.000,-5.371,-164.062,0.000
1673144789.928,113.281,-335.449,23.438,64.453,0.000
1673144789.932,166.504,272.949,11.230,136.719,0.000
1673144789.936,-174.316,-533.691,-27.832,-114.746,0.000
1673144789.940,-332.520,-1000.000,-10.254,-249.023,0.000
1673144789.944,109.863,-387.207,44.922,62.988,0.000
1673144789.947,323.730,862.793,31.250,238.281,0.000
1673144789.951,-119.141,44.922,-23.438,-66.406,0.000
1673144789.955,-395.508,-1000.000,-31.738,-300.293,0.000
1673144789.959,-8.301,-707.031,30.273,-34.668,0.000
1673144789.963,339.844,695.312,42.480,246.582,0.000
1673144789.967,40.527,420.898,-8.789,53.711,0.000
1673144789.971,-290.527,-981.934,-17.090,-209.961,0.000
1673144789.975,-130.371,-993.164,19.531,-114.746,0.000
1673144789.979,161.133,-123.047,33.203,121.094,0.000
1673144789.983,101.562,-32.715,8.789,120.117,0.000
1673144789.987,-201.172,-886.230,-17.090,-129.395,0.000
1673144789.990,-187.012,-1000.000,5.371,-166.016,0.000
1673144789.994,59.082,-547.363,32.227,46.875,0.000
1673144789.998,114.258,-304.688,13.184,112.793,0.000
1673144790.002,-5.859,-881.348,-7.812,-0.488,0.000
1673144790.006,-118.652,-1000.000,2.930,-100.586,0.000
1673144790.010,-43.945,-742.188,14.160,-25.879,0.000
1673144790.014,68.359,-490.723,12.695,82.520,0.000
1673144790.018,19.531,-401.855,9.277,38.086,0.000
1673144790.022,-171.387,-753.418,-3.906,-131.348,0.000
1673144790.026,-90.820,-883.301,7.812,-75.195,0.000
1673144790.029,187.988,-432.617,21.973,148.926,0.000
1673144790.033,73.730,-385.254,5.859,73.730,0.000
1673144790.037,-218.262,-798.828,-11.719,-164.551,0.000
1673144790.041,-146.973,-1000.000,3.906,-138.672,0.000
1673144790.045,157.227,-866.211,14.160,114.258,0.000
1673144790.049,131.836,-380.371,8.301,142.090,0.000
1673144790.053,-178.711,-478.027,-11.719,-106.445,0.000
1673144790.057,-216.797,-1000.000,-11.719,-184.082,0.000
1673144790.061,91.309,-699.219,20.996,49.316,0.000
1673144790.065,194.824,296.875,18.555,166.504,0.000
1673144790.069,-86.426,-163.574,-16.113,-62.500,0.000
1673144790.072,-253.906,-1000.000,-23.926,-220.703,0.000
1673144790.076,-1.465,-908.691,0.488,-20.996,0.000
1673144790.080,206.543,-75.195,18.066,165.527,0.000
1673144790.084,-9.766,16.113,-6.836,21.484,0.000
1673144790.088,-249.023,-897.949,-33.203,-193.848,0.000
1673144790.092,-94.238,-978.516,-5.859,-93.750,0.000
1673144790.096,184.082,-256.836,23.438,142.578,0.000
1673144790.100,87.402,-233.887,-2.930,84.961,0.000
1673144790.104,-209.961,-914.551,-26.855,-160.156,0.000
1673144790.108,-162.598,-1000.000,-1.953,-152.344,0.000
1673144790.111,144.531,-283.203,24.414,90.820,0.000
1673144790.115,164.551,375.000,16.602,140.625,0.000
1673144790.119,-133.789,-466.309,-4.395,-85.449,0.000
1673144790.123,-229.492,-1000.000,5.859,-179.199,0.000
1673144790.127,50.293,-721.191,43.457,51.270,0.000
1673144790.131,187.500,200.195,41.992,180.664,0.000
1673144790.135,-70.801,-284.180,-4.883,-23.926,0.000
1673144790.139,-252.441,-1000.000,-0.977,-195.312,0.000
1673144790.143,-26.855,-742.188,32.715,-41.016,0.000
1673144790.147,196.289,236.816,22.949,150.879,0.000
1673144790.151,17.578,-20.020,0.000,44.922,0.000
1673144790.154,-240.234,-961.426,-11.719,-175.781,0.000
1673144790.158,-112.793,-998.047,11.230,-100.098,0.000
1673144790.162,187.500,-204.590,24.902,144.043,0.000
1673144790.166,120.605,28.809,-3.906,108.887,0.000
1673144790.170,-196.777,-797.363,-29.785,-141.113,0.000
1673144790.174,-191.895,-1000.000,-8.789,-153.809,0.000
1673144790.178,106.934,-433.105,16.602,88.867,0.000
1673144790.182,155.273,-331.543,2.930,148.438,0.000
1673144790.186,-130.371,-754.883,-14.160,-78.125,0.000
1673144790.190,-229.492,-1000.000,-15.137,-192.871,0.000
1673144790.194,42.969,-881.836,13.672,16.602,0.000
1673144790.197,201.172,48.340,16.602,177.734,0.000
1673144790.201,-38.086,-10.254,-18.555,-15.137,0.000
1673144790.205,-245.605,-969.238,-27.832,-213.867,0.000
1673144790.209,-58.105,-1000.000,5.371,-59.570,0.000
1673144790.213,191.895,-215.332,19.531,154.785,0.000
1673144790.217,37.109,-241.211,-8.789,48.340,0.000
1673144790.221,-248.047,-949.707,-22.949,-186.523,0.000
1673144790.225,-142.578,-1000.000,-3.418,-128.418,0.000
1673144790.229,155.273,-518.066,24.902,121.094,0.000
1673144790.233,125.977,368.164,11.230,120.117,0.000
1673144790.236,-174.316,-400.391,-23.926,-122.070,0.000
1673144790.240,-212.402,-1000.000,-8.301,-164.062,0.000
1673144790.244,93.750,-409.180,24.902,76.660,0.000
1673144790.248,181.641,415.527,19.531,152.344,0.000
1673144790.252,-109.375,-261.230,-16.113,-63.965,0.000
1673144790.256,-241.211,-1000.000,-15.137,-183.105,0.000
1673144790.260,26.367,-715.332,20.996,15.625,0.000
1673144790.264,210.938,-30.273,20.020,173.828,0.000
1673144790.268,-5.371,-425.293,-11.719,19.531,0.000
1673144790.272,-301.270,-1000.000,-23.926,-218.262,0.000
1673144790.276,-64.941,-770.996,21.484,-68.359,0.000
1673144790.279,344.727,644.043,37.598,250.000,0.000
1673144790.283,90.332,333.496,-16.113,95.703,0.000
1673144790.287,-363.281,-1000.000,-32.715,-250.000,0.000
1673144790.291,-201.172,-1000.000,10.742,-153.809,0.000
1673144790.295,280.762,195.801,36.621,208.496,0.000
1673144790.299,212.402,599.609,8.789,188.477,0.000
1673144790.303,-272.461,-668.457,-19.531,-167.969,0.000
1673144790.307,-296.875,-1000.000,3.418,-221.680,0.000
1673144790.311,190.918,-410.645,38.574,124.023,0.000
1673144790.315,312.988,125.000,12.695,242.188,0.000
1673144790.318,-150.879,-804.199,-22.949,-77.637,0.000
1673144790.322,-357.422,-1000.000,-4.395,-260.742,0.000
1673144790.326,15.137,-789.062,27.832,1.953,0.000
1673144790.330,239.258,-0.488,32.227,206.543,0.000
1673144790.334,19.043,23.926,5.859,46.387,0.000
1673144790.338,-299.316,-869.629,-10.254,-222.168,0.000
1673144790.342,-100.098,-945.312,16.113,-103.516,0.000
1673144790.346,339.844,264.648,37.598,240.234,0.000
1673144790.350,126.465,576.660,3.418,133.789,0.000
1673144790.354,-351.074,-673.828,-32.227,-231.934,0.000
1673144790.358,-226.562,-1000.000,-11.230,-185.547,0.000
1673144790.361,268.066,-688.477,28.809,182.129,0.000
1673144790.365,242.676,338.379,16.602,195.312,0.000
1673144790.369,-268.555,-515.137,-27.344,-187.988,0.000
1673144790.373,-147.949,-274.902,-9.766,-96.191,0.000
1673144790.377,-73.242,178.711,-12.695,-26.367,0.000
1673144790.381,-377.441,-1000.000,-29.785,-283.203,0.000
1673144790.385,-41.504,-766.602,20.996,-36.133,0.000
1673144790.389,238.770,270.020,37.109,204.102,0.000
1673144790.393,40.527,166.016,1.953,58.594,0.000
1673144790.397,-225.586,-834.473,-14.648,-170.410,0.000
1673144790.401,-114.258,-1000.000,8.789,-112.793,0.000
1673144790.404,177.734,-380.859,24.902,120.605,0.000
1673144790.408,120.117,-129.395,8.789,114.746,0.000
1673144790.412,-189.453,-784.668,-19.531,-122.559,0.000
1673144790.416,-195.312,-1000.000,0.488,-168.945,0.000
1673144790.420,113.281,-322.266,35.156,58.594,0.000
1673144790.424,180.176,344.727,20.020,142.578,0.000
1673144790.428,-108.887,-522.949,-7.324,-78.613,0.000
1673144790.432,-228.027,-1000.000,-1.465,-201.660,0.000
1673144790.436,42.480,-606.445,27.832,6.348,0.000
1673144790.440,210.938,238.281,21.484,166.504,0.000
1673144790.443,-34.668,-348.145,-6.348,9.766,0.000
1673144790.447,-256.836,-1000.000,-3.906,-184.082,0.000
1673144790.451,-59.082,-933.105,20.996,-63.477,0.000
1673144790.455,195.801,-370.117,20.996,150.391,0.000
1673144790.459,57.617,-564.941,-0.488,69.336,0.000
1673144790.463,-228.027,-1000.000,-3.418,-163.574,0.000
1673144790.467,-142.578,-926.270,16.602,-126.953,0.000
1673144790.471,156.250,-341.309,36.621,110.352,0.000
1673144790.475,134.766,140.137,23.926,114.258,0.000
1673144790.479,-177.246,-463.379,3.418,-123.535,0.000
1673144790.483,-222.656,-1000.000,13.184,-179.688,0.000
1673144790.486,74.707,-796.875,42.480,50.781,0.000
1673144790.490,172.852,135.254,49.805,156.738,0.000
1673144790.494,-83.984,-235.352,18.555,-50.781,0.000
1673144790.498,-232.910,-1000.000,10.254,-201.660,0.000
1673144790.502,10.742,-1000.000,37.109,-10.254,0.000
1673144790.506,197.266,-434.082,51.758,171.387,0.000
1673144790.510,-20.020,-14.648,25.879,22.461,0.000
1673144790.514,-250.488,-899.414,10.254,-178.711,0.000
1673144790.518,-82.031,-983.887,34.180,-76.660,0.000
1673144790.522,183.594,24.902,47.363,145.508,0.000
1673144790.525,62.988,316.895,23.438,78.613,0.000
1673144790.529,-224.121,-687.012,-1.465,-153.809,0.000
1673144790.533,-150.391,-1000.000,19.531,-140.625,0.000
1673144790.537,147.461,-233.398,46.387,98.633,0.000
1673144790.541,138.184,106.445,24.902,124.512,0.000
1673144790.545,-148.926,-727.539,-10.742,-109.863,0.000
1673144790.549,-214.355,-1000.000,3.418,-180.664,0.000
1673144790.553,79.102,-438.965,40.039,29.297,0.000
1673144790.557,205.566,173.828,25.391,155.762,0.000
1673144790.561,-68.359,-475.098,-4.395,-44.922,0.000
1673144790.565,-240.234,-1000.000,-0.488,-206.055,0.000
1673144790.568,-11.719,-750.488,30.762,-33.691,0.000
1673144790.572,196.777,309.082,32.715,148.438,0.000
1673144790.576,0.977,-101.074,2.930,25.879,0.000
1673144790.580,-248.535,-1000.000,-5.371,-185.059,0.000
1673144790.584,-97.168,-948.242,20.508,-104.492,0.000
1673144790.588,185.059,-162.109,39.062,137.207,0.000
1673144790.592,101.074,-286.621,16.113,114.258,0.000
1673144790.596,-193.848,-1000.000,0.488,-128.418,0.000
1673144790.600,-149.414,-1000.000,19.043,-146.484,0.000
1673144790.604,153.320,-330.566,40.527,85.449,0.000
1673144790.607,165.527,63.477,27.344,146.973,0.000
1673144790.611,-127.441,-608.887,-1.465,-74.219,0.000
1673144790.615,-211.426,-1000.000,4.395,-176.270,0.000
1673144790.619,62.988,-666.504,30.762,25.879,0.000
1673144790.623,206.543,59.570,31.738,167.969,0.000
1673144790.627,-35.645,-205.078,7.812,-7.324,0.000
1673144790.631,-236.328,-965.820,-1.465,-200.195,0.000
1673144790.635,-25.391,-955.566,21.973,-56.641,0.000
1673144790.639,209.961,-393.555,30.273,155.762,0.000
1673144790.643,49.805,-355.469,8.789,54.688,0.000
1673144790.647,-216.797,-908.691,-0.977,-181.641,0.000
1673144790.650,-120.117,-1000.000,14.648,-118.164,0.000
1673144790.654,165.527,-670.410,27.832,125.000,0.000
1673144790.658,117.676,-53.223,21.973,109.375,0.000
1673144790.662,-178.223,-548.340,-3.418,-131.836,0.000
1673144790.666,-198.242,-1000.000,-9.766,-169.922,0.000
1673144790.670,108.398,-579.590,15.137,64.941,0.000
1673144790.674,184.082,354.004,17.578,142.090,0.000
1673144790.678,-109.863,-278.809,-13.184,-75.684,0.000
1673144790.682,-237.305,-1000.000,-10.742,-201.660,0.000
1673144790.686,20.020,-887.695,19.531,-10.742,0.000
1673144790.690,200.684,-57.617,25.879,139.160,0.000
1673144790.693,-22.949,-87.891,-6.836,-15.137,0.000
1673144790.697,-258.301,-1000.000,-21.484,-203.613,0.000
1673144790.701,-79.590,-880.371,3.906,-89.355,0.000
1673144790.705,191.406,118.652,3.418,144.531,0.000
1673144790.709,64.941,-28.320,-34.668,66.895,0.000
1673144790.713,-225.098,-959.961,-51.758,-169.434,0.000
1673144790.717,-152.832,-1000.000,-19.531,-143.555,0.000
1673144790.721,144.531,-111.816,0.000,93.262,0.000
1673144790.725,123.535,283.203,-21.484,112.793,0.000
1673144790.729,-168.457,-694.824,-42.969,-116.699,0.000
1673144790.732,-203.613,-1000.000,-28.320,-178.711,0.000
1673144790.736,78.613,-546.387,6.348,49.316,0.000
1673144790.740,158.691,64.941,-5.371,150.879,0.000
1673144790.744,-48.340,-724.609,-29.785,-30.762,0.000
1673144790.748,-162.598,-1000.000,-22.949,-132.324,0.000
1673144790.752,-72.754,-696.289,-10.742,-43.457,0.000
1673144790.756,50.293,-610.352,-15.137,73.242,0.000
1673144790.760,10.742,-772.949,-28.809,38.574,0.000
1673144790.764,-98.633,-807.129,-25.879,-98.633,0.000
1673144790.768,-80.566,-929.688,-13.672,-87.402,0.000
1673144790.772,37.109,-714.355,6.836,46.875,0.000
1673144790.775,50.781,-414.062,1.953,74.707,0.000
1673144790.779,-75.195,-664.551,-18.066,-54.199,0.000
1673144790.783,-116.211,-1000.000,-10.254,-105.469,0.000
1673144790.787,12.695,-930.664,9.277,17.090,0.000
1673144790.791,82.520,-344.238,5.371,93.750,0.000
1673144790.795,-32.715,-315.918,-13.184,-13.184,0.000
1673144790.799,-119.141,-926.758,-20.020,-112.793,0.000
1673144790.803,-29.297,-1000.000,-11.230,-24.902,0.000
1673144790.807,88.867,-374.023,0.488,91.797,0.000
1673144790.811,-16.113,-282.227,-16.602,15.625,0.000
1673144790.814,-209.961,-999.512,-34.668,-148.926,0.000
1673144790.818,-12.695,-825.684,-10.254,-42.969,0.000
1673144790.822,223.633,57.617,0.977,153.809,0.000
1673144790.826,25.879,-223.633,-24.902,42.480,0.000
1673144790.830,-231.934,-1000.000,-37.598,-173.828,0.000
1673144790.834,-97.656,-951.172,-16.602,-102.539,0.000
1673144790.838,188.477,-298.340,1.465,130.859,0.000
1673144790.842,126.953,145.508,-17.090,107.910,0.000
1673144790.846,-167.480,-566.895,-50.293,-125.488,0.000
1673144790.850,-183.105,-1000.000,-40.039,-154.297,0.000
1673144790.854,105.469,-355.957,-1.953,68.848,0.000
1673144790.857,167.969,419.434,-14.160,145.020,0.000
1673144790.861,-110.840,-364.258,-48.340,-75.195,0.000
1673144790.865,-222.656,-1000.000,-37.598,-200.195,0.000
1673144790.869,46.387,-589.844,-7.812,5.859,0.000
1673144790.873,203.613,2.441,-11.230,161.133,0.000
1673144790.877,-44.922,-511.719,-37.109,-9.766,0.000
1673144790.881,-244.629,-1000.000,-37.109,-189.453,0.000
1673144790.885,-41.992,-778.809,-6.836,-52.734,0.000
1673144790.889,187.500,208.496,-4.883,158.203,0.000
1673144790.893,28.809,-190.918,-36.621,63.965,0.000
1673144790.897,-233.887,-1000.000,-39.062,-170.898,0.000
1673144790.900,-123.535,-908.203,-13.184,-113.281,0.000
1673144790.904,168.457,-155.273,-5.371,124.512,0.000
1673144790.908,136.230,120.605,-19.531,116.699,0.000
1673144790.912,-165.039,-624.512,-35.645,-115.234,0.000
1673144790.916,-189.453,-1000.000,-28.809,-170.410,0.000
1673144790.920,106.445,-790.039,-4.883,62.988,0.000
1673144790.924,180.664,-229.492,-8.301,157.227,0.000
1673144790.928,-94.727,-455.566,-34.180,-60.059,0.000
1673144790.932,-237.305,-1000.000,-31.250,-189.453,0.000
1673144790.936,9.766,-1000.000,-8.789,-2.930,0.000
1673144790.939,204.590,-468.750,-2.441,164.551,0.000
1673144790.943,-5.859,-152.344,-15.625,13.184,0.000
1673144790.947,-241.699,-881.836,-28.809,-187.988,0.000
1673144790.951,-72.754,-1000.000,-0.977,-69.824,0.000
1673144790.955,197.266,-70.312,23.926,160.156,0.000
1673144790.959,69.336,274.414,2.441,80.078,0.000
1673144790.963,-215.332,-687.500,-25.391,-163.086,0.000
1673144790.967,-139.648,-1000.000,-7.324,-135.742,0.000
1673144790.971,142.578,-382.324,30.762,107.910,0.000
1673144790.975,136.230,354.004,17.578,132.812,0.000
1673144790.979,-150.391,-420.898,-20.020,-104.004,0.000
1673144790.982,-205.078,-1000.000,-12.207,-168.457,0.000
1673144790.986,74.707,-612.793,20.508,59.570,0.000
1673144790.990,183.594,153.809,13.672,166.504,0.000
1673144790.994,-83.984,-296.387,-20.020,-40.039,0.000
1673144790.998,-255.859,-1000.000,-25.391,-193.848,0.000
1673144791.002,-10.742,-781.250,0.488,-20.508,0.000
1673144791.006,209.961,198.730,3.418,151.855,0.000
1673144791.010,12.695,-24.902,-27.344,9.277,0.000
1673144791.014,-237.305,-1000.000,-39.062,-184.570,0.000
1673144791.018,-79.102,-942.383,-5.371,-90.820,0.000
1673144791.021,192.871,-0.488,9.277,140.137,0.000
1673144791.025,98.145,-75.195,-27.832,98.633,0.000
1673144791.029,-190.430,-992.188,-41.504,-151.855,0.000
1673144791.033,-164.551,-1000.000,-6.836,-165.039,0.000
1673144791.037,131.836,-246.582,8.789,78.613,0.000
1673144791.041,166.992,139.160,-5.371,141.602,0.000
1673144791.045,-109.863,-729.492,-25.879,-86.914,0.000
1673144791.049,-193.359,-1000.000,-18.066,-177.246,0.000
1673144791.053,78.125,-530.273,10.254,35.156,0.000
1673144791.057,205.078,28.320,3.418,161.621,0.000
1673144791.061,-57.617,-590.820,-20.508,-25.391,0.000
1673144791.064,-245.605,-1000.000,-19.531,-189.453,0.000
1673144791.068,-18.066,-705.566,5.371,-28.320,0.000
1673144791.072,207.031,-494.141,0.488,163.574,0.000
1673144791.076,45.410,-704.102,-16.602,59.082,0.000
1673144791.080,-139.648,-725.098,-15.137,-112.793,0.000
1673144791.084,-94.727,-1000.000,-13.184,-98.633,0.000
1673144791.088,29.297,-759.277,-4.395,37.598,0.000
1673144791.092,69.336,-178.223,-5.371,71.777,0.000
1673144791.096,-41.016,-451.172,-22.461,-59.570,0.000
1673144791.100,-128.418,-1000.000,-29.297,-121.582,0.000
1673144791.104,-24.902,-785.645,-14.160,-6.348,0.000
1673144791.107,63.477,-454.590,-6.348,90.820,0.000
1673144791.111,-18.555,-662.598,-12.695,4.395,0.000
1673144791.115,-116.699,-925.781,-25.879,-108.398,0.000
1673144791.119,-44.922,-1000.000,-15.625,-30.273,0.000
1673144791.123,66.895,-503.418,0.488,78.125,0.000
1673144791.127,6.836,-111.328,-19.043,18.555,0.000
1673144791.131,-93.262,-719.727,-33.203,-99.121,0.000
1673144791.135,-47.852,-1000.000,-20.508,-66.406,0.000
1673144791.139,57.129,-397.461,-7.812,62.012,0.000
1673144791.143,41.016,-79.590,-22.461,50.293,0.000
1673144791.146,-77.148,-647.461,-30.762,-90.820,0.000
1673144791.150,-107.910,-1000.000,-20.020,-112.793,0.000
1673144791.154,8.789,-848.633,-18.066,17.578,0.000
1673144791.158,68.848,-545.410,-18.066,68.848,0.000
1673144791.162,-47.363,-751.953,-38.574,-41.016,0.000
1673144791.166,-139.160,-1000.000,-36.133,-124.512,0.000
1673144791.170,-34.180,-650.391,-14.648,-23.438,0.000
1673144791.174,65.430,-166.992,-21.484,78.613,0.000
1673144791.178,-15.625,-427.734,-30.762,-9.277,0.000
1673144791.182,-114.258,-912.598,-26.855,-124.023,0.000
1673144791.186,-37.598,-803.223,-8.789,-55.176,0.000
1673144791.189,71.289,-445.801,-5.371,65.430,0.000
1673144791.193,27.832,-481.445,-21.973,31.738,0.000
1673144791.197,-162.598,-814.941,-30.762,-130.859,0.000
1673144791.201,-92.773,-1000.000,-11.230,-75.195,0.000
1673144791.205,181.641,-393.066,4.395,160.645,0.000
1673144791.209,71.289,-532.227,-18.066,103.027,0.000
1673144791.213,-233.887,-1000.000,-25.391,-140.625,0.000
1673144791.217,-178.711,-1000.000,-5.859,-128.906,0.000
1673144791.221,145.996,-604.980,15.137,120.117,0.000
1673144791.225,159.668,130.371,7.812,160.156,0.000
1673144791.228,-144.531,-373.047,-21.973,-89.355,0.000
1673144791.232,-213.379,-1000.000,-25.879,-187.500,0.000
1673144791.236,76.660,-777.832,0.977,31.738,0.000
1673144791.240,200.684,119.629,4.395,145.508,0.000
1673144791.244,-57.617,-172.363,-26.855,-55.664,0.000
1673144791.248,-237.305,-1000.000,-28.320,-208.496,0.000
1673144791.252,-14.648,-1000.000,-6.836,-41.016,0.000
1673144791.256,211.426,-431.641,5.859,150.879,0.000
1673144791.260,21.484,66.895,-6.348,22.461,0.000
1673144791.264,-228.516,-793.945,-27.832,-187.500,0.000
1673144791.268,-77.637,-1000.000,3.906,-93.750,0.000
1673144791.271,198.242,-291.992,24.902,132.324,0.000
1673144791.275,108.887,290.527,-7.324,94.238,0.000
1673144791.279,-190.918,-603.516,-34.180,-151.855,0.000
1673144791.283,-173.340,-1000.000,-13.672,-163.086,0.000
1673144791.287,128.418,-323.242,19.043,89.355,0.000
1673144791.291,176.270,353.516,6.348,150.391,0.000
1673144791.295,-124.512,-499.512,-35.645,-79.590,0.000
1673144791.299,-230.957,-1000.000,-26.855,-181.641,0.000
1673144791.303,48.340,-561.523,20.996,32.227,0.000
1673144791.307,198.730,111.816,11.230,174.316,0.000
1673144791.311,-51.758,-397.949,-22.461,-6.836,0.000
1673144791.314,-251.465,-1000.000,-25.879,-176.270,0.000
1673144791.318,-24.902,-787.598,1.465,-27.832,0.000
1673144791.322,216.797,110.352,11.230,168.457,0.000
1673144791.326,43.945,-238.770,-14.648,60.547,0.000
1673144791.330,-229.492,-1000.000,-19.043,-170.410,0.000
1673144791.334,-108.887,-953.613,7.324,-102.051,0.000
1673144791.338,166.504,-281.250,17.578,124.023,0.000
1673144791.342,97.168,-444.336,-5.371,111.328,0.000
1673144791.346,-167.480,-1000.000,-13.672,-101.562,0.000
1673144791.350,-176.758,-1000.000,3.906,-153.320,0.000
1673144791.353,114.258,-453.613,16.602,73.730,0.000
1673144791.357,187.012,-172.363,9.766,154.785,0.000
1673144791.361,-95.703,-781.250,-4.883,-60.059,0.000
1673144791.365,-223.145,-1000.000,-1.953,-187.988,0.000
1673144791.369,29.785,-802.246,22.949,2.930,0.000
1673144791.373,204.590,23.438,24.414,166.992,0.000
1673144791.377,-10.254,-96.191,-0.977,2.441,0.000
1673144791.381,-232.910,-973.633,-13.184,-181.152,0.000
1673144791.385,-56.641,-973.145,16.113,-55.664,0.000
1673144791.389,205.566,-398.438,33.691,154.297,0.000
1673144791.393,71.289,-124.023,14.160,68.359,0.000
1673144791.396,-223.145,-701.660,-6.348,-168.945,0.000
1673144791.400,-149.902,-1000.000,-0.977,-121.582,0.000
1673144791.404,153.320,-585.938,27.344,128.418,0.000
1673144791.408,135.742,327.148,28.809,135.742,0.000
1673144791.412,-165.527,-348.145,-1.465,-107.910,0.000
1673144791.416,-211.914,-1000.000,1.465,-181.641,0.000
1673144791.420,83.496,-495.117,29.785,47.363,0.000
1673144791.424,184.082,434.570,26.855,163.086,0.000
1673144791.428,-104.980,-169.922,-3.906,-56.641,0.000
1673144791.432,-248.535,-1000.000,-5.371,-199.219,0.000
1673144791.435,15.137,-828.613,29.785,-11.230,0.000
1673144791.439,203.125,-116.699,37.109,164.551,0.000
1673144791.443,20.020,-239.258,7.812,48.340,0.000
1673144791.447,-139.648,-933.105,-7.324,-113.770,0.000
1673144791.451,-70.312,-996.094,21.973,-81.055,0.000
1673144791.455,50.781,-387.207,36.621,41.504,0.000
1673144791.459,65.430,-32.715,17.578,63.477,0.000
1673144791.463,-52.734,-666.016,2.930,-61.523,0.000
1673144791.467,-111.328,-971.680,8.301,-111.328,0.000
1673144791.471,2.441,-455.078,21.973,1.953,0.000
1673144791.475,82.031,-96.680,14.648,70.801,0.000
1673144791.478,-25.391,-604.492,3.906,-18.066,0.000
1673144791.482,-115.234,-1000.000,7.812,-114.258,0.000
1673144791.486,-23.438,-877.930,23.438,-26.855,0.000
1673144791.490,95.703,-628.906,24.414,94.727,0.000
1673144791.494,-3.418,-851.562,6.836,13.184,0.000
1673144791.498,-211.914,-1000.000,4.883,-168.945,0.000
1673144791.502,-41.016,-697.754,30.273,-56.641,0.000
1673144791.506,206.055,48.340,30.273,152.832,0.000
1673144791.510,16.113,-133.789,4.395,36.621,0.000
1673144791.514,-237.305,-843.262,-0.977,-175.781,0.000
1673144791.518,-110.840,-925.293,19.531,-95.703,0.000
1673144791.521,92.285,-564.453,34.668,88.867,0.000
1673144791.525,80.566,-297.852,27.344,93.750,0.000
1673144791.529,-50.293,-654.297,11.719,-30.273,0.000
1673144791.533,-117.676,-1000.000,8.789,-100.098,0.000
1673144791.537,-4.883,-1000.000,11.719,17.578,0.000
1673144791.541,81.543,-687.012,20.508,108.887,0.000
1673144791.545,-13.672,-404.785,11.719,9.277,0.000
1673144791.549,-122.559,-999.023,-8.789,-116.211,0.000
1673144791.553,4.395,-846.680,11.719,-9.277,0.000
1673144791.557,165.527,187.012,24.902,163.086,0.000
1673144791.560,-54.199,-55.664,-4.883,8.301,0.000
1673144791.564,-262.207,-1000.000,-20.508,-186.035,0.000
1673144791.568,-45.898,-851.562,10.254,-64.453,0.000
1673144791.572,207.031,124.512,25.391,140.625,0.000
1673144791.576,54.199,-118.164,-4.395,60.059,0.000
1673144791.580,-229.004,-1000.000,-26.367,-177.246,0.000
1673144791.584,-128.906,-996.094,2.441,-124.512,0.000
1673144791.588,180.176,-386.230,34.668,116.699,0.000
1673144791.592,138.672,180.176,11.230,102.539,0.000
1673144791.596,-184.082,-477.539,-19.043,-128.906,0.000
1673144791.600,-207.520,-1000.000,-6.348,-166.992,0.000
1673144791.603,89.844,-542.480,19.531,62.500,0.000
1673144791.607,174.316,269.043,13.184,155.273,0.000
1673144791.611,-102.539,-287.598,-11.719,-58.594,0.000
1673144791.615,-255.371,-1000.000,-8.301,-197.266,0.000
1673144791.619,-6.836,-712.891,14.160,-5.859,0.000
1673144791.623,179.688,19.043,9.277,165.039,0.000
1673144791.627,-39.551,-365.234,-30.273,11.230,0.000
1673144791.631,-263.672,-1000.000,-34.180,-184.082,0.000
1673144791.635,-73.730,-817.871,2.441,-76.172,0.000
1673144791.639,205.078,97.656,5.371,147.461,0.000
1673144791.642,65.430,105.469,-20.996,73.242,0.000
1673144791.646,-229.492,-805.176,-38.086,-169.434,0.000
1673144791.650,-158.691,-1000.000,-15.625,-137.207,0.000
1673144791.654,144.531,-260.254,5.859,113.770,0.000
1673144791.658,140.625,31.250,-11.719,142.090,0.000
1673144791.662,-158.691,-712.402,-30.762,-101.562,0.000
1673144791.666,-205.566,-1000.000,-20.996,-172.852,0.000
1673144791.670,84.473,-767.578,-1.465,51.270,0.000
1673144791.674,211.914,-559.082,-4.395,165.039,0.000
1673144791.678,-47.363,-749.023,-27.832,-12.207,0.000
1673144791.682,-242.676,-1000.000,-34.668,-176.270,0.000
1673144791.685,-17.578,-945.801,-2.930,-30.762,0.000
1673144791.689,194.336,-68.848,8.789,155.762,0.000
1673144791.693,-4.883,-17.090,-15.625,20.508,0.000
1673144791.697,-251.953,-908.691,-29.785,-182.129,0.000
1673144791.701,-118.164,-1000.000,-14.648,-103.027,0.000
1673144791.705,160.645,-92.773,7.812,132.324,0.000
1673144791.709,95.703,398.438,-12.207,100.098,0.000
1673144791.713,-197.266,-596.191,-41.016,-151.367,0.000
1673144791.717,-174.316,-1000.000,-30.273,-160.645,0.000
1673144791.721,125.977,-609.375,-1.465,89.355,0.000
1673144791.724,158.203,143.066,-12.695,146.484,0.000
1673144791.728,-136.230,-356.445,-43.457,-84.961,0.000
1673144791.732,-229.004,-1000.000,-31.250,-173.828,0.000
1673144791.736,49.316,-547.852,-1.465,39.062,0.000
1673144791.740,199.707,434.570,-8.789,169.434,0.000
1673144791.744,-44.922,-131.836,-41.992,-16.113,0.000
1673144791.748,-237.793,-1000.000,-50.293,-180.664,0.000
1673144791.752,-19.531,-807.617,-14.648,-27.344,0.000
1673144791.756,219.727,233.887,-4.395,148.926,0.000
1673144791.760,45.410,72.266,-34.668,20.508,0.000
1673144791.764,-241.699,-990.723,-46.387,-191.406,0.000
1673144791.767,-136.230,-967.285,-15.625,-113.281,0.000
1673144791.771,162.109,-167.480,1.465,117.676,0.000
1673144791.775,104.492,-142.090,-26.367,103.516,0.000
1673144791.779,-204.102,-930.176,-46.387,-143.555,0.000
1673144791.783,-202.148,-1000.000,-22.949,-164.062,0.000
1673144791.787,100.098,-323.730,-3.418,81.543,0.000
1673144791.791,169.434,56.641,-25.391,147.949,0.000
1673144791.795,-139.160,-814.453,-53.711,-78.613,0.000
1673144791.799,-306.641,-1000.000,-41.992,-243.164,0.000
1673144791.803,77.148,-441.895,-3.906,23.438,0.000
1673144791.807,325.684,529.785,-9.766,247.070,0.000
1673144791.810,-77.148,-258.789,-58.594,-39.551,0.000
1673144791.814,-396.973,-1000.000,-58.105,-298.340,0.000
1673144791.818,-45.898,-716.309,-10.742,-64.453,0.000
1673144791.822,347.168,308.594,5.371,239.746,0.000
1673144791.826,68.359,124.023,-31.738,75.195,0.000
1673144791.830,-382.324,-949.707,-56.641,-265.625,0.000
1673144791.834,-172.852,-1000.000,-17.090,-150.879,0.000
1673144791.838,301.270,-353.516,12.207,212.891,0.000
1673144791.842,186.523,233.887,-15.137,155.762,0.000
1673144791.846,-298.828,-502.441,-56.152,-208.984,0.000
1673144791.849,-283.691,-1000.000,-31.250,-227.051,0.000
1673144791.853,204.102,-408.691,16.113,130.371,0.000
1673144791.857,291.504,501.953,8.789,232.910,0.000
1673144791.861,-166.016,-375.488,-20.508,-102.539,0.000
1673144791.865,-326.172,-1000.000,-17.090,-249.512,0.000
1673144791.869,93.750,-697.266,27.344,56.641,0.000
1673144791.873,339.355,611.816,36.621,255.859,0.000
1673144791.877,-35.156,263.672,-15.137,-0.488,0.000
1673144791.881,-385.742,-1000.000,-42.969,-286.133,0.000
1673144791.885,-76.172,-909.180,-0.488,-95.703,0.000
1673144791.889,331.543,461.914,29.785,227.539,0.000
1673144791.892,101.562,609.375,-24.414,98.633,0.000
1673144791.896,-356.445,-801.270,-53.223,-232.910,0.000
1673144791.900,-211.914,-1000.000,-12.207,-165.527,0.000
1673144791.904,269.043,-106.934,16.113,178.223,0.000
1673144791.908,200.684,390.625,-18.066,172.852,0.000
1673144791.912,-277.832,-629.395,-58.594,-194.824,0.000
1673144791.916,-316.895,-1000.000,-37.598,-260.254,0.000
1673144791.920,145.508,-312.012,2.441,94.727,0.000
1673144791.924,288.086,841.309,-8.789,237.793,0.000
1673144791.928,-140.137,-132.324,-53.223,-68.848,0.000
1673144791.931,-366.211,-1000.000,-42.480,-285.645,0.000
1673144791.935,37.598,-586.914,8.301,-13.672,0.000
1673144791.939,366.211,583.984,15.137,251.953,0.000
1673144791.943,21.973,-38.086,-26.367,13.184,0.000
1673144791.947,-364.258,-1000.000,-34.180,-274.414,0.000
1673144791.951,-94.727,-950.684,7.324,-91.797,0.000
1673144791.955,334.473,-25.879,23.438,241.699,0.000
1673144791.959,139.648,139.160,-11.719,131.348,0.000
1673144791.963,-334.961,-850.098,-34.180,-229.004,0.000
1673144791.967,-242.676,-1000.000,5.371,-184.570,0.000
1673144791.971,251.465,-241.699,27.832,177.734,0.000
1673144791.974,251.465,131.348,-9.766,205.078,0.000
1673144791.978,-242.676,-511.719,-44.434,-155.273,0.000
1673144791.982,-341.797,-1000.000,-32.715,-258.789,0.000
1673144791.986,120.117,-659.180,12.207,70.801,0.000
1673144791.990,312.500,640.137,12.207,243.164,0.000
1673144791.994,-115.723,72.754,-34.668,-50.293,0.000
1673144791.998,-394.043,-1000.000,-47.363,-284.668,0.000
1673144792.002,-16.602,-1000.000,-3.418,-31.738,0.000
1673144792.006,345.703,299.805,17.578,255.371,0.000
1673144792.010,45.898,466.797,-25.879,54.199,0.000
1673144792.014,-372.559,-928.223,-51.758,-260.742,0.000
1673144792.017,-143.555,-1000.000,-8.301,-106.445,0.000
1673144792.021,316.895,113.770,31.250,232.422,0.000
1673144792.025,186.035,752.930,-7.324,143.066,0.000
1673144792.029,-292.969,-570.801,-52.734,-218.262,0.000
1673144792.033,-258.789,-1000.000,-19.531,-204.590,0.000
1673144792.037,217.773,-48.340,25.879,148.926,0.000
1673144792.041,277.832,876.465,-1.953,225.098,0.000
1673144792.045,-182.129,-307.129,-54.688,-111.816,0.000
1673144792.049,-336.914,-1000.000,-40.039,-272.461,0.000
1673144792.053,105.957,-615.234,11.719,42.480,0.000
1673144792.056,334.961,427.246,7.324,253.906,0.000
1673144792.060,-59.570,-144.531,-51.270,-26.855,0.000
1673144792.064,-371.582,-1000.000,-56.152,-281.250,0.000
1673144792.068,-34.668,-760.742,2.930,-40.527,0.000
1673144792.072,352.051,645.020,8.301,257.324,0.000
1673144792.076,70.801,361.328,-43.457,75.195,0.000
1673144792.080,-370.605,-1000.000,-62.988,-268.066,0.000
1673144792.084,-171.387,-1000.000,-21.973,-156.250,0.000
1673144792.088,304.199,218.262,7.324,202.148,0.000
1673144792.092,198.242,333.496,-22.949,163.574,0.000
1673144792.096,-294.922,-913.574,-54.199,-198.730,0.000
1673144792.099,-298.828,-1000.000,-21.484,-240.723,0.000
1673144792.103,179.688,-165.039,21.973,121.582,0.000
1673144792.107,296.387,238.281,-0.488,229.004,0.000
1673144792.111,-155.762,-745.117,-39.551,-99.609,0.000
1673144792.115,-355.957,-1000.000,-24.902,-272.461,0.000
1673144792.119,66.895,-623.535,16.113,9.277,0.000
1673144792.123,332.520,470.215,14.160,242.188,0.000
1673144792.127,-36.133,56.152,-22.949,-4.395,0.000
1673144792.131,-389.160,-1000.000,-27.344,-281.738,0.000
1673144792.135,-82.520,-942.871,14.160,-80.078,0.000
1673144792.138,336.914,-8.301,26.367,256.348,0.000
1673144792.142,103.516,205.078,-10.254,115.723,0.000
1673144792.146,-348.633,-774.902,-36.133,-234.863,0.000
1673144792.150,-194.824,-1000.000,-8.789,-152.832,0.000
1673144792.154,208.984,-607.910,27.832,142.578,0.000
1673144792.158,181.152,282.227,18.066,153.809,0.000
1673144792.162,-117.676,-340.820,-19.531,-80.078,0.000
1673144792.166,-207.520,-1000.000,-20.020,-173.828,0.000
1673144792.170,59.082,-548.828,12.695,26.367,0.000
1673144792.174,190.918,447.266,15.625,159.668,0.000
1673144792.178,-63.477,-104.004,-19.531,-23.926,0.000
1673144792.181,-248.047,-1000.000,-30.273,-193.848,0.000
1673144792.185,-25.391,-951.660,3.906,-35.156,0.000
1673144792.189,197.266,-111.816,18.066,161.133,0.000
1673144792.193,19.043,57.129,-6.836,42.969,0.000
1673144792.197,-250.488,-897.461,-32.227,-167.480,0.000
1673144792.201,-119.629,-959.961,-0.977,-91.797,0.000
1673144792.205,170.410,70.312,32.715,133.301,0.000
1673144792.209,80.078,340.820,-2.441,101.562,0.000
1673144792.213,-219.238,-679.688,-30.273,-139.648,0.000
1673144792.217,-196.289,-1000.000,-7.812,-157.715,0.000
1673144792.221,102.539,-494.141,10.742,69.336,0.000
1673144792.224,152.344,185.059,-3.418,125.488,0.000
1673144792.228,-116.699,-494.629,-28.320,-71.289,0.000
1673144792.232,-222.656,-1000.000,-21.973,-178.711,0.000
1673144792.236,27.832,-640.137,9.766,-0.488,0.000
1673144792.240,185.059,157.715,0.977,148.438,0.000
1673144792.244,-51.758,-517.578,-32.715,-17.090,0.000
1673144792.248,-257.812,-1000.000,-20.996,-199.707,0.000
1673144792.252,-49.316,-726.074,6.348,-62.988,0.000
1673144792.256,198.730,-38.086,7.324,149.902,0.000
1673144792.260,36.621,-76.172,-20.508,57.129,0.000
1673144792.263,-235.840,-786.621,-38.086,-179.688,0.000
1673144792.267,-130.371,-982.910,-21.484,-137.695,0.000
1673144792.271,165.039,-353.516,-1.465,93.262,0.000
1673144792.275,114.746,-78.613,-13.672,96.191,0.000
1673144792.279,-194.336,-754.395,-41.992,-132.324,0.000
1673144792.283,-208.496,-1000.000,-26.367,-186.523,0.000
1673144792.287,84.473,-1000.000,-5.371,45.898,0.000
1673144792.291,158.203,-545.898,-10.742,148.438,0.000
1673144792.295,-126.953,-373.047,-27.832,-69.824,0.000
1673144792.299,-261.230,-1000.000,-32.227,-208.496,0.000
1673144792.303,5.859,-801.270,-1.953,-10.254,0.000
1673144792.306,191.895,292.480,-2.441,146.973,0.000
1673144792.310,-26.855,94.727,-38.086,-25.391,0.000
1673144792.314,-251.465,-975.098,-49.805,-205.566,0.000
1673144792.318,-79.102,-886.230,-16.602,-76.172,0.000
1673144792.322,183.105,79.102,0.977,129.883,0.000
1673144792.326,50.293,-94.727,-24.902,48.828,0.000
1673144792.330,-249.512,-991.211,-44.922,-193.359,0.000
1673144792.334,-168.945,-1000.000,-21.484,-153.320,0.000
1673144792.338,128.906,-480.957,15.137,91.797,0.000
1673144792.342,138.672,164.551,4.883,123.535,0.000
1673144792.345,-190.918,-410.156,-41.504,-140.137,0.000
1673144792.349,-292.969,-1000.000,-29.785,-250.977,0.000
1673144792.353,133.789,-194.824,19.043,63.965,0.000
1673144792.357,292.480,986.816,1.953,208.496,0.000
1673144792.361,-155.762,-74.707,-38.086,-103.516,0.000
1673144792.365,-379.883,-1000.000,-26.855,-287.598,0.000
1673144792.369,30.273,-630.371,19.531,-3.906,0.000
1673144792.373,329.590,436.035,25.391,237.793,0.000
1673144792.377,-31.250,-119.629,-24.902,-5.859,0.000
1673144792.381,-402.344,-1000.000,-31.738,-300.781,0.000
1673144792.385,-104.980,-836.914,24.414,-109.375,0.000
1673144792.388,311.523,267.090,35.645,226.074,0.000
1673144792.392,89.844,337.891,-3.418,94.238,0.000
1673144792.396,-361.816,-826.660,-28.320,-252.441,0.000
1673144792.400,-238.281,-1000.000,5.371,-186.035,0.000
1673144792.404,236.328,-92.773,38.086,173.828,0.000
1673144792.408,219.238,571.777,14.648,194.336,0.000
1673144792.412,-269.043,-412.109,-21.973,-168.945,0.000
1673144792.416,-353.027,-1000.000,-7.324,-263.184,0.000
1673144792.420,111.816,-604.980,32.715,74.707,0.000
1673144792.424,284.180,-66.895,23.926,233.887,0.000
1673144792.428,-145.020,-506.348,-14.648,-77.637,0.000
1673144792.431,-403.320,-1000.000,-24.902,-302.734,0.000
1673144792.435,-9.766,-890.137,18.555,-42.969,0.000
1673144792.439,325.684,416.992,31.738,235.840,0.000
1673144792.443,6.836,276.367,-14.160,34.668,0.000
1673144792.447,-395.996,-1000.000,-34.180,-297.363,0.000
1673144792.451,-157.227,-1000.000,3.906,-152.832,0.000
1673144792.455,297.363,186.035,30.762,197.754,0.000
1673144792.459,135.742,679.688,-6.836,109.863,0.000
1673144792.463,-347.656,-646.973,-49.316,-251.953,0.000
1673144792.467,-275.391,-1000.000,-20.020,-233.398,0.000
1673144792.470,220.703,-243.652,35.156,129.883,0.000
1673144792.474,245.605,854.492,21.484,179.688,0.000
1673144792.478,-237.305,-192.871,-35.645,-178.223,0.000
1673144792.482,-365.234,-1000.000,-28.320,-303.223,0.000
1673144792.486,71.289,-435.059,32.227,33.203,0.000
1673144792.490,297.852,908.203,26.367,242.676,0.000
1673144792.494,-97.168,144.531,-32.715,-51.270,0.000
1673144792.498,-418.945,-1000.000,-38.574,-320.801,0.000
1673144792.502,-62.988,-779.785,14.648,-73.730,0.000
1673144792.506,327.637,637.207,31.738,235.840,0.000
1673144792.510,49.316,428.711,-21.973,56.152,0.000
1673144792.513,-384.766,-1000.000,-49.805,-281.738,0.000
1673144792.517,-184.570,-1000.000,1.465,-164.551,0.000
1673144792.521,292.969,332.031,32.227,187.988,0.000
1673144792.525,171.875,553.223,-16.113,140.625,0.000
1673144792.529,-321.289,-811.035,-52.246,-210.449,0.000
1673144792.533,-305.176,-1000.000,-21.973,-238.281,0.000
1673144792.537,180.664,-266.113,17.578,117.676,0.000
1673144792.541,264.648,653.809,3.418,212.402,0.000
1673144792.545,-192.871,-397.949,-36.621,-121.094,0.000
1673144792.549,-357.910,-1000.000,-26.855,-279.785,0.000
1673144792.552,15.137,-640.137,14.648,-15.137,0.000
1673144792.556,224.609,12.695,11.719,164.551,0.000
1673144792.560,6.348,-458.496,-22.461,-8.301,0.000
1673144792.564,-233.887,-1000.000,-23.438,-208.496,0.000
1673144792.568,-78.125,-773.438,4.395,-97.656,0.000
1673144792.572,187.988,-601.074,5.859,131.348,0.000
1673144792.576,71.289,-649.902,-5.859,70.312,0.000
1673144792.580,-129.883,-567.871,-13.184,-114.258,0.000
1673144792.584,-117.676,-937.012,-14.648,-131.836,0.000
1673144792.588,-3.906,-832.031,-3.906,-13.672,0.000
1673144792.592,55.664,-182.617,-2.441,56.152,0.000
1673144792.595,-55.664,-219.727,-24.414,-52.246,0.000
1673144792.599,-139.160,-900.879,-28.809,-138.672,0.000
1673144792.603,-46.875,-826.660,-12.695,-50.293,0.000
1673144792.607,51.270,-477.539,-12.695,49.316,0.000
1673144792.611,-27.832,-740.723,-20.020,-22.949,0.000
1673144792.615,-153.320,-998.535,-33.203,-138.672,0.000
1673144792.619,-87.402,-1000.000,-26.855,-80.078,0.000
1673144792.623,37.598,-513.672,-4.395,42.969,0.000
1673144792.627,1.953,-86.914,-20.996,13.184,0.000
1673144792.631,-119.141,-679.688,-41.016,-114.258,0.000
1673144792.635,-113.770,-1000.000,-20.996,-117.188,0.000
1673144792.638,18.555,-408.203,-0.488,18.066,0.000
1673144792.642,47.363,33.203,-15.625,63.965,0.000
1673144792.646,-77.637,-523.926,-32.715,-68.848,0.000
1673144792.650,-122.559,-1000.000,-32.715,-135.742,0.000
1673144792.654,-15.625,-891.113,-20.996,-12.695,0.000
1673144792.658,54.688,-535.645,-8.789,63.477,0.000
1673144792.662,-42.480,-644.531,-27.832,-35.156,0.000
1673144792.666,-142.578,-1000.000,-27.832,-125.000,0.000
1673144792.670,-47.363,-813.965,-6.836,-40.039,0.000
1673144792.674,63.965,-167.969,-7.324,65.430,0.000
1673144792.677,0.488,-279.785,-19.043,-0.977,0.000
1673144792.681,-111.816,-838.379,-27.832,-120.117,0.000
1673144792.685,-71.777,-857.422,-20.996,-76.172,0.000
1673144792.689,47.363,-406.738,-12.695,49.316,0.000
1673144792.693,44.922,-292.480,-20.508,34.668,0.000
1673144792.697,-90.820,-672.363,-33.691,-88.867,0.000
1673144792.701,-131.836,-1000.000,-33.203,-112.305,0.000
1673144792.705,-6.836,-860.840,-22.461,12.207,0.000
1673144792.709,43.945,-750.000,-22.461,69.824,0.000
1673144792.713,-72.754,-904.297,-29.297,-56.152,0.000
1673144792.717,-144.531,-943.848,-30.762,-137.695,0.000
1673144792.720,-38.086,-890.625,-24.902,-15.625,0.000
1673144792.724,54.199,-637.695,-20.996,87.402,0.000
1673144792.728,-35.645,-394.043,-27.344,-9.277,0.000
1673144792.732,-124.512,-750.488,-38.086,-111.816,0.000
1673144792.736,-42.969,-961.914,-27.832,-35.645,0.000
1673144792.740,52.734,-439.453,-16.602,63.965,0.000
1673144792.744,-11.230,-238.770,-35.645,16.602,0.000
1673144792.748,-139.160,-838.867,-52.246,-116.699,0.000
1673144792.752,-102.539,-1000.000,-43.945,-111.328,0.000
1673144792.756,24.902,-708.984,-31.250,13.184,0.000
1673144792.759,23.926,-144.043,-31.250,25.391,0.000
1673144792.763,-99.609,-500.488,-49.805,-95.215,0.000
1673144792.767,-129.883,-1000.000,-48.340,-132.812,0.000
1673144792.771,-0.488,-594.238,-31.738,-2.930,0.000
1673144792.775,67.871,-18.555,-29.785,68.848,0.000
1673144792.779,-46.387,-463.379,-50.293,-52.734,0.000
1673144792.783,-136.230,-1000.000,-51.758,-144.531,0.000
1673144792.787,-34.668,-694.336,-30.762,-35.156,0.000
1673144792.791,64.941,-126.465,-36.621,62.988,0.000
1673144792.795,-21.973,-524.414,-56.152,-23.438,0.000
1673144792.799,-129.395,-1000.000,-51.758,-130.859,0.000
1673144792.802,-43.457,-790.527,-22.949,-75.195,0.000
1673144792.806,71.777,-405.762,-29.297,45.898,0.000
1673144792.810,15.137,-592.773,-54.199,7.812,0.000
1673144792.814,-107.422,-973.145,-55.664,-119.629,0.000
1673144792.818,-91.309,-931.152,-39.551,-103.516,0.000
1673144792.822,53.223,-381.348,-26.855,29.785,0.000
1673144792.826,68.848,-245.605,-31.250,62.500,0.000
1673144792.830,-69.824,-722.656,-37.598,-59.082,0.000
1673144792.834,-108.887,-1000.000,-33.203,-101.074,0.000
1673144792.838,3.906,-810.059,-20.996,11.719,0.000
1673144792.841,77.148,-718.750,-22.461,84.473,0.000
1673144792.845,-24.902,-919.922,-26.367,-25.391,0.000
1673144792.849,-124.512,-917.480,-21.484,-125.977,0.000
1673144792.853,-25.391,-793.945,-10.254,-33.203,0.000
1673144792.857,82.031,-479.492,2.441,73.242,0.000
1673144792.861,-2.441,-425.781,-7.324,6.348,0.000
1673144792.865,-106.445,-715.332,-15.625,-107.422,0.000
1673144792.869,-40.039,-957.520,-4.883,-55.664,0.000
1673144792.873,63.965,-637.695,4.395,68.359,0.000
1673144792.877,40.527,-219.238,-4.883,54.199,0.000
1673144792.881,-72.754,-582.520,-14.160,-72.266,0.000
1673144792.884,-74.707,-1000.000,-2.441,-70.312,0.000
1673144792.888,44.922,-885.254,8.301,55.176,0.000
1673144792.892,75.684,-585.938,8.301,83.008,0.000
1673144792.896,-45.898,-751.953,-5.859,-46.875,0.000
1673144792.900,-101.562,-1000.000,-13.184,-117.188,0.000
1673144792.904,20.508,-763.184,4.883,7.324,0.000
1673144792.908,96.680,-160.156,14.160,93.750,0.000
1673144792.912,2.930,-243.652,-4.883,-5.371,0.000
1673144792.916,-101.562,-869.141,-22.461,-109.863,0.000
1673144792.920,-26.855,-866.699,-4.395,-27.344,0.000
1673144792.924,85.938,-223.145,15.625,91.797,0.000
1673144792.927,22.461,-204.590,-2.441,27.344,0.000
1673144792.931,-103.516,-789.062,-20.996,-97.168,0.000
1673144792.935,-68.848,-1000.000,-8.301,-57.129,0.000
1673144792.939,47.852,-568.359,13.672,69.336,0.000
1673144792.943,57.617,-130.371,1.465,75.684,0.000
1673144792.947,-142.090,-724.121,-24.902,-101.562,0.000
1673144792.951,-133.301,-1000.000,0.000,-115.723,0.000
1673144792.955,176.270,-134.766,28.809,142.578,0.000
1673144792.959,131.348,97.168,2.930,141.602,0.000
1673144792.963,-173.828,-753.418,-21.484,-114.746,0.000
1673144792.966,-196.289,-1000.000,4.395,-166.992,0.000
1673144792.970,99.609,-388.672,33.203,64.941,0.000
1673144792.974,187.012,294.434,14.160,169.434,0.000
1673144792.978,-84.961,-483.887,-18.555,-33.691,0.000
1673144792.982,-213.867,-1000.000,-8.301,-164.551,0.000
1673144792.986,40.039,-665.527,27.344,23.438,0.000
1673144792.990,214.355,160.156,17.090,179.199,0.000
1673144792.994,-7.812,-462.402,-15.625,5.371,0.000
1673144792.998,-206.543,-1000.000,-12.207,-165.039,0.000
1673144793.002,-35.645,-868.652,8.301,-44.434,0.000
1673144793.006,193.359,-447.754,6.348,140.137,0.000
1673144793.009,86.914,-505.859,-15.625,73.730,0.000
1673144793.013,-202.637,-894.531,-21.973,-155.273,0.000
