timestamp,TP9,AF7,AF8,TP10,Right AUX
1673144587.662,-256.348,-826.172,-25.391,-97.656,0.000
1673144587.666,-109.863,-930.176,-15.625,-17.090,0.000
1673144587.670,225.586,314.941,-11.719,259.277,0.000
1673144587.674,155.762,626.953,-16.602,243.652,0.000
1673144587.678,-203.613,-607.910,-20.020,-41.992,0.000
1673144587.681,-183.105,-1000.000,-16.602,-62.988,0.000
1673144587.685,176.270,-287.109,-12.695,208.496,0.000
1673144587.689,207.031,189.453,-21.973,259.766,0.000
1673144587.693,-133.301,-685.059,-29.297,-0.977,0.000
1673144587.697,-261.719,-1000.000,-26.367,-130.859,0.000
1673144587.701,55.664,-291.504,-22.949,108.887,0.000
1673144587.705,251.953,510.742,-15.137,283.691,0.000
1673144587.709,-18.555,196.289,-17.090,82.520,0.000
1673144587.713,-271.484,-741.699,-22.461,-134.277,0.000
1673144587.717,-47.363,-685.547,-16.113,15.137,0.000
1673144587.721,248.535,271.973,-12.695,248.047,0.000
1673144587.724,83.496,347.656,-17.578,147.949,0.000
1673144587.728,-245.117,-689.453,-20.020,-108.887,0.000
1673144587.732,-135.254,-958.496,-14.160,-63.477,0.000
1673144587.736,222.168,-543.945,-10.742,213.867,0.000
1673144587.740,181.152,-145.020,-15.625,217.773,0.000
1673144587.744,-189.941,-432.129,-23.438,-69.336,0.000
1673144587.748,-250.488,-1000.000,-24.902,-143.066,0.000
1673144587.752,211.426,-129.883,-13.184,205.078,0.000
1673144587.756,334.473,951.172,-11.719,329.590,0.000
1673144587.760,-187.988,-139.160,-17.578,-50.781,0.000
1673144587.763,-384.277,-1000.000,-13.184,-228.027,0.000
1673144587.767,123.047,-415.039,-3.906,127.930,0.000
1673144587.771,400.879,-997.070,-5.371,355.469,0.000
1673144587.775,-51.758,179.688,-18.066,41.992,0.000
1673144587.779,-415.527,-1000.000,-20.020,-246.582,0.000
1673144587.783,-46.875,-775.879,-7.812,-11.230,0.000
1673144587.787,415.527,604.980,-2.441,342.285,0.000
1673144587.791,118.164,774.902,-10.742,166.016,0.000
1673144587.795,-402.344,-623.535,-17.578,-221.191,0.000
1673144587.799,-207.520,-1000.000,-9.766,-119.629,0.000
1673144587.803,345.215,241.699,0.000,283.203,0.000
1673144587.806,259.277,-982.422,-8.301,266.602,0.000
1673144587.810,-305.664,-293.945,-17.578,-149.902,0.000
1673144587.814,-335.938,-1000.000,-14.160,-219.727,0.000
1673144587.818,219.238,-31.738,-4.395,187.988,0.000
1673144587.822,360.352,992.676,-8.789,328.125,0.000
1673144587.826,-153.320,-116.211,-21.973,-43.457,0.000
1673144587.830,-404.785,-1000.000,-20.020,-262.695,0.000
1673144587.834,71.289,-390.625,-13.184,67.871,0.000
1673144587.838,412.109,922.852,-16.113,351.074,0.000
1673144587.842,29.785,397.461,-27.832,93.262,0.000
1673144587.845,-324.707,-817.383,-27.832,-191.895,0.000
1673144587.849,-121.094,-938.965,-24.414,-67.383,0.000
1673144587.853,216.309,-185.547,-21.973,203.125,0.000
1673144587.857,124.512,251.465,-23.438,163.574,0.000
1673144587.861,-223.145,-478.516,-33.691,-114.746,0.000
1673144587.865,-181.152,-979.004,-33.203,-116.211,0.000
1673144587.869,172.852,-479.980,-26.367,161.133,0.000
1673144587.873,201.660,-215.820,-24.902,227.051,0.000
1673144587.877,-141.113,-500.977,-29.297,-41.992,0.000
1673144587.881,-236.816,-946.777,-28.320,-158.203,0.000
1673144587.885,86.914,-619.629,-20.996,100.586,0.000
1673144587.888,248.535,367.188,-18.555,253.418,0.000
1673144587.892,-53.223,252.930,-25.879,27.832,0.000
1673144587.896,-279.297,-851.562,-29.785,-172.363,0.000
1673144587.900,-20.508,-932.617,-19.531,4.883,0.000
1673144587.904,238.281,294.434,-14.648,229.492,0.000
1673144587.908,40.527,457.520,-17.578,102.051,0.000
1673144587.912,-256.836,-742.676,-20.996,-146.973,0.000
1673144587.916,-122.559,-1000.000,-15.625,-73.242,0.000
1673144587.920,125.000,-375.000,-11.230,127.930,0.000
1673144587.924,119.629,355.957,-15.625,142.578,0.000
1673144587.927,-37.109,-72.266,-12.695,4.395,0.000
1673144587.931,-125.488,-875.488,-9.766,-76.660,0.000
1673144587.935,14.648,-452.148,-8.301,53.223,0.000
1673144587.939,124.023,407.227,-3.906,163.574,0.000
1673144587.943,-7.812,-56.641,-7.812,47.852,0.000
1673144587.947,-138.184,-860.352,-11.230,-78.613,0.000
1673144587.951,-27.344,-511.719,-11.719,23.926,0.000
1673144587.955,114.258,241.699,-14.160,159.180,0.000
1673144587.959,30.762,100.098,-16.113,88.379,0.000
1673144587.963,-124.512,-814.941,-20.020,-62.500,0.000
1673144587.967,-76.660,-1000.000,-16.113,-39.551,0.000
1673144587.970,80.566,-277.832,-8.301,102.051,0.000
1673144587.974,65.430,-21.973,-9.766,112.305,0.000
1673144587.978,-94.238,-665.039,-20.508,-28.320,0.000
1673144587.982,-117.676,-851.074,-22.461,-74.707,0.000
1673144587.986,38.086,-308.105,-11.719,64.941,0.000
1673144587.990,105.957,-161.133,-17.578,144.531,0.000
1673144587.994,-46.387,-806.152,-25.879,11.230,0.000
1673144587.998,-143.555,-708.984,-22.949,-86.426,0.000
1673144588.002,1.953,-342.773,-16.602,47.363,0.000
1673144588.006,122.070,3.418,-10.742,164.062,0.000
1673144588.009,3.418,-352.539,-18.066,54.688,0.000
1673144588.013,-135.254,-814.453,-20.996,-82.520,0.000
1673144588.017,-37.598,-573.242,-13.184,-4.395,0.000
1673144588.021,109.863,-366.211,-13.184,130.371,0.000
1673144588.025,37.598,-231.445,-21.973,82.520,0.000
1673144588.029,-120.605,-286.621,-22.461,-61.035,0.000
1673144588.033,-85.449,-521.484,-20.996,-47.363,0.000
1673144588.037,73.730,-723.633,-22.461,105.469,0.000
1673144588.041,80.566,-258.301,-19.043,128.418,0.000
1673144588.045,-70.801,-49.805,-28.320,-19.043,0.000
1673144588.049,-118.652,-770.996,-41.504,-83.008,0.000
1673144588.052,20.508,-598.145,-38.574,45.410,0.000
1673144588.056,102.539,-98.633,-35.156,131.348,0.000
1673144588.060,-36.133,-258.789,-35.156,6.836,0.000
1673144588.064,-143.555,-793.945,-31.250,-101.562,0.000
1673144588.068,-14.648,-711.426,-22.461,18.066,0.000
1673144588.072,115.723,247.070,-18.555,140.625,0.000
1673144588.076,20.020,225.586,-17.578,53.223,0.000
1673144588.080,-193.359,-811.523,-20.508,-127.930,0.000
1673144588.084,-29.785,-737.793,-18.555,-14.160,0.000
1673144588.088,250.977,600.586,-15.625,212.402,0.000
1673144588.091,51.758,587.891,-26.855,72.266,0.000
1673144588.095,-322.266,-725.098,-30.762,-223.145,0.000
1673144588.099,-121.094,-868.164,-19.043,-92.773,0.000
1673144588.103,376.465,440.918,-14.160,297.852,0.000
1673144588.107,145.508,579.590,-23.926,183.594,0.000
1673144588.111,-391.602,-748.047,-29.297,-223.633,0.000
1673144588.115,-262.207,-1000.000,-19.531,-173.340,0.000
1673144588.119,291.992,286.621,-12.695,242.188,0.000
1673144588.123,278.809,923.340,-23.438,263.672,0.000
1673144588.127,-264.648,-382.324,-31.250,-142.578,0.000
1673144588.131,-351.562,-1000.000,-18.066,-245.605,0.000
1673144588.134,187.988,-389.648,-10.742,149.414,0.000
1673144588.138,386.230,816.895,-24.414,323.730,0.000
1673144588.142,-114.746,50.293,-34.668,-36.133,0.000
1673144588.146,-422.852,-1000.000,-34.180,-291.992,0.000
1673144588.150,22.461,-696.777,-24.902,19.531,0.000
1673144588.154,410.156,473.633,-20.508,340.332,0.000
1673144588.158,61.523,345.215,-30.273,111.328,0.000
1673144588.162,-318.359,-776.367,-31.250,-202.148,0.000
1673144588.166,-133.301,-802.246,-24.902,-101.074,0.000
1673144588.170,207.031,-178.223,-20.508,178.711,0.000
1673144588.173,142.090,8.301,-20.020,170.410,0.000
1673144588.177,-211.914,-370.117,-31.738,-122.070,0.000
1673144588.181,-222.168,-982.910,-35.156,-166.016,0.000
1673144588.185,131.348,-377.930,-27.832,118.164,0.000
1673144588.189,212.891,425.293,-31.250,209.961,0.000
1673144588.193,-116.211,-212.891,-33.203,-41.992,0.000
1673144588.197,-259.766,-1000.000,-29.785,-181.641,0.000
1673144588.201,50.781,-845.703,-25.879,45.898,0.000
1673144588.205,251.953,302.734,-24.414,219.727,0.000
1673144588.209,-14.160,357.422,-29.297,30.273,0.000
1673144588.213,-261.719,-789.062,-28.809,-180.664,0.000
1673144588.216,-46.875,-1000.000,-23.926,-38.086,0.000
1673144588.220,243.164,265.625,-24.902,202.148,0.000
1673144588.224,75.684,438.965,-36.133,103.027,0.000
1673144588.228,-245.605,-831.543,-35.645,-162.598,0.000
1673144588.232,-143.066,-970.703,-24.902,-113.770,0.000
1673144588.236,201.172,90.332,-14.648,160.156,0.000
1673144588.240,166.016,730.469,-21.484,163.574,0.000
1673144588.244,-101.074,-319.336,-32.227,-55.176,0.000
1673144588.248,-151.855,-1000.000,-30.762,-124.023,0.000
1673144588.252,-3.906,-644.043,-27.832,4.395,0.000
1673144588.255,119.629,338.867,-23.438,122.070,0.000
1673144588.259,3.418,-29.785,-26.367,29.785,0.000
1673144588.263,-133.301,-966.309,-25.879,-95.703,0.000
1673144588.267,-29.297,-543.457,-18.555,-17.578,0.000
1673144588.271,118.652,210.449,-22.461,123.535,0.000
1673144588.275,49.805,93.750,-29.785,76.660,0.000
1673144588.279,-105.957,-544.922,-31.738,-72.754,0.000
1673144588.283,-81.055,-628.418,-32.227,-62.500,0.000
1673144588.287,75.195,-50.293,-28.809,83.984,0.000
1673144588.291,83.496,-161.133,-25.391,112.793,0.000
1673144588.294,-70.312,-690.430,-27.832,-29.297,0.000
1673144588.298,-113.281,-655.273,-32.227,-90.332,0.000
1673144588.302,45.410,-377.930,-25.391,49.316,0.000
1673144588.306,125.977,-382.812,-21.973,135.742,0.000
1673144588.310,-26.855,-467.285,-31.250,1.465,0.000
1673144588.314,-141.602,-489.746,-35.156,-111.816,0.000
1673144588.318,-16.602,-702.148,-25.391,8.301,0.000
1673144588.322,104.492,-257.324,-25.879,129.395,0.000
1673144588.326,0.000,63.965,-34.668,37.109,0.000
1673144588.330,-140.625,-307.129,-36.621,-97.656,0.000
1673144588.334,-53.223,-625.977,-33.203,-33.691,0.000
1673144588.337,100.586,-568.848,-26.367,110.840,0.000
1673144588.341,66.895,-37.109,-21.973,93.262,0.000
1673144588.345,-159.180,-235.352,-25.879,-94.238,0.000
1673144588.349,-137.695,-1000.000,-26.367,-83.008,0.000
1673144588.353,191.406,-445.801,-16.113,182.129,0.000
1673144588.357,120.117,409.180,-16.602,154.785,0.000
1673144588.361,-229.004,-558.594,-25.879,-116.211,0.000
1673144588.365,-206.055,-1000.000,-26.855,-134.766,0.000
1673144588.369,144.043,-82.031,-20.996,135.254,0.000
1673144588.373,193.359,812.012,-23.926,203.613,0.000
1673144588.376,-147.949,-71.289,-29.785,-55.176,0.000
1673144588.380,-266.602,-1000.000,-23.926,-175.293,0.000
1673144588.384,57.617,-703.125,-17.578,63.965,0.000
1673144588.388,238.770,370.117,-20.508,230.957,0.000
1673144588.392,-47.852,200.195,-25.391,24.414,0.000
1673144588.396,-277.344,-1000.000,-22.949,-178.223,0.000
1673144588.400,-22.949,-719.238,-12.695,-11.230,0.000
1673144588.404,259.766,560.547,-9.766,218.262,0.000
1673144588.408,54.688,341.797,-20.996,95.215,0.000
1673144588.412,-268.066,-817.871,-25.879,-167.480,0.000
1673144588.416,-139.160,-1000.000,-18.555,-98.633,0.000
1673144588.419,202.637,12.695,-14.648,178.711,0.000
1673144588.423,146.484,607.910,-19.531,167.969,0.000
1673144588.427,-206.055,-517.090,-24.414,-108.887,0.000
1673144588.431,-225.098,-1000.000,-20.020,-155.273,0.000
1673144588.435,125.488,-329.590,-13.184,113.281,0.000
1673144588.439,208.496,344.727,-20.996,211.426,0.000
1673144588.443,-122.559,-563.965,-31.250,-47.363,0.000
1673144588.447,-268.066,-1000.000,-34.180,-201.172,0.000
1673144588.451,45.410,-342.773,-30.273,30.273,0.000
1673144588.455,253.418,563.477,-26.855,217.285,0.000
1673144588.458,-9.766,279.785,-26.855,35.156,0.000
1673144588.462,-347.656,-745.605,-24.414,-241.699,0.000
1673144588.466,-73.242,-741.699,-19.531,-68.848,0.000
1673144588.470,386.230,616.699,-19.043,292.969,0.000
1673144588.474,94.238,627.441,-21.973,111.816,0.000
1673144588.478,-411.621,-791.016,-30.762,-273.438,0.000
1673144588.482,-189.453,-935.059,-24.414,-154.785,0.000
1673144588.486,360.352,-137.207,-14.160,254.883,0.000
1673144588.490,242.676,435.547,-22.949,216.797,0.000
1673144588.494,-317.383,-214.844,-33.203,-193.848,0.000
1673144588.498,-314.941,-1000.000,-29.297,-235.840,0.000
1673144588.501,243.652,-184.082,-19.043,165.039,0.000
1673144588.505,344.727,968.262,-19.043,279.785,0.000
1673144588.509,-181.152,-54.688,-28.320,-91.797,0.000
1673144588.513,-408.203,-1000.000,-28.320,-274.902,0.000
1673144588.517,99.121,-413.086,-18.066,83.008,0.000
1673144588.521,359.375,813.965,-16.113,295.898,0.000
1673144588.525,-105.957,-70.801,-23.926,-19.043,0.000
1673144588.529,-427.246,-1000.000,-32.227,-279.785,0.000
1673144588.533,-80.078,-803.223,-28.320,-53.711,0.000
1673144588.537,389.648,567.383,-18.555,313.965,0.000
1673144588.540,123.047,777.344,-28.320,154.297,0.000
1673144588.544,-398.926,-659.668,-39.062,-240.723,0.000
1673144588.548,-228.516,-979.980,-33.691,-156.250,0.000
1673144588.552,315.918,346.680,-26.855,247.559,0.000
1673144588.556,257.324,-981.445,-34.668,243.164,0.000
1673144588.560,-294.922,-256.348,-43.457,-167.480,0.000
1673144588.564,-354.980,-1000.000,-36.133,-245.605,0.000
1673144588.568,180.664,-76.172,-26.367,147.949,0.000
1673144588.572,343.262,986.816,-30.762,302.734,0.000
1673144588.576,-152.344,-67.383,-38.086,-54.199,0.000
1673144588.580,-426.270,-1000.000,-32.715,-284.180,0.000
1673144588.583,27.344,-567.383,-21.973,26.367,0.000
1673144588.587,405.762,869.141,-23.438,329.590,0.000
1673144588.591,-2.930,427.246,-37.109,55.664,0.000
1673144588.595,-404.297,-884.277,-40.039,-248.535,0.000
1673144588.599,-62.500,-856.934,-25.391,-20.508,0.000
1673144588.603,382.812,333.984,-20.020,303.711,0.000
1673144588.607,171.387,767.090,-26.855,180.176,0.000
1673144588.611,-369.629,-532.227,-28.809,-235.840,0.000
1673144588.615,-249.512,-1000.000,-24.902,-197.266,0.000
1673144588.619,226.074,-338.867,-21.484,151.855,0.000
1673144588.622,226.074,-14.160,-20.508,184.570,0.000
1673144588.626,-128.906,-356.445,-26.367,-85.938,0.000
1673144588.630,-247.070,-848.145,-27.344,-214.844,0.000
1673144588.634,74.219,-617.188,-20.996,14.160,0.000
1673144588.638,249.512,160.645,-19.043,177.246,0.000
1673144588.642,-30.273,143.066,-22.949,-32.715,0.000
1673144588.646,-261.230,-818.848,-25.879,-237.305,0.000
1673144588.650,-14.648,-924.805,-22.461,-62.012,0.000
1673144588.654,269.043,312.500,-19.043,172.363,0.000
1673144588.658,77.148,646.973,-23.438,35.156,0.000
1673144588.662,-244.141,-533.203,-29.785,-217.285,0.000
1673144588.665,-118.652,-1000.000,-26.367,-145.508,0.000
1673144588.669,219.238,-112.793,-17.090,104.980,0.000
1673144588.673,160.645,683.105,-21.484,94.727,0.000
1673144588.677,-188.965,-281.250,-33.203,-184.570,0.000
1673144588.681,-208.008,-1000.000,-32.715,-242.188,0.000
1673144588.685,148.438,-213.379,-19.043,17.090,0.000
1673144588.689,214.355,810.059,-21.973,85.449,0.000
1673144588.693,-60.059,9.277,-30.762,-119.629,0.000
1673144588.697,-166.992,-1000.000,-29.785,-224.609,0.000
1673144588.701,-30.762,-756.836,-26.367,-111.328,0.000
1673144588.704,107.422,140.625,-25.391,35.156,0.000
1673144588.708,29.785,88.867,-31.738,-24.902,0.000
1673144588.712,-124.023,-856.445,-40.527,-175.293,0.000
1673144588.716,-81.543,-938.965,-37.109,-151.367,0.000
1673144588.720,78.613,4.395,-34.180,-9.766,0.000
1673144588.724,76.660,128.418,-41.016,17.090,0.000
1673144588.728,-84.961,-820.801,-45.898,-92.285,0.000
1673144588.732,-122.559,-820.801,-43.945,-122.070,0.000
1673144588.736,33.691,-89.355,-35.156,39.062,0.000
1673144588.740,109.863,154.785,-27.832,135.742,0.000
1673144588.744,-31.250,-173.828,-32.715,14.648,0.000
1673144588.747,-130.859,-592.773,-39.062,-87.891,0.000
1673144588.751,10.254,-649.414,-37.598,40.039,0.000
1673144588.755,130.371,-198.730,-27.344,170.898,0.000
1673144588.759,0.488,-312.988,-22.461,66.895,0.000
1673144588.763,-140.625,-789.551,-23.438,-57.617,0.000
1673144588.767,-40.527,-492.188,-21.484,25.879,0.000
1673144588.771,100.586,-546.387,-18.066,165.039,0.000
1673144588.775,30.762,-520.996,-18.066,123.535,0.000
1673144588.779,-124.023,-228.027,-18.066,-28.809,0.000
1673144588.783,-100.098,-629.395,-12.207,-23.926,0.000
1673144588.786,49.805,-554.199,-13.184,120.605,0.000
1673144588.790,65.918,20.996,-20.020,147.461,0.000
1673144588.794,-80.078,3.418,-23.926,2.930,0.000
1673144588.798,-128.906,-718.262,-19.531,-62.500,0.000
1673144588.802,25.879,-668.945,-10.742,83.496,0.000
1673144588.806,127.441,-49.316,-11.230,181.152,0.000
1673144588.810,-10.742,-293.945,-20.996,49.316,0.000
1673144588.814,-172.852,-1000.000,-22.461,-97.656,0.000
1673144588.818,50.781,-773.926,-10.742,76.172,0.000
1673144588.822,236.328,482.910,-13.184,241.211,0.000
1673144588.826,-62.988,285.156,-23.926,18.066,0.000
1673144588.829,-267.090,-968.262,-21.484,-165.039,0.000
1673144588.833,5.859,-628.906,-20.996,13.184,0.000
1673144588.837,265.625,652.344,-22.461,228.027,0.000
1673144588.841,51.270,601.074,-26.855,91.797,0.000
1673144588.845,-251.465,-676.758,-33.203,-161.621,0.000
1673144588.849,-86.914,-876.465,-24.414,-68.359,0.000
1673144588.853,337.402,433.594,-12.695,267.090,0.000
1673144588.857,185.059,638.672,-15.625,194.336,0.000
1673144588.861,-367.188,-725.586,-24.902,-210.449,0.000
1673144588.865,-272.949,-1000.000,-14.160,-170.898,0.000
1673144588.868,289.062,251.465,-3.906,241.699,0.000
1673144588.872,300.293,975.586,-15.625,286.621,0.000
1673144588.876,-226.074,-267.090,-22.949,-103.516,0.000
1673144588.880,-341.797,-1000.000,-16.602,-234.375,0.000
1673144588.884,164.062,-310.059,-6.348,132.324,0.000
1673144588.888,397.461,968.262,-12.695,346.191,0.000
1673144588.892,-74.219,73.242,-29.297,13.184,0.000
1673144588.896,-419.434,-1000.000,-30.762,-269.043,0.000
1673144588.900,-9.277,-700.195,-22.949,9.766,0.000
1673144588.904,402.344,534.668,-26.367,331.543,0.000
1673144588.908,56.152,23.438,-37.598,109.375,0.000
1673144588.911,-423.340,-1000.000,-38.574,-262.695,0.000
1673144588.915,-163.086,-808.105,-32.715,-113.281,0.000
1673144588.919,369.141,299.316,-25.879,289.062,0.000
1673144588.923,202.637,856.934,-28.809,211.914,0.000
1673144588.927,-267.090,-228.516,-32.715,-144.531,0.000
1673144588.931,-235.352,-1000.000,-29.297,-164.062,0.000
1673144588.935,125.000,-427.246,-20.996,113.281,0.000
1673144588.939,219.238,565.430,-19.531,222.168,0.000
1673144588.943,-107.910,55.664,-29.297,-21.484,0.000
1673144588.947,-265.625,-957.031,-26.367,-176.270,0.000
1673144588.950,33.203,-1000.000,-19.531,47.363,0.000
1673144588.954,242.676,-255.859,-20.020,242.188,0.000
1673144588.958,-18.555,377.441,-25.391,53.711,0.000
1673144588.962,-279.785,-733.887,-26.367,-176.270,0.000
1673144588.966,-64.453,-854.004,-17.090,-42.969,0.000
1673144588.970,238.281,409.668,-11.230,204.590,0.000
1673144588.974,88.379,452.148,-22.949,125.488,0.000
1673144588.978,-244.141,-739.746,-32.715,-139.160,0.000
1673144588.982,-164.551,-953.613,-30.273,-119.141,0.000
1673144588.986,187.988,189.941,-24.414,148.926,0.000
1673144588.990,188.477,740.723,-26.367,183.105,0.000
1673144588.993,-167.969,-416.504,-36.621,-81.543,0.000
1673144588.997,-243.164,-1000.000,-35.645,-159.668,0.000
1673144589.001,96.680,-219.727,-22.461,93.262,0.000
1673144589.005,229.980,882.812,-23.926,217.773,0.000
1673144589.009,-85.449,33.691,-29.785,-17.578,0.000
1673144589.013,-267.090,-1000.000,-34.180,-191.895,0.000
1673144589.017,-28.809,-590.820,-33.203,-21.484,0.000
1673144589.021,142.090,251.953,-26.855,137.207,0.000
1673144589.025,50.293,104.004,-27.344,70.312,0.000
1673144589.029,-107.422,-674.805,-30.762,-80.078,0.000
1673144589.032,-95.703,-792.480,-25.391,-75.195,0.000
1673144589.036,56.641,-69.336,-24.414,72.266,0.000
1673144589.040,78.613,-174.316,-28.320,102.051,0.000
1673144589.044,-74.219,-836.914,-25.879,-40.039,0.000
1673144589.048,-129.883,-727.539,-20.996,-106.445,0.000
1673144589.052,25.879,-192.383,-18.555,31.250,0.000
1673144589.056,118.652,45.898,-20.996,126.953,0.000
1673144589.060,-26.855,-103.516,-25.391,0.977,0.000
1673144589.064,-149.414,-446.289,-30.273,-125.000,0.000
1673144589.068,-23.926,-606.445,-29.785,-12.207,0.000
1673144589.072,132.812,-156.738,-19.531,143.555,0.000
1673144589.075,-8.301,70.312,-23.926,33.203,0.000
1673144589.079,-224.609,-675.781,-30.273,-157.715,0.000
1673144589.083,-4.883,-763.184,-25.879,-0.977,0.000
1673144589.087,261.719,124.023,-23.438,233.398,0.000
1673144589.091,51.270,112.793,-28.809,95.215,0.000
1673144589.095,-252.930,-759.766,-34.180,-169.922,0.000
1673144589.099,-108.398,-1000.000,-31.738,-89.355,0.000
1673144589.103,226.074,-248.047,-23.438,183.105,0.000
1673144589.107,154.785,717.285,-19.531,152.344,0.000
1673144589.111,-192.871,-153.320,-28.809,-130.371,0.000
1673144589.114,-187.988,-1000.000,-28.320,-151.855,0.000
1673144589.118,156.738,-487.305,-18.555,126.465,0.000
1673144589.122,217.773,725.098,-15.625,202.148,0.000
1673144589.126,-117.676,103.516,-28.809,-52.734,0.000
1673144589.130,-246.094,-1000.000,-34.668,-182.617,0.000
1673144589.134,63.965,-740.234,-26.855,47.852,0.000
1673144589.138,254.883,409.180,-22.461,219.727,0.000
1673144589.142,-21.973,131.348,-29.785,21.484,0.000
1673144589.146,-269.043,-1000.000,-35.156,-188.965,0.000
1673144589.150,-39.551,-693.848,-26.855,-36.133,0.000
1673144589.154,248.535,582.031,-24.902,205.566,0.000
1673144589.157,74.707,561.523,-35.645,99.609,0.000
1673144589.161,-244.629,-759.766,-35.156,-164.551,0.000
1673144589.165,-129.883,-953.125,-19.531,-111.328,0.000
1673144589.169,201.660,260.254,-15.625,144.043,0.000
1673144589.173,150.391,719.727,-29.297,138.672,0.000
1673144589.177,-208.008,-478.027,-37.109,-133.301,0.000
1673144589.181,-243.164,-1000.000,-30.762,-184.082,0.000
1673144589.185,105.957,-276.855,-19.043,92.285,0.000
1673144589.189,201.172,547.852,-28.320,195.801,0.000
1673144589.193,-117.188,-274.902,-33.691,-49.805,0.000
1673144589.196,-270.020,-1000.000,-25.391,-199.219,0.000
1673144589.200,24.414,-512.207,-19.531,15.625,0.000
1673144589.204,241.699,297.363,-22.461,211.426,0.000
1673144589.208,-14.160,-229.004,-30.273,34.668,0.000
1673144589.212,-274.414,-835.938,-30.273,-192.383,0.000
1673144589.216,-67.871,-746.094,-20.996,-57.617,0.000
1673144589.220,241.699,226.074,-13.672,202.148,0.000
1673144589.224,106.445,512.695,-17.090,122.559,0.000
1673144589.228,-229.980,-532.715,-22.461,-146.484,0.000
1673144589.232,-153.320,-1000.000,-18.555,-110.840,0.000
1673144589.236,194.336,-326.660,-8.301,159.180,0.000
1673144589.239,186.523,557.617,-10.254,184.570,0.000
1673144589.243,-164.062,-39.062,-23.438,-92.285,0.000
1673144589.247,-234.863,-978.027,-25.879,-184.082,0.000
1673144589.251,105.469,-856.445,-20.020,66.406,0.000
1673144589.255,243.164,40.039,-20.508,185.059,0.000
1673144589.259,-68.359,-97.168,-26.855,-44.434,0.000
1673144589.263,-268.066,-1000.000,-33.203,-213.867,0.000
1673144589.267,12.695,-640.625,-24.902,-14.648,0.000
1673144589.271,261.719,627.441,-20.508,194.336,0.000
1673144589.275,16.602,302.246,-26.367,41.504,0.000
1673144589.278,-283.203,-940.430,-25.391,-199.219,0.000
1673144589.282,-91.797,-787.109,-22.949,-93.750,0.000
1673144589.286,238.281,479.980,-18.555,164.062,0.000
1673144589.290,130.859,854.980,-22.461,107.910,0.000
1673144589.294,-213.867,-371.582,-32.715,-166.504,0.000
1673144589.298,-182.617,-1000.000,-24.902,-176.758,0.000
1673144589.302,167.969,95.703,-11.230,92.285,0.000
1673144589.306,197.754,924.805,-19.531,154.297,0.000
1673144589.310,-148.926,-175.781,-27.832,-104.492,0.000
1673144589.314,-251.953,-1000.000,-28.809,-207.520,0.000
1673144589.318,71.777,-261.719,-26.855,34.180,0.000
1673144589.321,231.445,548.340,-28.809,182.129,0.000
1673144589.325,-65.918,-231.445,-34.668,-28.809,0.000
1673144589.329,-285.645,-1000.000,-33.691,-219.238,0.000
1673144589.333,-25.391,-546.387,-25.879,-41.504,0.000
1673144589.337,242.188,663.086,-25.879,181.152,0.000
1673144589.341,42.969,83.496,-34.180,53.711,0.000
1673144589.345,-262.207,-1000.000,-35.156,-198.730,0.000
1673144589.349,-123.535,-937.500,-28.809,-127.441,0.000
1673144589.353,211.426,-116.699,-22.949,142.090,0.000
1673144589.357,134.277,448.242,-28.320,121.094,0.000
1673144589.360,-209.473,-363.281,-33.691,-151.367,0.000
1673144589.364,-186.035,-1000.000,-30.273,-166.016,0.000
1673144589.368,72.754,-670.898,-29.785,43.457,0.000
1673144589.372,125.977,-247.559,-26.855,114.746,0.000
1673144589.376,-12.207,-53.223,-26.367,-1.465,0.000
1673144589.380,-142.578,-319.336,-27.832,-128.418,0.000
1673144589.384,-27.344,-696.777,-27.344,-39.062,0.000
1673144589.388,124.023,-481.934,-23.926,92.773,0.000
1673144589.392,41.016,139.160,-24.902,23.438,0.000
1673144589.396,-112.305,-183.105,-29.297,-113.770,0.000
1673144589.400,-64.453,-728.516,-22.461,-82.520,0.000
1673144589.403,88.867,-220.703,-15.625,70.801,0.000
1673144589.407,76.660,415.527,-13.672,79.590,0.000
1673144589.411,-74.707,-102.539,-13.184,-62.500,0.000
1673144589.415,-102.051,-864.746,-13.184,-93.262,0.000
1673144589.419,43.457,-523.438,-12.207,42.969,0.000
1673144589.423,106.934,170.410,-14.648,108.887,0.000
1673144589.427,-36.133,-48.340,-20.020,-29.785,0.000
1673144589.431,-136.230,-824.219,-24.414,-133.789,0.000
1673144589.435,-0.977,-574.219,-23.926,-12.695,0.000
1673144589.439,124.023,330.078,-19.531,107.422,0.000
1673144589.442,12.695,-38.086,-22.949,21.973,0.000
1673144589.446,-131.836,-796.875,-28.320,-106.934,0.000
1673144589.450,-47.363,-533.691,-23.926,-44.922,0.000
1673144589.454,100.098,194.824,-21.484,98.633,0.000
1673144589.458,37.109,171.875,-24.902,57.129,0.000
1673144589.462,-118.164,-765.625,-33.691,-96.191,0.000
1673144589.466,-88.379,-989.258,-32.715,-91.309,0.000
1673144589.470,77.637,-2.930,-25.879,53.223,0.000
1673144589.474,80.078,167.480,-30.273,72.266,0.000
1673144589.478,-179.688,-891.113,-39.551,-141.113,0.000
1673144589.482,-170.898,-929.688,-37.598,-167.969,0.000
1673144589.485,186.035,249.512,-28.320,108.887,0.000
1673144589.489,193.359,681.152,-27.344,148.438,0.000
1673144589.493,-161.133,-330.078,-32.227,-130.371,0.000
1673144589.497,-229.004,-983.887,-28.809,-222.168,0.000
1673144589.501,106.445,-222.656,-26.855,35.156,0.000
1673144589.505,235.352,511.719,-30.762,172.363,0.000
1673144589.509,-76.172,-288.574,-36.133,-55.176,0.000
1673144589.513,-282.227,-1000.000,-36.133,-235.840,0.000
1673144589.517,-13.672,-451.172,-29.297,-41.016,0.000
1673144589.521,235.840,-3.418,-23.926,181.641,0.000
1673144589.524,10.742,-268.066,-24.902,40.039,0.000
1673144589.528,-261.230,-639.160,-26.367,-194.824,0.000
1673144589.532,-76.172,-922.852,-17.578,-87.891,0.000
1673144589.536,242.188,-152.344,-11.230,175.293,0.000
1673144589.540,133.301,285.645,-17.578,125.000,0.000
1673144589.544,-214.355,-450.684,-22.461,-165.527,0.000
1673144589.548,-175.293,-1000.000,-13.672,-167.480,0.000
1673144589.552,178.223,-290.527,-3.418,119.629,0.000
1673144589.556,218.750,533.691,-10.254,180.664,0.000
1673144589.560,-129.395,-319.824,-15.625,-83.496,0.000
1673144589.564,-236.328,-1000.000,-13.184,-200.684,0.000
1673144589.567,92.773,-769.531,-7.324,38.086,0.000
1673144589.571,259.766,526.367,-3.418,189.941,0.000
1673144589.575,-37.109,503.418,-11.230,-24.902,0.000
1673144589.579,-259.766,-829.102,-15.625,-222.168,0.000
1673144589.583,-11.230,-668.945,-8.789,-42.969,0.000
1673144589.587,248.535,591.797,-5.371,190.918,0.000
1673144589.591,46.387,389.160,-10.742,64.453,0.000
1673144589.595,-273.438,-812.500,-13.184,-192.871,0.000
1673144589.599,-139.648,-876.953,-11.230,-111.328,0.000
1673144589.603,205.078,34.180,-1.465,162.598,0.000
1673144589.606,141.602,359.863,3.418,144.531,0.000
1673144589.610,-211.914,-545.410,-10.742,-127.930,0.000
1673144589.614,-216.797,-994.629,-13.184,-166.992,0.000
1673144589.618,145.996,95.215,-0.977,99.121,0.000
1673144589.622,225.586,908.203,-1.465,184.082,0.000
1673144589.626,-114.746,-85.938,-7.812,-70.312,0.000
1673144589.630,-263.184,-1000.000,-10.254,-206.055,0.000
1673144589.634,49.316,-479.492,-2.441,24.902,0.000
1673144589.638,247.559,646.484,-1.953,207.520,0.000
1673144589.642,-30.273,146.484,-4.395,16.113,0.000
1673144589.645,-277.832,-906.738,-2.930,-196.289,0.000
1673144589.649,-49.316,-836.914,2.930,-52.246,0.000
1673144589.653,244.629,87.402,3.906,185.059,0.000
1673144589.657,77.637,-79.590,-4.883,85.938,0.000
1673144589.661,-250.977,-886.719,-8.789,-187.988,0.000
1673144589.665,-147.949,-770.508,-5.859,-152.344,0.000
1673144589.669,201.172,57.617,-1.465,123.047,0.000
1673144589.673,174.316,555.176,-5.371,138.672,0.000
1673144589.677,-184.082,-101.562,-14.160,-135.742,0.000
1673144589.681,-234.863,-943.359,-9.277,-200.684,0.000
1673144589.685,108.887,-395.508,1.465,67.383,0.000
1673144589.688,217.773,666.504,0.488,186.035,0.000
1673144589.692,-94.238,149.902,-5.371,-54.688,0.000
1673144589.696,-265.625,-934.570,-5.859,-224.121,0.000
1673144589.700,19.043,-1000.000,-2.930,-17.090,0.000
1673144589.704,248.047,-230.469,-5.371,183.594,0.000
1673144589.708,-5.371,432.129,-16.113,12.695,0.000
1673144589.712,-278.320,-663.574,-22.949,-212.891,0.000
1673144589.716,-76.660,-916.016,-16.602,-93.750,0.000
1673144589.720,239.258,361.328,-6.836,162.109,0.000
1673144589.724,109.863,540.039,-14.160,101.562,0.000
1673144589.727,-231.934,-683.105,-19.531,-168.945,0.000
1673144589.731,-161.621,-953.613,-11.230,-143.066,0.000
1673144589.735,192.871,111.816,-5.859,133.789,0.000
1673144589.739,197.754,841.309,-11.719,163.574,0.000
1673144589.743,-150.879,-223.633,-20.020,-104.004,0.000
1673144589.747,-231.934,-1000.000,-18.066,-192.383,0.000
1673144589.751,102.051,-211.426,-6.836,57.129,0.000
1673144589.755,247.559,906.250,-5.371,195.312,0.000
1673144589.759,-62.988,38.086,-19.531,-32.715,0.000
1673144589.763,-270.996,-1000.000,-22.461,-220.215,0.000
1673144589.767,1.953,-515.137,-14.160,-27.832,0.000
1673144589.770,252.930,705.078,-15.625,183.105,0.000
1673144589.774,30.273,336.914,-22.461,37.598,0.000
1673144589.778,-265.137,-892.090,-21.973,-202.637,0.000
1673144589.782,-101.562,-811.523,-9.766,-100.586,0.000
1673144589.786,232.910,378.906,3.418,171.387,0.000
1673144589.790,130.371,352.539,-6.348,127.930,0.000
1673144589.794,-220.703,-840.820,-14.648,-148.438,0.000
1673144589.798,-189.941,-962.891,-8.789,-157.715,0.000
1673144589.802,162.109,103.027,-4.883,122.559,0.000
1673144589.806,206.055,271.484,-13.184,185.547,0.000
1673144589.809,-134.766,-639.648,-20.020,-70.801,0.000
1673144589.813,-249.023,-1000.000,-18.555,-177.734,0.000
1673144589.817,76.172,-644.531,-12.207,60.059,0.000
1673144589.821,245.117,363.770,-7.812,218.750,0.000
1673144589.825,-47.363,279.785,-11.230,14.160,0.000
1673144589.829,-269.531,-784.668,-11.230,-182.129,0.000
1673144589.833,-18.555,-744.141,-5.859,-2.930,0.000
1673144589.837,254.395,29.785,-5.371,232.910,0.000
1673144589.841,55.664,226.562,-9.277,109.863,0.000
1673144589.845,-256.348,-471.191,-10.742,-145.508,0.000
1673144589.849,-130.371,-1000.000,-12.695,-81.055,0.000
1673144589.852,199.219,-423.828,-7.324,190.918,0.000
1673144589.856,140.625,660.645,-8.789,173.828,0.000
1673144589.860,-211.426,-125.488,-20.996,-104.980,0.000
1673144589.864,-226.074,-1000.000,-19.043,-139.648,0.000
1673144589.868,123.535,-392.578,-9.277,129.395,0.000
1673144589.872,201.660,563.477,-10.254,212.891,0.000
1673144589.876,-134.277,89.355,-20.996,-45.898,0.000
1673144589.880,-286.621,-980.957,-21.484,-188.477,0.000
1673144589.884,18.066,-783.203,-13.672,37.109,0.000
1673144589.888,235.352,286.621,-8.301,222.656,0.000
1673144589.891,-19.531,282.715,-13.184,31.250,0.000
1673144589.895,-280.273,-858.887,-23.926,-184.570,0.000
1673144589.899,-62.500,-778.809,-18.555,-39.062,0.000
1673144589.903,244.141,558.105,-13.184,197.266,0.000
1673144589.907,91.309,684.570,-21.973,107.422,0.000
1673144589.911,-237.793,-654.785,-23.438,-150.879,0.000
1673144589.915,-139.160,-966.309,-12.695,-106.445,0.000
1673144589.919,211.426,302.734,-6.348,165.527,0.000
1673144589.923,187.988,765.137,-11.719,178.711,0.000
1673144589.927,-169.922,-439.941,-15.625,-93.750,0.000
1673144589.931,-229.004,-1000.000,-17.090,-174.316,0.000
1673144589.934,115.723,-293.457,-12.207,80.566,0.000
1673144589.938,229.492,610.352,-12.695,196.289,0.000
1673144589.942,-94.727,-458.496,-18.555,-41.992,0.000
1673144589.946,-272.461,-1000.000,-17.578,-202.637,0.000
1673144589.950,19.531,-356.934,-11.719,6.348,0.000
1673144589.954,257.812,549.805,-4.883,209.961,0.000
1673144589.958,20.996,306.152,-5.371,41.992,0.000
1673144589.962,-267.578,-687.988,-10.254,-199.219,0.000
1673144589.966,-82.031,-721.191,-7.324,-77.148,0.000
1673144589.970,241.699,293.945,-1.465,186.035,0.000
1673144589.973,113.770,530.273,-6.836,124.023,0.000
1673144589.977,-237.305,-549.316,-12.695,-142.090,0.000
1673144589.981,-174.316,-1000.000,-5.859,-134.277,0.000
1673144589.985,184.082,-628.906,0.977,145.996,0.000
1673144589.989,196.289,25.879,-1.953,187.500,0.000
1673144589.993,-152.344,24.414,-3.418,-85.449,0.000
1673144589.997,-239.746,-964.355,-8.789,-174.805,0.000
1673144590.001,94.727,-462.891,-6.836,79.102,0.000
1673144590.005,250.488,555.176,-0.977,215.332,0.000
1673144590.009,-57.617,68.848,-3.418,-7.324,0.000
1673144590.013,-265.137,-926.270,-6.348,-185.547,0.000
1673144590.016,7.812,-675.781,-2.441,0.977,0.000
1673144590.020,258.301,649.414,1.953,215.332,0.000
1673144590.024,37.598,351.074,-7.324,69.824,0.000
1673144590.028,-267.090,-884.766,-20.020,-181.641,0.000
1673144590.032,-103.516,-981.445,-14.160,-85.449,0.000
1673144590.036,232.910,36.133,1.465,180.664,0.000
1673144590.040,139.648,654.297,-6.836,141.602,0.000
1673144590.044,-205.566,-359.863,-15.625,-136.230,0.000
1673144590.048,-192.383,-1000.000,-12.695,-166.016,0.000
1673144590.052,153.809,44.922,-9.277,101.074,0.000
1673144590.055,208.008,968.750,-11.719,186.035,0.000
1673144590.059,-140.625,-63.965,-18.066,-73.730,0.000
1673144590.063,-258.301,-1000.000,-16.113,-206.055,0.000
1673144590.067,70.801,-317.871,-7.324,33.691,0.000
1673144590.071,235.352,520.020,-6.348,192.383,0.000
1673144590.075,-5.859,-262.207,-9.277,20.996,0.000
1673144590.079,-170.410,-958.496,-11.230,-131.836,0.000
1673144590.083,-73.730,-466.797,-12.207,-66.895,0.000
1673144590.087,80.078,77.637,-14.160,71.777,0.000
1673144590.091,58.105,131.836,-19.531,67.871,0.000
1673144590.095,-103.516,-528.320,-20.996,-74.219,0.000
1673144590.098,-121.582,-946.777,-17.578,-104.980,0.000
1673144590.102,36.621,-479.004,-16.113,41.504,0.000
1673144590.106,91.797,106.934,-20.996,104.980,0.000
1673144590.110,-55.176,19.531,-24.414,-29.785,0.000
1673144590.114,-155.273,-507.324,-20.508,-129.883,0.000
1673144590.118,59.570,-448.730,-15.137,45.898,0.000
1673144590.122,202.148,-110.840,-16.113,187.012,0.000
1673144590.126,-112.305,-358.887,-26.367,-53.711,0.000
1673144590.130,-272.949,-891.602,-31.738,-204.590,0.000
1673144590.134,33.691,-622.559,-20.508,24.414,0.000
1673144590.137,251.465,464.355,-16.113,208.008,0.000
1673144590.141,-10.254,478.516,-27.832,20.020,0.000
1673144590.145,-278.809,-706.055,-35.156,-209.473,0.000
1673144590.149,-60.547,-998.535,-29.785,-65.918,0.000
1673144590.153,248.535,198.242,-20.996,186.523,0.000
1673144590.157,89.844,734.863,-17.090,97.656,0.000
1673144590.161,-238.281,-422.363,-20.996,-166.016,0.000
1673144590.165,-151.855,-1000.000,-21.484,-129.883,0.000
1673144590.169,192.383,-125.977,-15.625,143.066,0.000
1673144590.173,166.504,831.543,-12.695,152.832,0.000
1673144590.177,-106.445,146.484,-17.578,-66.406,0.000
1673144590.180,-156.250,-834.961,-21.484,-140.625,0.000
1673144590.184,-14.648,-520.996,-11.719,-13.672,0.000
1673144590.188,104.980,315.430,-6.348,109.863,0.000
1673144590.192,1.953,-64.941,-16.113,12.207,0.000
1673144590.196,-145.508,-810.059,-19.531,-128.906,0.000
1673144590.200,-58.594,-526.855,-13.672,-49.805,0.000
1673144590.204,89.355,25.879,-15.137,92.773,0.000
1673144590.208,37.598,-79.102,-16.602,53.711,0.000
1673144590.212,-108.398,-804.199,-20.996,-83.984,0.000
1673144590.216,-92.773,-881.836,-18.066,-85.938,0.000
1673144590.219,74.219,-0.977,-14.160,52.246,0.000
1673144590.223,102.051,128.418,-18.066,83.008,0.000
1673144590.227,-62.500,-521.973,-17.090,-55.664,0.000
1673144590.231,-116.211,-666.504,-15.137,-111.328,0.000
1673144590.235,37.598,-74.707,-13.672,22.461,0.000
1673144590.239,111.328,-2.441,-18.555,106.445,0.000
1673144590.243,-37.109,-485.352,-22.949,-11.719,0.000
1673144590.247,-148.438,-460.938,-18.555,-117.188,0.000
1673144590.251,-12.207,-267.090,-13.672,-3.906,0.000
1673144590.255,126.465,45.410,-13.184,125.977,0.000
1673144590.259,17.578,-174.316,-14.648,41.992,0.000
1673144590.262,-132.324,-758.301,-12.695,-90.332,0.000
1673144590.266,-50.781,-854.004,-7.324,-22.949,0.000
1673144590.270,108.398,-331.543,-0.977,124.512,0.000
1673144590.274,69.824,138.184,-2.930,100.098,0.000
1673144590.278,-83.496,-83.496,-9.277,-50.781,0.000
1673144590.282,-85.938,-485.840,-10.254,-70.801,0.000
1673144590.286,69.336,-721.191,-8.789,72.754,0.000
1673144590.290,104.980,-275.391,-5.371,125.000,0.000
1673144590.294,-57.129,-9.766,-12.695,-13.672,0.000
1673144590.298,-130.859,-729.004,-14.648,-96.191,0.000
1673144590.301,22.949,-600.098,-7.324,38.574,0.000
1673144590.305,129.395,-4.395,-2.441,142.578,0.000
1673144590.309,-1.953,-187.012,-2.930,20.508,0.000
1673144590.313,-131.348,-844.238,-11.719,-103.516,0.000
1673144590.317,-17.090,-807.617,-10.254,-10.742,0.000
1673144590.321,123.047,144.043,-5.859,121.094,0.000
1673144590.325,33.691,464.355,-11.230,47.852,0.000
1673144590.329,-110.840,-462.402,-15.625,-86.914,0.000
1673144590.333,-54.199,-869.141,-11.230,-35.156,0.000
1673144590.337,93.262,75.195,-8.301,105.469,0.000
1673144590.341,72.754,487.305,-10.254,91.797,0.000
1673144590.344,-94.727,-293.945,-15.625,-67.871,0.000
1673144590.348,-108.887,-730.469,-20.508,-81.055,0.000
1673144590.352,51.758,-360.352,-6.836,83.984,0.000
1673144590.356,93.750,-9.277,-2.930,131.836,0.000
1673144590.360,-47.363,-412.598,-11.719,-2.441,0.000
1673144590.364,-137.207,-805.176,-10.254,-86.426,0.000
1673144590.368,4.883,-205.566,-4.883,38.086,0.000
1673144590.372,125.977,273.926,-9.766,144.531,0.000
1673144590.376,1.465,-345.215,-15.137,37.598,0.000
1673144590.380,-140.625,-1000.000,-13.672,-98.145,0.000
1673144590.383,-42.480,-588.379,-13.184,-22.461,0.000
1673144590.387,101.562,88.867,-16.602,115.723,0.000
1673144590.391,28.320,58.594,-21.973,58.105,0.000
1673144590.395,-123.047,-287.598,-23.926,-91.309,0.000
1673144590.399,-83.984,-708.008,-19.043,-64.941,0.000
1673144590.403,72.754,-485.840,-11.230,79.590,0.000
1673144590.407,102.539,-55.176,-11.719,106.445,0.000
1673144590.411,-136.719,-341.309,-17.090,-105.469,0.000
1673144590.415,-175.781,-717.285,-15.137,-160.156,0.000
1673144590.419,168.457,-150.879,-10.254,112.793,0.000
1673144590.423,184.082,162.598,-17.090,154.297,0.000
1673144590.426,-170.410,-304.199,-25.879,-121.094,0.000
1673144590.430,-282.227,-1000.000,-25.879,-229.980,0.000
1673144590.434,173.828,-336.914,-12.695,107.910,0.000
1673144590.438,346.680,998.047,-8.301,274.902,0.000
1673144590.442,-170.898,209.473,-23.438,-92.285,0.000
1673144590.446,-402.344,-1000.000,-30.273,-301.270,0.000
1673144590.450,76.660,-768.066,-15.625,37.598,0.000
1673144590.454,398.438,689.453,-7.812,304.199,0.000
1673144590.458,-21.484,591.797,-14.648,22.949,0.000
1673144590.462,-426.758,-841.797,-20.508,-298.828,0.000
1673144590.465,-86.426,-1000.000,-13.184,-75.195,0.000
1673144590.469,395.020,376.465,-2.930,293.457,0.000
1673144590.473,147.949,703.125,-11.230,148.926,0.000
1673144590.477,-387.695,-744.141,-17.578,-248.535,0.000
1673144590.481,-228.027,-980.957,-9.766,-171.387,0.000
1673144590.485,243.652,18.555,-1.953,186.523,0.000
1673144590.489,209.961,803.711,-5.859,200.684,0.000
1673144590.493,-149.414,-151.367,-19.043,-79.102,0.000
1673144590.497,-241.211,-1000.000,-18.555,-185.547,0.000
1673144590.501,88.379,-226.562,-4.883,65.918,0.000
1673144590.505,247.070,936.035,-5.371,213.867,0.000
1673144590.508,-46.387,252.930,-14.160,-0.488,0.000
1673144590.512,-263.672,-1000.000,-16.113,-185.059,0.000
1673144590.516,-13.184,-657.715,-5.859,-3.906,0.000
1673144590.520,247.559,669.434,1.953,218.750,0.000
1673144590.524,48.340,468.750,-5.371,84.961,0.000
1673144590.528,-253.418,-793.945,-15.625,-166.992,0.000
1673144590.532,-114.746,-783.203,-14.160,-89.355,0.000
1673144590.536,209.473,362.305,-13.672,178.711,0.000
1673144590.540,134.277,379.883,-20.020,154.297,0.000
1673144590.544,-208.984,-746.094,-24.902,-129.395,0.000
1673144590.547,-202.148,-975.586,-14.648,-161.621,0.000
1673144590.551,150.879,87.402,-6.836,122.070,0.000
1673144590.555,219.238,295.898,-13.672,210.449,0.000
1673144590.559,-119.629,-520.996,-19.043,-45.410,0.000
1673144590.563,-248.047,-858.398,-16.113,-181.152,0.000
1673144590.567,67.871,-586.914,-12.207,49.805,0.000
1673144590.571,253.418,430.176,-10.254,228.516,0.000
1673144590.575,-25.879,426.270,-14.160,26.855,0.000
1673144590.579,-276.367,-678.711,-20.508,-192.871,0.000
1673144590.583,-44.434,-772.949,-20.508,-32.715,0.000
1673144590.587,241.699,12.207,-17.090,213.379,0.000
1673144590.590,70.801,306.641,-18.555,96.680,0.000
1673144590.594,-255.371,-449.707,-24.902,-174.805,0.000
1673144590.598,-155.273,-1000.000,-22.461,-115.723,0.000
1673144590.602,186.523,-390.137,-16.113,158.691,0.000
1673144590.606,149.414,759.766,-15.137,162.109,0.000
1673144590.610,-194.336,9.766,-21.484,-111.328,0.000
1673144590.614,-222.168,-1000.000,-21.973,-163.574,0.000
1673144590.618,119.629,-241.211,-15.625,103.027,0.000
1673144590.622,214.844,916.504,-21.484,198.730,0.000
1673144590.626,-117.676,256.836,-32.715,-58.105,0.000
1673144590.629,-263.672,-909.180,-30.273,-195.312,0.000
1673144590.633,38.574,-727.539,-22.461,24.902,0.000
1673144590.637,236.328,456.543,-20.996,202.148,0.000
1673144590.641,-18.555,476.074,-21.973,27.832,0.000
1673144590.645,-284.180,-809.082,-23.926,-195.312,0.000
1673144590.649,-74.219,-820.312,-17.090,-59.570,0.000
1673144590.653,235.840,343.262,-8.789,190.430,0.000
1673144590.657,95.703,599.609,-11.230,110.352,0.000
1673144590.661,-238.281,-597.168,-20.996,-161.133,0.000
1673144590.665,-164.551,-933.594,-19.043,-133.301,0.000
1673144590.669,102.051,14.648,-11.230,88.379,0.000
1673144590.672,126.465,365.723,-14.648,136.719,0.000
1673144590.676,-32.227,-141.602,-18.555,-0.488,0.000
1673144590.680,-137.207,-792.969,-11.719,-99.609,0.000
1673144590.684,-5.371,-564.941,-0.977,16.602,0.000
1673144590.688,121.582,77.148,1.465,133.789,0.000
1673144590.692,7.812,-479.004,-2.441,51.270,0.000
1673144590.696,-138.184,-713.379,-6.348,-87.402,0.000
1673144590.700,-45.898,-242.188,-6.348,-25.879,0.000
1673144590.704,93.750,46.387,-3.906,113.281,0.000
1673144590.708,51.758,5.371,-8.301,90.332,0.000
1673144590.711,-159.668,-450.684,-9.277,-91.309,0.000
1673144590.715,-118.164,-581.543,-2.441,-72.754,0.000
1673144590.719,210.449,243.652,-2.441,187.012,0.000
1673144590.723,122.559,564.453,-14.648,135.742,0.000
1673144590.727,-232.910,-504.395,-25.391,-149.414,0.000
1673144590.731,-187.988,-1000.000,-21.484,-148.438,0.000
1673144590.735,172.852,-666.016,-14.160,135.254,0.000
1673144590.739,211.426,-6.836,-10.742,195.801,0.000
1673144590.743,-131.348,-17.578,-13.672,-73.242,0.000
1673144590.747,-240.234,-962.891,-16.602,-188.477,0.000
1673144590.751,85.938,-474.121,-14.648,53.711,0.000
1673144590.754,248.535,537.598,-13.672,206.543,0.000
1673144590.758,-48.828,173.828,-23.438,-3.906,0.000
1673144590.762,-275.391,-867.188,-25.391,-198.242,0.000
1673144590.766,-23.926,-731.934,-16.113,-25.879,0.000
1673144590.770,248.047,606.934,-18.066,203.125,0.000
1673144590.774,43.945,400.879,-26.367,77.637,0.000
1673144590.778,-270.996,-844.727,-29.785,-179.688,0.000
1673144590.782,-136.719,-1000.000,-20.996,-108.398,0.000
1673144590.786,200.195,175.781,-16.602,152.344,0.000
1673144590.790,132.812,958.984,-27.344,130.859,0.000
1673144590.793,-222.656,-219.238,-36.133,-139.648,0.000
1673144590.797,-218.262,-1000.000,-29.785,-169.434,0.000
1673144590.801,127.930,-42.969,-20.020,106.445,0.000
1673144590.805,195.801,935.059,-21.973,193.359,0.000
1673144590.809,-131.836,-58.105,-30.273,-64.941,0.000
1673144590.813,-268.555,-1000.000,-24.414,-199.707,0.000
1673144590.817,38.086,-437.988,-14.648,30.762,0.000
1673144590.821,237.305,499.512,-17.578,205.566,0.000
1673144590.825,-30.762,-132.324,-26.855,17.578,0.000
1673144590.829,-278.320,-1000.000,-26.855,-197.266,0.000
1673144590.833,-44.922,-566.895,-18.555,-48.828,0.000
1673144590.836,247.559,541.992,-17.578,197.266,0.000
1673144590.840,76.660,537.598,-22.949,94.238,0.000
1673144590.844,-248.047,-532.227,-22.949,-167.969,0.000
1673144590.848,-141.113,-996.582,-19.531,-116.211,0.000
1673144590.852,203.125,-153.809,-15.625,154.297,0.000
1673144590.856,167.480,485.352,-17.090,156.250,0.000
1673144590.860,-183.594,-221.191,-20.996,-112.305,0.000
1673144590.864,-226.562,-928.223,-21.484,-175.781,0.000
1673144590.868,110.840,-432.129,-19.531,79.590,0.000
1673144590.872,215.820,-8.789,-21.484,194.824,0.000
1673144590.875,-110.840,-422.852,-27.832,-50.293,0.000
1673144590.879,-280.273,-934.570,-25.391,-208.008,0.000
1673144590.883,15.625,-639.648,-15.137,9.766,0.000
1673144590.887,231.934,419.922,-13.184,197.754,0.000
1673144590.891,-20.508,573.730,-23.438,18.555,0.000
1673144590.895,-287.598,-601.562,-25.879,-209.473,0.000
1673144590.899,-82.520,-923.828,-17.090,-75.684,0.000
1673144590.903,230.957,243.652,-15.625,175.781,0.000
1673144590.907,95.703,818.848,-22.949,98.633,0.000
1673144590.911,-242.676,-351.562,-25.879,-166.992,0.000
1673144590.914,-179.199,-1000.000,-25.391,-149.902,0.000
1673144590.918,175.781,-243.164,-23.438,125.488,0.000
1673144590.922,195.312,767.578,-23.438,170.898,0.000
1673144590.926,-156.250,-20.996,-23.926,-96.191,0.000
1673144590.930,-231.934,-1000.000,-18.555,-184.082,0.000
1673144590.934,32.227,-691.406,-7.812,30.273,0.000
1673144590.938,131.836,209.961,-9.766,136.719,0.000
1673144590.942,10.254,79.590,-17.578,33.203,0.000
1673144590.946,-128.418,-703.125,-18.555,-97.656,0.000
1673144590.950,-52.734,-558.594,-16.602,-40.527,0.000
1673144590.954,98.145,224.609,-14.648,101.562,0.000
1673144590.957,43.945,303.711,-18.555,71.289,0.000
1673144590.961,-125.488,-674.316,-25.391,-72.266,0.000
1673144590.965,-104.980,-952.148,-25.391,-77.148,0.000
1673144590.969,66.406,-27.344,-22.461,63.477,0.000
1673144590.973,93.262,255.859,-22.949,103.027,0.000
1673144590.977,-65.430,-626.953,-23.438,-41.016,0.000
1673144590.981,-127.930,-721.680,-18.555,-119.141,0.000
1673144590.985,19.043,-115.234,-14.160,12.207,0.000
1673144590.989,109.375,68.359,-17.578,109.375,0.000
1673144590.993,-23.438,-154.785,-22.461,-1.465,0.000
1673144590.996,-147.461,-436.523,-21.973,-116.699,0.000
1673144591.000,-30.762,-310.059,-15.137,-17.090,0.000
1673144591.004,102.051,4.883,-9.277,108.887,0.000
1673144591.008,5.371,-223.633,-13.672,29.785,0.000
1673144591.012,-137.695,-676.270,-20.508,-106.445,0.000
1673144591.016,-70.801,-445.801,-26.367,-67.871,0.000
1673144591.020,86.914,-500.977,-24.414,78.125,0.000
1673144591.024,62.988,-509.766,-16.602,72.266,0.000
1673144591.028,-98.145,-104.004,-21.484,-77.637,0.000
1673144591.032,-109.375,-437.500,-21.973,-95.215,0.000
1673144591.036,49.805,-413.086,-17.578,57.129,0.000
1673144591.039,99.121,182.129,-17.578,110.352,0.000
1673144591.043,-52.734,-55.664,-22.949,-34.180,0.000
1673144591.047,-123.047,-878.906,-23.438,-125.000,0.000
1673144591.051,16.602,-611.816,-14.160,-0.977,0.000
1673144591.055,127.930,2.930,-15.625,113.281,0.000
1673144591.059,-21.973,-106.445,-22.461,-5.859,0.000
1673144591.063,-227.051,-833.984,-22.949,-170.410,0.000
1673144591.067,9.277,-887.695,-11.719,16.113,0.000
1673144591.071,232.422,460.449,-7.812,205.566,0.000
1673144591.075,-36.133,616.699,-20.508,6.348,0.000
1673144591.078,-284.180,-731.934,-18.555,-208.984,0.000
1673144591.082,-59.082,-742.676,-13.184,-57.617,0.000
1673144591.086,237.305,576.660,-11.719,185.059,0.000
1673144591.090,78.613,742.676,-13.184,92.773,0.000
1673144591.094,-244.141,-529.297,-20.508,-173.340,0.000
1673144591.098,-149.414,-979.980,-15.625,-137.207,0.000
1673144591.102,196.289,-86.426,-9.277,147.949,0.000
1673144591.106,166.016,367.188,-13.672,161.133,0.000
1673144591.110,-186.035,-510.742,-19.043,-118.164,0.000
1673144591.114,-234.863,-1000.000,-15.625,-190.918,0.000
1673144591.118,106.445,-92.285,-9.766,67.383,0.000
1673144591.121,229.980,869.141,-12.695,189.453,0.000
1673144591.125,-86.426,47.852,-19.531,-41.016,0.000
1673144591.129,-267.090,-1000.000,-20.996,-203.125,0.000
1673144591.133,22.949,-596.191,-15.625,7.324,0.000
1673144591.137,252.441,554.688,-10.254,211.914,0.000
1673144591.141,8.789,297.852,-16.113,45.410,0.000
1673144591.145,-272.949,-766.602,-23.926,-185.547,0.000
1673144591.149,-83.008,-897.461,-16.602,-62.500,0.000
1673144591.153,240.234,-36.133,-11.719,196.777,0.000
1673144591.157,116.699,-153.809,-18.066,134.766,0.000
1673144591.160,-225.586,-880.859,-21.484,-141.113,0.000
1673144591.164,-160.156,-820.312,-21.484,-126.953,0.000
1673144591.168,189.941,-37.598,-16.602,153.809,0.000
1673144591.172,195.801,597.656,-15.625,194.336,0.000
1673144591.176,-146.484,-34.180,-22.461,-72.754,0.000
1673144591.180,-226.074,-923.828,-21.484,-166.992,0.000
1673144591.184,107.910,-488.770,-13.672,76.660,0.000
1673144591.188,243.164,608.887,-16.602,209.473,0.000
1673144591.192,-66.406,264.648,-23.926,-11.719,0.000
1673144591.196,-270.020,-860.840,-24.414,-196.777,0.000
1673144591.200,-0.488,-1000.000,-19.531,-7.324,0.000
1673144591.203,257.812,-209.473,-17.578,207.031,0.000
1673144591.207,37.109,554.688,-21.973,54.688,0.000
1673144591.211,-270.508,-607.910,-29.785,-200.195,0.000
1673144591.215,-108.887,-952.637,-21.484,-100.098,0.000
1673144591.219,229.492,380.859,-9.766,174.316,0.000
1673144591.223,130.371,700.195,-14.648,121.582,0.000
1673144591.227,-219.238,-563.965,-20.996,-158.691,0.000
1673144591.231,-192.383,-988.281,-17.090,-166.016,0.000
1673144591.235,156.738,112.793,-12.695,104.980,0.000
1673144591.239,210.449,949.707,-15.137,176.758,0.000
1673144591.242,-125.488,-123.047,-19.531,-75.684,0.000
1673144591.246,-247.559,-1000.000,-18.555,-200.684,0.000
1673144591.250,75.195,-296.387,-5.371,40.527,0.000
1673144591.254,252.930,915.527,-6.348,204.102,0.000
1673144591.258,-41.504,283.203,-19.531,-2.441,0.000
1673144591.262,-270.996,-1000.000,-23.438,-200.195,0.000
1673144591.266,-22.461,-657.227,-18.066,-25.879,0.000
1673144591.270,259.277,375.000,-16.113,215.820,0.000
1673144591.274,67.871,266.113,-20.996,100.098,0.000
1673144591.278,-246.582,-761.719,-23.926,-156.250,0.000
1673144591.282,-123.535,-852.539,-20.020,-96.191,0.000
1673144591.285,208.008,311.035,-15.625,165.039,0.000
1673144591.289,150.879,330.566,-16.602,156.250,0.000
1673144591.293,-203.613,-828.613,-17.090,-114.258,0.000
1673144591.297,-220.215,-949.707,-8.301,-160.156,0.000
1673144591.301,131.836,-60.059,0.488,110.840,0.000
1673144591.305,217.285,471.191,-3.906,206.543,0.000
1673144591.309,-113.770,-105.469,-18.555,-46.387,0.000
1673144591.313,-262.207,-876.465,-26.367,-192.383,0.000
1673144591.317,37.598,-670.898,-20.020,29.297,0.000
1673144591.321,246.094,259.766,-13.184,213.867,0.000
1673144591.324,-15.625,39.062,-18.066,23.438,0.000
1673144591.328,-274.414,-889.648,-20.020,-194.336,0.000
1673144591.332,-53.711,-849.609,-13.184,-46.875,0.000
1673144591.336,244.141,-95.215,-8.789,199.707,0.000
1673144591.340,88.867,208.008,-12.695,104.492,0.000
1673144591.344,-234.375,-506.836,-18.555,-162.109,0.000
1673144591.348,-145.996,-1000.000,-19.043,-124.023,0.000
1673144591.352,193.848,-344.727,-11.230,149.414,0.000
1673144591.356,171.875,671.387,-10.742,170.898,0.000
1673144591.360,-182.617,-270.020,-15.625,-103.027,0.000
1673144591.364,-238.281,-1000.000,-16.113,-178.711,0.000
1673144591.367,108.887,-400.391,-8.789,83.008,0.000
1673144591.371,229.004,910.645,-5.859,200.195,0.000
1673144591.375,-91.797,358.887,-17.090,-32.715,0.000
1673144591.379,-275.879,-916.504,-18.066,-199.707,0.000
1673144591.383,13.672,-737.305,-8.301,9.277,0.000
1673144591.387,251.953,408.691,-6.348,210.449,0.000
1673144591.391,8.301,500.977,-15.137,43.945,0.000
1673144591.395,-275.879,-711.914,-23.438,-183.594,0.000
1673144591.399,-90.332,-749.512,-19.043,-68.359,0.000
1673144591.403,222.656,590.820,-14.160,183.105,0.000
1673144591.406,100.098,810.059,-21.973,120.605,0.000
1673144591.410,-228.516,-531.250,-25.879,-141.113,0.000
1673144591.414,-174.805,-1000.000,-19.531,-133.789,0.000
1673144591.418,173.828,224.609,-10.254,142.090,0.000
1673144591.422,192.383,866.211,-13.184,187.012,0.000
1673144591.426,-156.738,-239.258,-21.973,-83.008,0.000
1673144591.430,-250.488,-1000.000,-20.508,-181.641,0.000
1673144591.434,76.172,-423.828,-13.184,57.129,0.000
1673144591.438,230.957,485.840,-11.719,197.266,0.000
1673144591.442,-69.336,-87.402,-14.648,-17.578,0.000
1673144591.446,-274.414,-917.969,-12.695,-198.730,0.000
1673144591.449,-7.324,-402.832,-7.812,-9.766,0.000
1673144591.453,250.488,393.555,-8.789,209.473,0.000
1673144591.457,30.273,-45.898,-16.113,69.336,0.000
1673144591.461,-266.602,-700.195,-17.090,-178.223,0.000
1673144591.465,-105.469,-692.871,-10.742,-89.355,0.000
1673144591.469,221.680,168.945,-11.230,176.758,0.000
1673144591.473,131.836,531.738,-18.555,139.160,0.000
1673144591.477,-222.168,-420.898,-27.344,-144.043,0.000
1673144591.481,-207.031,-1000.000,-20.996,-166.504,0.000
1673144591.485,149.414,-370.117,-6.836,112.793,0.000
1673144591.488,202.637,604.980,-8.789,187.988,0.000
1673144591.492,-140.625,-51.270,-24.414,-71.289,0.000
1673144591.496,-259.766,-1000.000,-23.926,-197.266,0.000
1673144591.500,51.270,-827.637,-16.602,41.992,0.000
1673144591.504,230.469,-2.930,-14.648,207.031,0.000
1673144591.508,-40.039,183.105,-18.555,-1.465,0.000
1673144591.512,-278.809,-827.148,-23.438,-203.613,0.000
1673144591.516,-43.457,-720.215,-21.973,-43.945,0.000
1673144591.520,238.281,623.047,-19.043,187.988,0.000
1673144591.524,52.734,444.824,-22.461,76.660,0.000
1673144591.528,-269.531,-838.867,-21.484,-183.594,0.000
1673144591.531,-142.090,-879.395,-18.555,-125.977,0.000
1673144591.535,204.102,310.059,-15.625,141.602,0.000
1673144591.539,152.832,931.152,-17.090,147.461,0.000
1673144591.543,-196.289,-186.523,-26.855,-115.723,0.000
1673144591.547,-211.914,-1000.000,-22.461,-168.945,0.000
1673144591.551,135.742,-200.684,-9.766,86.426,0.000
1673144591.555,222.656,966.309,-16.113,186.523,0.000
1673144591.559,-102.051,28.809,-25.879,-52.246,0.000
1673144591.563,-256.836,-1000.000,-25.879,-203.125,0.000
1673144591.567,43.457,-431.641,-22.461,17.578,0.000
1673144591.570,251.465,494.141,-22.949,203.125,0.000
1673144591.574,-19.043,-123.535,-29.297,15.137,0.000
1673144591.578,-283.203,-1000.000,-34.180,-209.473,0.000
1673144591.582,-61.035,-695.312,-24.902,-71.777,0.000
1673144591.586,241.699,573.242,-16.602,177.246,0.000
1673144591.590,85.449,215.820,-22.949,99.609,0.000
1673144591.594,-237.793,-993.164,-21.484,-156.738,0.000
1673144591.598,-144.043,-987.305,-21.973,-126.465,0.000
1673144591.602,195.312,-224.121,-21.973,142.090,0.000
1673144591.606,175.781,501.953,-20.020,159.668,0.000
1673144591.610,-178.711,-113.281,-26.855,-113.770,0.000
1673144591.613,-237.793,-821.289,-25.391,-184.570,0.000
1673144591.617,105.957,-445.312,-21.973,76.660,0.000
1673144591.621,225.098,291.504,-26.855,196.777,0.000
1673144591.625,-86.426,176.270,-30.762,-32.715,0.000
1673144591.629,-265.625,-686.035,-25.879,-194.336,0.000
1673144591.633,12.695,-649.902,-19.531,9.766,0.000
1673144591.637,250.488,94.727,-19.043,214.844,0.000
1673144591.641,18.555,387.207,-18.555,55.176,0.000
1673144591.645,-252.441,-501.953,-18.555,-172.852,0.000
1673144591.649,-77.637,-948.242,-20.508,-63.965,0.000
1673144591.652,220.703,229.980,-18.066,170.410,0.000
1673144591.656,109.375,809.570,-24.414,108.887,0.000
1673144591.660,-231.934,-435.547,-31.738,-153.809,0.000
1673144591.664,-195.801,-1000.000,-24.414,-152.344,0.000
1673144591.668,153.320,-174.805,-18.066,111.328,0.000
1673144591.672,187.012,895.996,-21.484,154.297,0.000
1673144591.676,-157.715,54.199,-26.855,-109.375,0.000
1673144591.680,-259.277,-1000.000,-25.391,-205.566,0.000
1673144591.684,67.871,-399.414,-21.973,41.992,0.000
1673144591.688,228.516,870.605,-22.949,181.641,0.000
1673144591.692,-63.965,157.715,-31.738,-25.391,0.000
1673144591.695,-272.949,-1000.000,-35.645,-204.590,0.000
1673144591.699,-9.766,-581.543,-24.902,-23.926,0.000
1673144591.703,250.000,715.332,-17.578,196.289,0.000
1673144591.707,40.527,497.070,-22.949,67.871,0.000
1673144591.711,-261.230,-842.773,-28.320,-177.246,0.000
1673144591.715,-112.305,-1000.000,-25.391,-97.656,0.000
1673144591.719,228.027,153.809,-21.973,169.434,0.000
1673144591.723,150.879,620.605,-28.320,140.625,0.000
1673144591.727,-200.195,-687.988,-32.715,-125.977,0.000
1673144591.731,-191.406,-1000.000,-28.320,-149.902,0.000
1673144591.734,152.832,46.387,-24.414,115.234,0.000
1673144591.738,211.914,774.414,-23.926,201.660,0.000
1673144591.742,-123.535,-79.102,-31.250,-57.129,0.000
1673144591.746,-250.488,-910.645,-29.785,-189.941,0.000
1673144591.750,69.824,-340.332,-22.461,53.223,0.000
1673144591.754,257.324,518.555,-20.508,218.262,0.000
1673144591.758,-15.625,-109.375,-28.809,21.484,0.000
1673144591.762,-247.070,-1000.000,-33.691,-180.664,0.000
1673144591.766,-27.344,-550.293,-25.391,-42.480,0.000
1673144591.770,247.070,-124.512,-22.949,182.617,0.000
1673144591.774,76.172,-313.965,-25.879,76.660,0.000
1673144591.777,-258.789,-570.312,-30.762,-201.660,0.000
1673144591.781,-155.273,-967.285,-31.250,-159.180,0.000
1673144591.785,186.523,-235.840,-22.461,114.258,0.000
1673144591.789,132.812,594.727,-24.414,114.258,0.000
1673144591.793,-228.027,-32.715,-31.738,-165.039,0.000
1673144591.797,-263.184,-1000.000,-29.297,-226.562,0.000
1673144591.801,78.125,-370.117,-23.926,41.016,0.000
1673144591.805,174.805,470.703,-24.902,152.344,0.000
1673144591.809,-149.414,-125.977,-32.715,-89.844,0.000
1673144591.813,-311.523,-964.355,-32.227,-244.629,0.000
1673144591.816,-15.137,-863.281,-27.832,-20.508,0.000
1673144591.820,198.242,481.934,-26.367,166.504,0.000
1673144591.824,-60.547,604.004,-29.297,-13.184,0.000
1673144591.828,-319.824,-799.805,-30.762,-230.957,0.000
1673144591.832,-104.980,-741.211,-26.367,-89.355,0.000
1673144591.836,210.449,601.562,-22.461,166.504,0.000
1673144591.840,71.777,857.422,-28.320,85.938,0.000
1673144591.844,-258.789,-437.012,-37.598,-182.129,0.000
1673144591.848,-180.176,-957.031,-33.691,-155.273,0.000
1673144591.852,172.852,-25.879,-24.414,119.629,0.000
1673144591.856,174.805,497.559,-25.879,156.250,0.000
1673144591.859,-180.176,-392.578,-34.180,-111.816,0.000
1673144591.863,-246.582,-1000.000,-28.320,-194.824,0.000
1673144591.867,87.891,-86.426,-16.113,54.199,0.000
1673144591.871,215.820,906.250,-21.484,175.293,0.000
1673144591.875,-91.797,162.598,-26.855,-47.852,0.000
1673144591.879,-284.668,-984.375,-25.879,-214.355,0.000
1673144591.883,-0.977,-723.145,-19.043,-10.742,0.000
1673144591.887,240.723,372.559,-17.090,193.848,0.000
1673144591.891,10.742,378.906,-25.391,30.762,0.000
1673144591.895,-272.461,-640.137,-29.297,-207.520,0.000
1673144591.898,-103.027,-932.617,-23.438,-97.656,0.000
1673144591.902,223.145,31.250,-20.020,168.457,0.000
1673144591.906,125.488,78.125,-23.438,118.164,0.000
1673144591.910,-222.656,-714.355,-28.809,-157.227,0.000
1673144591.914,-188.477,-693.359,-24.902,-157.227,0.000
1673144591.918,169.922,9.277,-18.555,120.605,0.000
1673144591.922,208.984,675.293,-20.020,180.176,0.000
1673144591.926,-136.230,147.461,-23.438,-78.125,0.000
1673144591.930,-235.352,-807.129,-22.461,-175.781,0.000
1673144591.934,92.773,-453.125,-16.113,74.219,0.000
1673144591.938,253.418,553.711,-15.625,223.633,0.000
1673144591.941,-45.410,140.137,-20.508,6.836,0.000
1673144591.945,-267.090,-899.902,-26.855,-194.336,0.000
1673144591.949,-14.160,-1000.000,-22.949,-20.996,0.000
1673144591.953,248.047,-229.004,-15.625,205.566,0.000
1673144591.957,45.410,616.211,-20.020,64.941,0.000
1673144591.961,-258.301,-447.754,-23.438,-179.199,0.000
1673144591.965,-121.094,-900.879,-19.043,-101.562,0.000
1673144591.969,116.211,62.500,-15.625,90.332,0.000
1673144591.973,129.395,420.410,-16.113,124.512,0.000
1673144591.977,-100.098,-378.906,-20.996,-65.430,0.000
1673144591.980,-192.871,-903.809,-21.484,-168.457,0.000
1673144591.984,148.926,151.855,-19.531,90.820,0.000
1673144591.988,226.074,-998.047,-24.414,179.688,0.000
1673144591.992,-119.629,-84.473,-31.250,-76.172,0.000
1673144591.996,-257.324,-1000.000,-36.133,-204.102,0.000
1673144592.000,46.875,-463.867,-27.832,24.902,0.000
1673144592.004,229.492,877.441,-21.484,196.289,0.000
1673144592.008,-41.504,483.887,-35.156,6.348,0.000
1673144592.012,-278.809,-929.199,-39.062,-205.078,0.000
1673144592.016,-46.387,-542.480,-25.879,-49.805,0.000
1673144592.020,242.188,752.930,-19.043,191.895,0.000
1673144592.023,68.359,621.582,-25.879,81.055,0.000
1673144592.027,-255.859,-600.586,-33.691,-184.570,0.000
1673144592.031,-144.531,-785.645,-27.344,-130.859,0.000
1673144592.035,196.289,455.078,-20.996,147.461,0.000
1673144592.039,157.715,402.832,-27.344,161.621,0.000
1673144592.043,-181.641,-887.695,-38.086,-106.445,0.000
1673144592.047,-213.379,-911.133,-36.133,-174.805,0.000
1673144592.051,119.141,-90.332,-27.832,79.102,0.000
1673144592.055,216.309,608.887,-32.715,189.453,0.000
1673144592.059,-101.562,182.129,-37.598,-48.340,0.000
1673144592.062,-265.137,-668.945,-34.180,-210.449,0.000
1673144592.066,35.156,-514.160,-23.438,0.488,0.000
1673144592.070,260.254,471.680,-17.578,196.289,0.000
1673144592.074,0.977,589.355,-23.926,22.461,0.000
1673144592.078,-267.090,-493.652,-29.785,-201.172,0.000
1673144592.082,-69.336,-715.820,-28.320,-76.660,0.000
1673144592.086,235.840,55.176,-25.391,170.410,0.000
1673144592.090,105.469,405.762,-27.832,96.191,0.000
1673144592.094,-231.934,-277.344,-35.156,-172.363,0.000
1673144592.098,-162.109,-975.586,-27.832,-144.043,0.000
1673144592.102,186.523,-373.535,-19.043,128.418,0.000
1673144592.105,184.570,677.246,-25.391,148.438,0.000
1673144592.109,-167.969,-160.156,-38.086,-116.699,0.000
1673144592.113,-242.188,-1000.000,-37.109,-199.707,0.000
1673144592.117,103.027,-254.883,-27.832,55.664,0.000
1673144592.121,235.840,932.129,-25.879,191.895,0.000
1673144592.125,-82.031,416.504,-34.668,-37.109,0.000
1673144592.129,-272.949,-821.777,-40.039,-218.262,0.000
1673144592.133,1.465,-833.496,-30.762,-25.391,0.000
1673144592.137,239.746,456.055,-28.809,192.871,0.000
1673144592.141,8.301,675.781,-37.109,41.992,0.000
1673144592.144,-283.203,-699.707,-38.086,-191.406,0.000
1673144592.148,-108.398,-818.359,-26.367,-84.961,0.000
1673144592.152,220.215,548.340,-22.461,166.992,0.000
1673144592.156,120.117,886.719,-29.785,108.398,0.000
1673144592.160,-228.027,-408.203,-32.715,-169.434,0.000
1673144592.164,-198.242,-1000.000,-29.297,-167.969,0.000
1673144592.168,155.273,44.922,-24.414,109.375,0.000
1673144592.172,194.824,964.844,-25.879,164.551,0.000
1673144592.176,-144.531,-75.195,-33.203,-95.703,0.000
1673144592.180,-249.512,-1000.000,-35.645,-202.637,0.000
1673144592.184,83.984,-314.941,-25.391,38.086,0.000
1673144592.187,249.023,821.777,-22.461,190.918,0.000
1673144592.191,-52.734,-155.762,-31.250,-10.742,0.000
1673144592.195,-283.691,-1000.000,-32.715,-208.984,0.000
1673144592.199,-29.785,-427.246,-26.855,-46.875,0.000
1673144592.203,230.957,420.410,-25.391,172.363,0.000
1673144592.207,46.387,453.125,-32.715,54.688,0.000
1673144592.211,-166.992,-0.488,-32.715,-132.812,0.000
1673144592.215,-125.977,-306.641,-26.367,-109.375,0.000
1673144592.219,33.203,-281.738,-20.508,37.109,0.000
1673144592.223,89.844,104.004,-15.137,90.820,0.000
1673144592.226,-63.965,-148.926,-11.719,-52.734,0.000
1673144592.230,-152.832,-645.996,-15.625,-142.090,0.000
1673144592.234,-6.836,-848.633,-18.555,-13.672,0.000
1673144592.238,113.281,-442.383,-12.695,91.309,0.000
1673144592.242,-42.480,282.715,-14.160,-43.457,0.000
1673144592.246,-232.910,-527.344,-20.996,-208.984,0.000
1673144592.250,20.996,-476.562,-16.602,-27.344,0.000
1673144592.254,238.770,547.852,-12.695,149.902,0.000
1673144592.258,-41.992,368.164,-18.066,-60.059,0.000
1673144592.262,-290.527,-710.938,-22.949,-279.785,0.000
1673144592.265,-63.965,-736.328,-17.090,-133.789,0.000
1673144592.269,227.051,623.535,-11.230,105.957,0.000
1673144592.273,83.008,650.391,-15.137,20.508,0.000
1673144592.277,-292.969,-668.457,-20.996,-274.902,0.000
1673144592.281,-195.312,-977.051,-17.578,-230.469,0.000
1673144592.285,314.941,365.723,-8.789,150.391,0.000
1673144592.289,216.309,-956.543,-13.184,117.676,0.000
1673144592.293,-337.891,-276.367,-23.926,-290.039,0.000
1673144592.297,-320.312,-1000.000,-19.531,-316.895,0.000
1673144592.301,238.770,137.695,-4.883,85.449,0.000
1673144592.305,342.773,-841.309,-8.301,187.012,0.000
1673144592.308,-185.059,44.922,-23.926,-184.082,0.000
1673144592.312,-399.414,-1000.000,-25.879,-370.605,0.000
1673144592.316,83.984,-299.805,-12.207,-36.621,0.000
1673144592.320,389.160,-964.355,-15.137,221.191,0.000
1673144592.324,-43.457,144.531,-35.156,-65.918,0.000
1673144592.328,-426.758,-1000.000,-34.180,-376.953,0.000
1673144592.332,-84.961,-761.230,-18.555,-152.832,0.000
1673144592.336,290.527,500.977,-13.184,140.625,0.000
1673144592.340,109.863,740.723,-24.414,31.250,0.000
1673144592.344,-235.352,-375.977,-31.250,-235.352,0.000
1673144592.347,-179.199,-950.684,-22.949,-222.656,0.000
1673144592.351,166.992,-142.578,-17.578,54.688,0.000
1673144592.355,183.105,651.367,-16.113,106.934,0.000
1673144592.359,-170.410,22.949,-25.879,-172.363,0.000
1673144592.363,-244.141,-792.969,-27.832,-255.371,0.000
1673144592.367,102.051,-362.305,-20.996,8.301,0.000
1673144592.371,229.492,90.820,-21.973,126.953,0.000
1673144592.375,-77.148,-104.980,-21.973,-84.961,0.000
1673144592.379,-277.344,-627.930,-26.367,-261.230,0.000
1673144592.383,1.465,-556.641,-20.020,-68.848,0.000
1673144592.387,261.230,344.238,-13.184,152.344,0.000
1673144592.390,48.828,507.812,-17.578,13.672,0.000
1673144592.394,-243.164,-418.457,-20.508,-229.980,0.000
1673144592.398,-89.355,-824.707,-17.578,-138.184,0.000
1673144592.402,231.445,259.277,-17.578,127.930,0.000
1673144592.406,140.137,950.195,-22.461,83.984,0.000
1673144592.410,-206.543,-103.516,-29.785,-197.266,0.000
1673144592.414,-181.152,-1000.000,-27.344,-208.496,0.000
1673144592.418,167.480,-457.520,-19.531,60.059,0.000
1673144592.422,207.520,850.586,-27.832,121.582,0.000
1673144592.426,-140.137,283.691,-32.715,-146.973,0.000
1673144592.429,-250.488,-929.199,-23.926,-267.578,0.000
1673144592.433,79.102,-208.984,-18.066,-21.484,0.000
1673144592.437,249.512,-989.746,-17.578,143.555,0.000
1673144592.441,-46.875,274.414,-28.320,-61.035,0.000
1673144592.445,-291.016,-967.285,-32.227,-264.160,0.000
1673144592.449,-40.527,-523.438,-20.508,-92.285,0.000
1673144592.453,242.676,796.387,-18.555,142.578,0.000
1673144592.457,52.734,638.184,-21.484,34.668,0.000
1673144592.461,-253.418,-781.250,-23.926,-208.984,0.000
1673144592.465,-132.812,-901.855,-22.949,-157.227,0.000
1673144592.469,199.707,457.520,-17.090,109.375,0.000
1673144592.472,147.461,750.977,-23.438,112.305,0.000
1673144592.476,-209.961,-617.676,-29.785,-161.133,0.000
1673144592.480,-223.633,-1000.000,-20.508,-204.590,0.000
1673144592.484,134.277,181.152,-13.672,66.406,0.000
1673144592.488,215.332,702.637,-18.555,168.945,0.000
1673144592.492,-114.746,-323.730,-27.344,-70.801,0.000
1673144592.496,-263.672,-919.434,-30.762,-217.773,0.000
1673144592.500,39.062,-492.188,-24.414,7.324,0.000
1673144592.504,246.582,429.688,-15.137,194.824,0.000
1673144592.508,-14.648,114.746,-21.484,3.906,0.000
1673144592.511,-262.695,-916.016,-26.367,-217.773,0.000
1673144592.515,-47.363,-607.422,-17.578,-71.777,0.000
1673144592.519,240.723,309.570,-15.137,172.363,0.000
1673144592.523,89.844,542.480,-21.484,70.801,0.000
1673144592.527,-241.699,-285.645,-23.926,-194.336,0.000
1673144592.531,-159.668,-761.719,-18.555,-154.297,0.000
1673144592.535,186.523,-356.445,-15.137,127.930,0.000
1673144592.539,155.273,263.672,-17.090,152.344,0.000
1673144592.543,-199.707,0.977,-20.020,-112.793,0.000
1673144592.547,-248.535,-940.430,-19.531,-173.828,0.000
1673144592.551,89.844,-374.512,-14.160,83.496,0.000
1673144592.554,208.496,608.887,-17.578,200.684,0.000
1673144592.558,-108.887,-14.648,-30.273,-38.574,0.000
1673144592.562,-287.109,-1000.000,-32.227,-195.801,0.000
1673144592.566,9.277,-582.520,-20.996,24.414,0.000
1673144592.570,248.535,737.793,-20.508,229.004,0.000
1673144592.574,5.859,674.805,-35.645,56.641,0.000
1673144592.578,-270.996,-627.441,-47.363,-178.223,0.000
1673144592.582,-79.102,-816.406,-37.109,-47.363,0.000
1673144592.586,236.816,526.367,-24.902,216.797,0.000
1673144592.590,110.352,889.648,-26.855,146.973,0.000
1673144592.593,-232.910,-373.047,-29.297,-136.230,0.000
1673144592.597,-176.270,-1000.000,-34.668,-136.719,0.000
1673144592.601,175.293,-104.004,-30.762,135.742,0.000
1673144592.605,197.754,563.477,-27.344,181.641,0.000
1673144592.609,-153.809,-344.727,-36.133,-88.867,0.000
1673144592.613,-246.094,-1000.000,-35.645,-198.730,0.000
1673144592.617,91.309,-42.969,-27.344,51.758,0.000
1673144592.621,240.723,956.055,-28.809,202.148,0.000
1673144592.625,-62.012,-25.391,-36.621,-10.742,0.000
1673144592.629,-278.809,-1000.000,-34.668,-203.125,0.000
1673144592.633,-12.695,-528.809,-21.973,-27.344,0.000
1673144592.636,247.070,706.055,-20.996,195.312,0.000
1673144592.640,18.555,575.684,-34.668,44.434,0.000
1673144592.644,-286.133,-571.777,-39.062,-205.566,0.000
1673144592.648,-123.047,-884.766,-31.738,-111.816,0.000
1673144592.652,202.637,94.238,-33.691,143.066,0.000
1673144592.656,112.305,484.863,-37.598,100.586,0.000
1673144592.660,-235.352,-315.918,-36.621,-165.527,0.000
1673144592.664,-214.844,-734.375,-32.715,-177.246,0.000
1673144592.668,141.113,-205.078,-26.855,98.633,0.000
1673144592.672,187.500,232.422,-31.250,166.016,0.000
1673144592.675,-158.691,-0.488,-41.016,-96.191,0.000
1673144592.679,-276.367,-717.773,-40.527,-212.402,0.000
1673144592.683,49.316,-498.047,-28.320,25.879,0.000
1673144592.687,237.793,631.348,-25.391,196.289,0.000
1673144592.691,-39.551,522.949,-32.715,1.953,0.000
1673144592.695,-277.344,-807.129,-38.086,-203.613,0.000
1673144592.699,-38.574,-988.770,-33.203,-38.086,0.000
1673144592.703,246.094,307.617,-24.902,198.242,0.000
1673144592.707,63.477,856.934,-32.715,81.055,0.000
1673144592.711,-255.371,-322.754,-34.668,-182.617,0.000
1673144592.715,-130.859,-1000.000,-31.250,-112.793,0.000
1673144592.718,180.664,0.488,-31.738,143.066,0.000
1673144592.722,114.746,784.668,-35.645,124.512,0.000
1673144592.726,-208.008,-387.207,-35.645,-131.348,0.000
1673144592.730,-230.957,-1000.000,-35.156,-179.199,0.000
1673144592.734,117.188,116.699,-26.855,87.402,0.000
1673144592.738,208.984,-975.098,-20.508,188.477,0.000
1673144592.742,-121.582,37.109,-28.809,-51.270,0.000
1673144592.746,-281.738,-1000.000,-27.344,-200.684,0.000
1673144592.750,25.879,-334.961,-21.484,21.484,0.000
1673144592.754,234.863,951.660,-18.555,215.820,0.000
1673144592.757,-11.230,437.988,-22.949,47.363,0.000
1673144592.761,-321.289,-1000.000,-26.855,-224.609,0.000
1673144592.765,-83.008,-598.145,-18.555,-86.914,0.000
1673144592.769,366.211,925.781,-13.672,271.484,0.000
1673144592.773,87.402,519.531,-19.531,108.887,0.000
1673144592.777,-422.363,-919.434,-27.832,-286.621,0.000
1673144592.781,-205.078,-934.570,-19.043,-159.180,0.000
1673144592.785,317.871,421.387,-8.789,240.723,0.000
1673144592.789,208.496,612.305,-20.508,204.102,0.000
1673144592.793,-323.730,-704.590,-27.832,-188.477,0.000
1673144592.797,-339.844,-1000.000,-18.066,-238.770,0.000
1673144592.800,208.008,160.156,-10.254,161.621,0.000
1673144592.804,335.449,768.555,-17.578,289.062,0.000
1673144592.808,-176.758,-328.613,-27.832,-83.496,0.000
1673144592.812,-407.227,-1000.000,-27.832,-283.691,0.000
1673144592.816,62.988,-526.367,-17.090,48.340,0.000
1673144592.820,386.230,821.777,-15.625,305.664,0.000
1673144592.824,-28.809,620.117,-26.855,20.996,0.000
1673144592.828,-433.105,-775.391,-28.320,-303.223,0.000
1673144592.832,-83.008,-852.051,-16.113,-78.613,0.000
1673144592.836,398.926,469.727,-14.648,297.852,0.000
1673144592.839,149.414,678.223,-26.367,151.367,0.000
1673144592.843,-379.883,-611.328,-28.320,-252.930,0.000
1673144592.847,-234.375,-1000.000,-19.043,-170.410,0.000
1673144592.851,316.895,-149.414,-10.254,255.859,0.000
1673144592.855,281.250,-991.699,-11.230,251.953,0.000
1673144592.859,-280.762,14.160,-30.273,-166.992,0.000
1673144592.863,-345.703,-1000.000,-34.180,-243.652,0.000
1673144592.867,122.559,-210.938,-22.461,98.633,0.000
1673144592.871,254.883,995.117,-20.020,231.445,0.000
1673144592.875,-55.176,545.898,-27.344,0.000,0.000
1673144592.879,-262.695,-744.629,-30.273,-188.965,0.000
1673144592.882,-14.160,-804.688,-22.461,-4.883,0.000
1673144592.886,242.188,503.906,-21.484,220.215,0.000
1673144592.890,36.621,606.934,-24.902,84.961,0.000
1673144592.894,-265.625,-740.723,-30.762,-158.203,0.000
1673144592.898,-118.164,-815.430,-21.484,-81.055,0.000
1673144592.902,206.055,544.434,-9.766,171.875,0.000
1673144592.906,112.305,894.043,-18.066,139.648,0.000
1673144592.910,-234.863,-420.410,-25.391,-132.812,0.000
1673144592.914,-216.797,-974.121,-23.438,-146.484,0.000
1673144592.918,139.160,212.402,-18.555,125.488,0.000
1673144592.921,211.914,945.801,-19.043,204.102,0.000
1673144592.925,-125.000,-37.598,-28.809,-43.457,0.000
1673144592.929,-248.535,-1000.000,-28.320,-164.062,0.000
1673144592.933,73.730,-447.266,-19.043,69.336,0.000
1673144592.937,258.301,778.809,-20.996,234.375,0.000
1673144592.941,-22.461,-83.984,-25.879,41.992,0.000
1673144592.945,-260.254,-1000.000,-23.438,-162.109,0.000
1673144592.949,-21.973,-630.859,-20.508,-10.254,0.000
1673144592.953,259.277,468.750,-19.043,230.469,0.000
1673144592.957,76.660,629.395,-22.949,123.047,0.000
1673144592.961,-246.582,-392.578,-26.855,-141.113,0.000
1673144592.964,-126.465,-772.949,-18.555,-85.938,0.000
1673144592.968,217.773,191.406,-14.160,186.523,0.000
1673144592.972,166.504,802.246,-23.926,181.641,0.000
1673144592.976,-192.383,-224.121,-34.668,-95.215,0.000
1673144592.980,-226.562,-1000.000,-34.180,-155.273,0.000
1673144592.984,117.188,-671.387,-28.320,109.863,0.000
1673144592.988,217.773,135.742,-21.484,222.656,0.000
1673144592.992,-103.027,278.809,-25.391,-28.320,0.000
1673144592.996,-264.648,-710.449,-27.344,-179.199,0.000
1673144593.000,35.645,-494.141,-22.461,43.457,0.000
1673144593.003,255.371,611.328,-17.578,231.934,0.000
1673144593.007,-0.977,339.844,-21.484,55.664,0.000
1673144593.011,-273.926,-877.441,-24.414,-173.340,0.000
1673144593.015,-67.383,-749.512,-15.625,-44.922,0.000
1673144593.019,235.840,574.219,-12.695,205.566,0.000
1673144593.023,84.961,662.598,-21.484,124.023,0.000
1673144593.027,-251.953,-587.891,-27.344,-140.625,0.000
1673144593.031,-169.434,-1000.000,-19.043,-109.375,0.000
1673144593.035,187.988,145.508,-13.184,157.715,0.000
1673144593.039,176.270,-907.227,-19.043,176.270,0.000
1673144593.043,-184.082,13.184,-27.344,-93.262,0.000
1673144593.046,-247.070,-994.141,-25.391,-170.410,0.000
1673144593.050,96.191,-0.977,-13.672,84.473,0.000
1673144593.054,226.074,-932.129,-19.043,214.844,0.000
1673144593.058,-82.031,116.699,-30.273,-10.254,0.000
1673144593.062,-268.555,-1000.000,-22.949,-183.594,0.000
1673144593.066,12.207,-407.715,-16.602,12.695,0.000
1673144593.070,253.418,601.562,-14.160,220.703,0.000
1673144593.074,18.555,24.414,-23.438,68.359,0.000
1673144593.078,-272.949,-1000.000,-31.738,-172.363,0.000
1673144593.082,-98.145,-603.516,-26.855,-67.383,0.000
1673144593.085,228.027,611.328,-21.973,194.824,0.000
1673144593.089,115.723,797.852,-25.879,140.625,0.000
1673144593.093,-231.934,-302.246,-29.297,-132.324,0.000
1673144593.097,-194.824,-983.398,-28.809,-138.672,0.000
1673144593.101,150.879,-131.348,-29.297,122.070,0.000
1673144593.105,182.129,762.695,-29.297,175.293,0.000
1673144593.109,-164.062,166.504,-36.133,-83.496,0.000
1673144593.113,-259.277,-784.668,-36.133,-186.523,0.000
1673144593.117,73.242,-438.965,-26.855,52.246,0.000
1673144593.121,240.234,403.320,-23.438,202.637,0.000
1673144593.125,-49.316,286.133,-31.250,-11.230,0.000
1673144593.128,-270.508,-535.156,-33.691,-208.008,0.000
1673144593.132,-14.648,-610.352,-28.320,-30.762,0.000
1673144593.136,249.023,222.168,-25.391,196.289,0.000
1673144593.140,32.715,627.930,-26.367,64.453,0.000
1673144593.144,-271.484,-257.324,-27.832,-187.012,0.000
1673144593.148,-121.094,-856.934,-26.367,-100.098,0.000
1673144593.152,215.820,183.105,-20.996,167.969,0.000
1673144593.156,145.508,989.258,-19.043,148.926,0.000
1673144593.160,-203.613,8.301,-21.973,-117.188,0.000
1673144593.164,-206.055,-1000.000,-26.367,-154.785,0.000
1673144593.167,143.066,-406.738,-20.508,110.352,0.000
1673144593.171,208.008,749.023,-20.508,187.988,0.000
1673144593.175,-129.395,105.957,-29.785,-71.289,0.000
1673144593.179,-260.254,-910.156,-27.344,-202.148,0.000
1673144593.183,50.781,-252.930,-20.996,33.691,0.000
1673144593.187,243.164,-980.469,-24.902,208.008,0.000
1673144593.191,-32.227,416.016,-38.574,11.719,0.000
1673144593.195,-282.715,-893.555,-37.598,-196.289,0.000
1673144593.199,-41.504,-554.688,-20.020,-31.738,0.000
1673144593.203,250.977,730.469,-16.602,210.449,0.000
1673144593.207,67.871,714.844,-22.949,98.633,0.000
1673144593.210,-261.230,-683.594,-24.414,-159.180,0.000
1673144593.214,-149.902,-915.039,-22.461,-105.469,0.000
1673144593.218,204.102,458.496,-18.555,156.738,0.000
1673144593.222,169.434,806.152,-22.461,161.133,0.000
1673144593.226,-184.082,-592.285,-28.809,-106.934,0.000
1673144593.230,-223.633,-1000.000,-24.902,-172.852,0.000
1673144593.234,120.605,135.254,-20.508,93.750,0.000
1673144593.238,228.027,835.449,-17.578,211.426,0.000
1673144593.242,-97.656,54.688,-19.531,-33.203,0.000
1673144593.246,-263.184,-797.363,-19.043,-198.242,0.000
1673144593.249,36.133,-243.164,-12.695,10.254,0.000
1673144593.253,241.211,663.574,-13.672,192.871,0.000
1673144593.257,-12.207,118.652,-21.973,16.602,0.000
1673144593.261,-265.625,-902.344,-25.879,-199.707,0.000
1673144593.265,-61.523,-520.020,-20.996,-68.359,0.000
1673144593.269,250.488,149.414,-18.066,193.359,0.000
1673144593.273,101.562,103.516,-20.996,113.281,0.000
1673144593.277,-238.770,-295.898,-28.320,-157.715,0.000
1673144593.281,-165.039,-854.004,-26.367,-134.277,0.000
1673144593.285,174.316,-186.523,-21.973,129.883,0.000
1673144593.289,176.270,569.336,-22.461,166.504,0.000
1673144593.292,-169.922,83.984,-29.785,-100.586,0.000
1673144593.296,-238.770,-871.094,-29.785,-184.082,0.000
1673144593.300,100.098,-379.883,-21.973,68.359,0.000
1673144593.304,229.980,626.953,-26.367,197.754,0.000
1673144593.308,-84.961,179.688,-32.715,-29.297,0.000
1673144593.312,-276.855,-809.570,-33.203,-204.102,0.000
1673144593.316,-3.906,-926.270,-24.902,-6.836,0.000
1673144593.320,250.000,415.039,-10.254,203.125,0.000
1673144593.324,29.297,868.164,-12.695,53.223,0.000
1673144593.328,-268.555,-502.441,-21.973,-187.988,0.000
1673144593.331,-98.145,-788.086,-15.625,-88.867,0.000
1673144593.335,230.957,552.246,-10.254,173.340,0.000
1673144593.339,126.465,739.746,-19.531,124.023,0.000
1673144593.343,-222.168,-499.512,-27.344,-153.809,0.000
1673144593.347,-193.359,-925.781,-21.484,-166.016,0.000
1673144593.351,163.086,-64.941,-11.719,111.328,0.000
1673144593.355,200.684,660.645,-11.719,173.828,0.000
1673144593.359,-144.043,-207.031,-21.484,-82.520,0.000
1673144593.363,-243.164,-1000.000,-21.484,-188.965,0.000
1673144593.367,85.938,-14.160,-12.695,42.480,0.000
1673144593.371,234.863,943.848,-14.160,179.199,0.000
1673144593.374,-8.789,389.648,-18.555,7.324,0.000
1673144593.378,-162.598,-583.984,-16.113,-132.812,0.000
1673144593.382,-56.152,-481.934,-11.230,-62.500,0.000
1673144593.386,95.703,301.758,-6.348,82.031,0.000
1673144593.390,61.523,398.926,-12.695,62.988,0.000
1673144593.394,-94.727,-158.691,-23.438,-82.031,0.000
1673144593.398,-112.793,-663.574,-22.461,-104.492,0.000
1673144593.402,39.551,-279.785,-19.043,28.809,0.000
1673144593.406,90.820,-164.062,-20.020,83.008,0.000
1673144593.410,-59.082,-321.289,-20.020,-56.152,0.000
1673144593.413,-134.277,-259.766,-15.625,-140.625,0.000
1673144593.417,12.695,-190.430,-19.043,-9.277,0.000
1673144593.421,118.164,278.320,-23.926,96.191,0.000
1673144593.425,-14.160,398.438,-24.902,-16.113,0.000
1673144593.429,-140.625,-158.691,-31.738,-137.695,0.000
1673144593.433,-34.180,-394.043,-28.809,-46.387,0.000
1673144593.437,104.980,187.500,-24.902,94.727,0.000
1673144593.441,26.367,545.410,-27.344,34.668,0.000
1673144593.445,-125.977,-247.559,-34.180,-106.445,0.000
1673144593.449,-78.125,-1000.000,-39.551,-73.242,0.000
1673144593.453,77.637,-527.344,-28.809,74.707,0.000
1673144593.456,63.965,545.410,-22.461,81.055,0.000
1673144593.460,-94.727,289.062,-23.926,-65.918,0.000
1673144593.464,-117.188,-555.176,-23.438,-104.492,0.000
1673144593.468,30.273,-202.637,-19.531,35.645,0.000
1673144593.472,116.699,505.371,-10.742,126.465,0.000
1673144593.476,-70.312,-101.074,-14.648,-44.434,0.000
1673144593.480,-215.820,-834.473,-21.484,-179.199,0.000
1673144593.484,96.680,2.930,-16.113,62.012,0.000
1673144593.488,216.797,987.793,-16.113,180.664,0.000
1673144593.492,-113.281,78.125,-20.996,-57.617,0.000
1673144593.495,-262.695,-1000.000,-21.484,-199.707,0.000
1673144593.499,28.320,-323.242,-20.508,4.883,0.000
1673144593.503,247.070,958.008,-26.855,202.148,0.000
1673144593.507,2.441,431.152,-33.691,40.527,0.000
1673144593.511,-278.320,-845.703,-32.715,-194.824,0.000
1673144593.515,-95.215,-507.324,-21.484,-84.961,0.000
1673144593.519,223.633,727.539,-17.578,174.805,0.000
1673144593.523,87.891,661.621,-26.367,108.398,0.000
1673144593.527,-250.977,-522.949,-27.344,-165.527,0.000
1673144593.531,-177.734,-771.484,-20.996,-144.531,0.000
1673144593.534,179.199,419.922,-15.137,134.766,0.000
1673144593.538,186.523,512.207,-18.555,174.316,0.000
1673144593.542,-162.109,-766.113,-23.926,-90.332,0.000
1673144593.546,-242.188,-875.488,-22.461,-192.871,0.000
1673144593.550,95.215,41.992,-17.090,55.176,0.000
1673144593.554,213.379,721.680,-15.625,179.199,0.000
1673144593.558,-41.992,375.000,-21.973,-16.113,0.000
1673144593.562,-167.480,-354.980,-26.367,-153.809,0.000
1673144593.566,-51.758,-678.223,-17.090,-67.871,0.000
1673144593.570,88.867,-110.840,-2.930,77.637,0.000
1673144593.574,45.410,427.246,-9.277,59.082,0.000
1673144593.577,-111.328,58.105,-22.949,-89.844,0.000
1673144593.581,-105.469,-446.289,-24.902,-109.863,0.000
1673144593.585,51.270,-375.488,-19.531,42.480,0.000
1673144593.589,82.031,197.754,-16.113,87.891,0.000
1673144593.593,-70.801,280.273,-17.578,-61.035,0.000
1673144593.597,-138.672,-497.070,-20.996,-127.441,0.000
1673144593.601,12.695,-495.117,-17.578,12.695,0.000
1673144593.605,107.910,479.004,-16.113,106.934,0.000
1673144593.609,-27.832,510.742,-23.926,-19.043,0.000
1673144593.613,-138.672,-454.102,-23.926,-134.766,0.000
1673144593.616,-15.137,-782.715,-16.602,-31.250,0.000
1673144593.620,118.652,112.793,-16.113,95.215,0.000
1673144593.624,21.484,532.227,-21.484,15.625,0.000
1673144593.628,-117.188,-305.176,-21.484,-132.812,0.000
1673144593.632,-49.805,-862.793,-21.973,-95.215,0.000
1673144593.636,91.309,-76.172,-20.020,42.480,0.000
1673144593.640,59.082,582.520,-22.949,33.203,0.000
1673144593.644,-102.051,-244.141,-30.762,-109.375,0.000
1673144593.648,-111.816,-671.875,-27.344,-139.160,0.000
1673144593.652,55.176,140.625,-23.438,1.465,0.000
1673144593.656,101.562,595.703,-23.926,67.383,0.000
1673144593.659,-57.129,-250.000,-27.832,-68.359,0.000
1673144593.663,-141.113,-784.668,-23.926,-155.273,0.000
1673144593.667,2.930,30.762,-23.438,-27.344,0.000
1673144593.671,118.164,493.164,-21.973,79.590,0.000
1673144593.675,-6.348,36.621,-22.949,-20.996,0.000
1673144593.679,-145.020,-639.648,-33.203,-143.555,0.000
1673144593.683,-38.574,-621.582,-30.273,-66.406,0.000
1673144593.687,109.863,-54.199,-19.043,67.871,0.000
1673144593.691,22.949,29.785,-19.531,15.625,0.000
1673144593.695,-127.441,-220.215,-27.832,-130.371,0.000
1673144593.699,-78.613,-136.230,-29.785,-103.027,0.000
1673144593.702,73.730,77.637,-24.902,52.246,0.000
1673144593.706,71.289,-85.449,-22.461,64.941,0.000
1673144593.710,-88.379,-129.395,-22.461,-80.566,0.000
1673144593.714,-131.348,-271.973,-20.508,-118.164,0.000
1673144593.718,26.367,-185.547,-18.066,25.879,0.000
1673144593.722,97.168,294.434,-20.508,92.773,0.000
1673144593.726,-50.781,-24.414,-23.438,-42.480,0.000
1673144593.730,-145.020,-796.875,-20.996,-136.230,0.000
1673144593.734,-4.395,-772.461,-19.043,-19.043,0.000
1673144593.738,121.094,42.969,-18.066,98.145,0.000
1673144593.741,7.812,403.320,-20.508,7.812,0.000
1673144593.745,-129.883,-246.582,-20.508,-121.094,0.000
1673144593.749,-37.109,-773.926,-19.531,-46.387,0.000
1673144593.753,106.445,-369.629,-16.602,91.797,0.000
1673144593.757,46.387,321.777,-10.254,41.504,0.000
1673144593.761,-112.305,-58.594,-11.719,-104.980,0.000
1673144593.765,-93.750,-634.766,-15.625,-89.844,0.000
1673144593.769,66.406,-20.508,-18.555,53.223,0.000
1673144593.773,80.566,386.719,-22.461,75.684,0.000
1673144593.777,-79.102,-304.688,-27.832,-72.754,0.000
1673144593.780,-122.559,-700.195,-26.855,-125.000,0.000
1673144593.784,33.691,-220.703,-18.066,21.484,0.000
1673144593.788,113.281,421.387,-15.625,100.098,0.000
1673144593.792,-30.762,102.539,-23.926,-21.484,0.000
1673144593.796,-144.531,-780.273,-27.344,-123.535,0.000
1673144593.800,-14.648,-299.805,-20.020,-22.461,0.000
1673144593.804,111.816,587.891,-19.531,109.375,0.000
1673144593.808,1.953,304.199,-31.738,35.156,0.000
1673144593.812,-147.461,-392.578,-30.762,-107.422,0.000
1673144593.816,-69.824,-281.738,-21.973,-47.852,0.000
1673144593.820,78.125,60.547,-25.879,91.309,0.000
1673144593.823,42.480,-262.207,-37.109,69.336,0.000
1673144593.827,-109.863,-681.641,-39.551,-68.359,0.000
1673144593.831,-108.887,-382.324,-33.203,-78.613,0.000
1673144593.835,54.199,202.637,-28.809,67.871,0.000
1673144593.839,91.797,9.766,-30.273,121.094,0.000
1673144593.843,-68.359,-659.180,-34.668,-20.996,0.000
1673144593.847,-132.812,-697.754,-30.273,-105.469,0.000
1673144593.851,22.461,-402.832,-25.879,27.832,0.000
1673144593.855,119.629,247.559,-28.320,129.395,0.000
1673144593.859,-12.695,283.691,-32.715,11.230,0.000
1673144593.862,-144.531,-222.656,-34.180,-111.328,0.000
1673144593.866,-30.273,-445.801,-29.297,-11.719,0.000
1673144593.870,116.699,-29.297,-23.438,128.418,0.000
1673144593.874,28.320,332.031,-23.926,57.617,0.000
1673144593.878,-121.582,-42.480,-26.367,-88.379,0.000
1673144593.882,-68.848,-433.594,-28.809,-48.340,0.000
1673144593.886,77.637,-382.324,-25.391,99.121,0.000
1673144593.890,59.082,236.328,-25.391,92.285,0.000
1673144593.894,-95.703,201.172,-34.668,-57.129,0.000
1673144593.898,-113.281,-587.402,-29.785,-80.078,0.000
1673144593.902,40.527,-232.910,-26.855,56.641,0.000
1673144593.905,93.262,686.523,-31.738,110.840,0.000
1673144593.909,-59.570,301.758,-37.109,-19.531,0.000
1673144593.913,-151.367,-747.070,-37.109,-105.957,0.000
1673144593.917,-10.742,-541.504,-29.297,16.602,0.000
1673144593.921,104.004,499.023,-27.344,123.535,0.000
1673144593.925,-16.113,482.422,-29.785,15.625,0.000
1673144593.929,-148.926,-603.027,-35.156,-119.629,0.000
1673144593.933,-45.898,-719.238,-29.785,-37.109,0.000
1673144593.937,93.262,415.039,-22.461,92.773,0.000
1673144593.941,22.461,368.652,-21.973,33.203,0.000
1673144593.944,-126.465,-477.539,-24.414,-105.957,0.000
1673144593.948,-79.102,-411.621,-22.461,-72.754,0.000
1673144593.952,82.031,154.297,-22.949,79.590,0.000
1673144593.956,75.195,276.855,-30.273,94.238,0.000
1673144593.960,-80.078,-459.961,-30.273,-38.086,0.000
1673144593.964,-123.535,-820.312,-26.367,-89.355,0.000
1673144593.968,26.855,51.758,-23.926,45.898,0.000
1673144593.972,105.469,461.426,-23.438,125.977,0.000
1673144593.976,-36.621,-315.430,-25.391,-1.953,0.000
1673144593.980,-142.090,-597.656,-28.809,-111.816,0.000
1673144593.984,-3.906,7.812,-27.832,5.859,0.000
1673144593.987,116.211,251.465,-28.809,126.465,0.000
1673144593.991,1.465,55.176,-35.645,21.973,0.000
1673144593.995,-131.836,-228.027,-32.227,-113.281,0.000
1673144593.999,-41.992,-193.848,-25.879,-36.621,0.000
1673144594.003,107.422,106.934,-21.973,107.910,0.000
1673144594.007,47.852,-52.734,-23.926,72.266,0.000
1673144594.011,-112.305,-569.336,-27.832,-75.195,0.000
1673144594.015,-90.332,-698.242,-27.344,-81.055,0.000
1673144594.019,67.383,-597.656,-27.344,57.129,0.000
1673144594.023,79.590,-374.512,-28.320,76.172,0.000
1673144594.026,-73.242,-19.043,-23.438,-77.148,0.000
1673144594.030,-120.605,-360.840,-25.879,-132.324,0.000
1673144594.034,20.996,-394.531,-31.738,-11.230,0.000
1673144594.038,94.727,281.738,-33.203,56.641,0.000
1673144594.042,-38.574,427.246,-35.645,-64.941,0.000
1673144594.046,-147.461,-321.777,-40.039,-180.664,0.000
1673144594.050,-27.344,-417.969,-42.480,-78.613,0.000
1673144594.054,101.562,40.039,-36.621,46.875,0.000
1673144594.058,6.836,202.637,-34.180,-43.945,0.000
1673144594.062,-134.277,-289.062,-34.180,-179.199,0.000
1673144594.066,-64.941,-879.883,-27.344,-116.211,0.000
1673144594.069,94.238,-86.426,-19.531,27.832,0.000
1673144594.073,58.105,693.848,-23.438,10.254,0.000
1673144594.077,-93.750,-97.168,-28.809,-136.719,0.000
1673144594.081,-81.543,-674.316,-25.391,-141.113,0.000
1673144594.085,70.312,62.500,-24.902,5.371,0.000
1673144594.089,98.633,630.859,-27.344,51.270,0.000
1673144594.093,-64.941,-26.367,-33.691,-90.820,0.000
1673144594.097,-138.672,-687.988,-32.715,-175.293,0.000
1673144594.101,10.742,-422.363,-21.484,-40.527,0.000
1673144594.105,110.840,114.746,-20.508,61.523,0.000
1673144594.108,-17.090,-314.453,-29.785,-55.176,0.000
1673144594.112,-150.879,-896.484,-28.320,-178.711,0.000
1673144594.116,-41.504,-203.125,-21.484,-88.379,0.000
1673144594.120,98.633,341.309,-23.926,45.410,0.000
1673144594.124,6.836,138.672,-29.297,-14.160,0.000
1673144594.128,-134.766,-522.949,-26.367,-154.297,0.000
1673144594.132,-72.266,-535.156,-18.066,-121.094,0.000
1673144594.136,79.590,125.488,-21.484,17.578,0.000
1673144594.140,60.059,311.035,-30.273,1.953,0.000
1673144594.144,-103.516,9.766,-31.250,-157.715,0.000
1673144594.148,-132.812,-646.484,-24.414,-197.266,0.000
1673144594.151,124.023,-58.105,-19.043,4.883,0.000
1673144594.155,152.832,222.656,-28.809,50.781,0.000
1673144594.159,-206.055,-564.941,-30.762,-214.844,0.000
1673144594.163,-239.258,-687.988,-24.414,-266.113,0.000
1673144594.167,112.305,-113.770,-20.508,14.160,0.000
1673144594.171,209.961,759.766,-20.508,124.512,0.000
1673144594.175,-109.375,338.867,-28.809,-120.605,0.000
1673144594.179,-264.648,-900.879,-31.738,-265.625,0.000
1673144594.183,41.016,-670.898,-21.973,-38.086,0.000
1673144594.187,258.789,647.461,-20.020,151.367,0.000
1673144594.190,-6.836,679.688,-30.273,-25.879,0.000
1673144594.194,-276.855,-595.703,-30.273,-250.000,0.000
1673144594.198,-64.941,-1000.000,-20.508,-100.098,0.000
1673144594.202,236.328,-248.535,-16.602,169.434,0.000
1673144594.206,106.445,860.840,-22.949,99.121,0.000
1673144594.210,-276.367,-198.242,-34.668,-193.848,0.000
1673144594.214,-206.543,-937.500,-31.250,-166.992,0.000
1673144594.218,309.570,436.035,-20.020,223.633,0.000
1673144594.222,242.188,964.844,-25.391,223.633,0.000
1673144594.226,-310.547,-373.535,-30.762,-186.035,0.000
1673144594.230,-326.660,-1000.000,-23.926,-243.164,0.000
1673144594.233,202.148,58.594,-19.043,154.297,0.000
1673144594.237,327.148,-888.184,-20.020,289.551,0.000
1673144594.241,-172.363,45.898,-28.809,-68.848,0.000
1673144594.245,-414.551,-1000.000,-32.715,-275.391,0.000
1673144594.249,54.688,-233.887,-18.555,42.969,0.000
1673144594.253,394.043,-894.043,-15.137,315.918,0.000
1673144594.257,-19.531,489.258,-30.762,35.645,0.000
1673144594.261,-437.500,-995.117,-34.668,-294.922,0.000
1673144594.265,-102.051,-647.461,-24.414,-78.125,0.000
1673144594.269,389.648,817.871,-20.020,291.504,0.000
1673144594.272,153.320,718.262,-26.367,147.949,0.000
1673144594.276,-387.207,-678.223,-25.391,-270.996,0.000
1673144594.280,-241.211,-899.414,-19.043,-222.168,0.000
1673144594.284,300.293,467.773,-16.113,160.645,0.000
1673144594.288,259.277,726.074,-22.461,163.574,0.000
1673144594.292,-269.531,-593.750,-29.785,-212.891,0.000
1673144594.296,-348.145,-1000.000,-25.879,-313.477,0.000
1673144594.300,187.988,134.766,-13.184,64.453,0.000
1673144594.304,383.789,936.523,-9.766,238.281,0.000
1673144594.308,-107.910,62.012,-18.555,-106.445,0.000
1673144594.312,-399.414,-1000.000,-20.508,-350.098,0.000
1673144594.315,46.387,-586.426,-15.137,-45.410,0.000
1673144594.319,416.992,813.477,-12.695,255.859,0.000
1673144594.323,34.668,699.707,-20.996,3.906,0.000
1673144594.327,-421.387,-686.523,-26.855,-349.609,0.000
1673144594.331,-135.742,-808.105,-15.137,-174.805,0.000
1673144594.335,368.164,439.941,-13.184,207.031,0.000
1673144594.339,179.688,944.824,-24.414,95.215,0.000
1673144594.343,-364.746,-212.891,-30.762,-324.219,0.000
1673144594.347,-278.809,-1000.000,-20.996,-298.828,0.000
1673144594.351,279.297,-174.805,-5.859,118.652,0.000
1673144594.354,299.316,-928.223,-11.719,183.105,0.000
1673144594.358,-252.441,192.871,-26.855,-213.379,0.000
1673144594.362,-391.113,-1000.000,-26.367,-354.980,0.000
1673144594.366,127.930,-190.430,-13.672,15.625,0.000
1673144594.370,365.723,-852.539,-12.695,225.098,0.000
1673144594.374,-102.051,494.141,-29.785,-98.145,0.000
1673144594.378,-444.336,-904.297,-36.133,-385.742,0.000
1673144594.382,-34.668,-670.898,-27.344,-122.559,0.000
1673144594.386,395.508,761.230,-23.926,201.660,0.000
1673144594.390,67.871,791.992,-29.785,-11.230,0.000
1673144594.394,-412.109,-643.555,-35.156,-380.859,0.000
1673144594.397,-168.945,-829.590,-31.250,-240.234,0.000
1673144594.401,358.887,566.895,-21.484,159.668,0.000
1673144594.405,218.750,991.699,-24.902,93.262,0.000
1673144594.409,-338.867,-344.238,-39.062,-320.801,0.000
1673144594.413,-316.406,-1000.000,-32.227,-351.074,0.000
1673144594.417,229.004,256.836,-21.973,44.434,0.000
1673144594.421,320.801,-915.527,-29.297,153.320,0.000
1673144594.425,-192.871,-25.391,-38.086,-212.402,0.000
1673144594.429,-391.113,-1000.000,-36.621,-383.301,0.000
1673144594.433,105.469,-351.074,-25.879,-31.738,0.000
1673144594.436,399.414,-929.199,-22.949,212.402,0.000
1673144594.440,-48.828,78.613,-36.621,-80.078,0.000
1673144594.444,-434.570,-1000.000,-38.574,-374.023,0.000
1673144594.448,-56.152,-420.898,-22.949,-117.676,0.000
1673144594.452,373.535,934.082,-16.602,233.398,0.000
1673144594.456,79.102,770.020,-29.297,62.012,0.000
1673144594.460,-402.344,-651.855,-40.039,-312.988,0.000
1673144594.464,-219.727,-820.312,-30.762,-218.750,0.000
1673144594.468,323.730,545.410,-18.066,190.430,0.000
1673144594.472,237.793,982.910,-28.809,166.992,0.000
1673144594.476,-315.430,-302.246,-43.945,-239.258,0.000
1673144594.479,-340.332,-1000.000,-38.574,-301.270,0.000
1673144594.483,199.219,-369.141,-28.809,92.285,0.000
1673144594.487,338.379,683.594,-25.879,235.352,0.000
1673144594.491,-170.898,399.414,-33.203,-140.137,0.000
1673144594.495,-421.387,-1000.000,-35.156,-353.516,0.000
1673144594.499,49.316,-475.098,-20.996,-19.043,0.000
1673144594.503,380.371,937.500,-18.555,247.559,0.000
1673144594.507,2.930,704.102,-29.297,-7.812,0.000
1673144594.511,-328.125,-582.031,-36.133,-286.621,0.000
1673144594.515,-106.934,-794.922,-28.320,-152.832,0.000
1673144594.518,201.660,529.785,-18.066,101.074,0.000
1673144594.522,88.867,759.277,-23.926,60.059,0.000
1673144594.526,-229.980,-477.539,-29.297,-194.824,0.000
1673144594.530,-187.988,-1000.000,-22.949,-205.078,0.000
1673144594.534,156.738,70.801,-14.160,62.988,0.000
1673144594.538,197.266,-867.188,-23.438,125.977,0.000
1673144594.542,-144.043,168.457,-35.156,-121.582,0.000
1673144594.546,-250.488,-993.164,-30.762,-238.770,0.000
1673144594.550,72.754,-151.367,-22.461,-18.066,0.000
1673144594.554,233.398,-961.914,-20.508,135.254,0.000
1673144594.558,-62.988,340.820,-26.367,-72.266,0.000
1673144594.561,-291.992,-853.027,-28.809,-265.625,0.000
1673144594.565,-38.086,-467.285,-20.508,-83.496,0.000
1673144594.569,231.934,603.027,-18.555,142.090,0.000
1673144594.573,35.156,182.617,-27.344,20.508,0.000
1673144594.577,-268.555,-1000.000,-30.273,-229.004,0.000
1673144594.581,-125.000,-578.125,-27.344,-150.391,0.000
1673144594.585,205.566,585.938,-23.926,124.023,0.000
1673144594.589,124.023,827.637,-19.531,94.727,0.000
1673144594.593,-236.816,-116.211,-26.367,-179.199,0.000
1673144594.597,-236.328,-927.734,-27.344,-204.590,0.000
1673144594.600,123.047,-216.309,-14.648,67.383,0.000
1673144594.604,191.895,767.578,-13.184,154.785,0.000
1673144594.608,-142.090,281.738,-22.949,-93.750,0.000
1673144594.612,-272.461,-690.918,-20.996,-227.051,0.000
1673144594.616,44.922,-419.922,-15.625,6.348,0.000
1673144594.620,221.191,125.000,-18.066,177.734,0.000
1673144594.624,-59.570,-118.164,-22.461,-15.625,0.000
1673144594.628,-281.738,-680.176,-23.926,-206.543,0.000
1673144594.632,-90.820,-668.945,-20.020,-71.289,0.000
1673144594.636,107.910,97.656,-19.043,105.957,0.000
1673144594.640,80.078,642.090,-18.555,100.098,0.000
1673144594.643,-151.855,40.039,-21.973,-101.074,0.000
1673144594.647,-168.457,-766.113,-21.973,-138.672,0.000
1673144594.651,175.293,115.234,-18.066,133.789,0.000
1673144594.655,153.809,-936.523,-21.973,146.484,0.000
1673144594.659,-190.918,82.520,-20.996,-130.859,0.000
1673144594.663,-225.586,-1000.000,-17.090,-195.801,0.000
1673144594.667,117.676,-315.918,-16.602,67.383,0.000
1673144594.671,221.191,925.293,-21.484,175.781,0.000
1673144594.675,-99.121,456.543,-27.832,-59.082,0.000
1673144594.679,-268.066,-867.188,-26.367,-205.566,0.000
1673144594.682,24.414,-591.309,-20.020,4.883,0.000
1673144594.686,254.883,815.430,-20.020,197.266,0.000
1673144594.690,9.277,535.645,-31.250,26.367,0.000
1673144594.694,-262.695,-838.379,-33.203,-200.684,0.000
1673144594.698,-68.848,-621.094,-25.391,-73.730,0.000
1673144594.702,232.910,692.383,-26.855,179.199,0.000
1673144594.706,99.121,839.844,-32.227,110.352,0.000
1673144594.710,-228.516,-532.227,-34.180,-154.785,0.000
1673144594.714,-149.414,-957.520,-32.227,-142.578,0.000
1673144594.718,202.148,332.520,-27.344,130.859,0.000
1673144594.722,221.680,930.664,-26.855,186.035,0.000
1673144594.725,-198.730,-327.148,-34.180,-135.742,0.000
1673144594.729,-301.270,-1000.000,-32.715,-245.117,0.000
1673144594.733,213.867,-16.602,-16.602,132.812,0.000
1673144594.737,362.793,971.680,-16.113,280.273,0.000
1673144594.741,-145.508,-158.691,-29.785,-83.496,0.000
1673144594.745,-409.180,-1000.000,-31.250,-323.242,0.000
1673144594.749,62.988,-248.535,-18.555,2.441,0.000
1673144594.753,367.188,925.781,-16.602,266.113,0.000
1673144594.757,-52.734,173.828,-25.879,-0.488,0.000
1673144594.761,-428.223,-1000.000,-26.367,-280.273,0.000
1673144594.764,-113.770,-666.992,-16.602,-63.965,0.000
1673144594.768,382.324,599.609,-12.207,324.219,0.000
1673144594.772,156.250,868.652,-24.902,202.637,0.000
1673144594.776,-378.906,-352.051,-34.668,-200.195,0.000
1673144594.780,-261.230,-973.633,-25.391,-156.738,0.000
1673144594.784,297.852,-96.680,-14.160,270.508,0.000
1673144594.788,263.672,687.988,-17.090,286.133,0.000
1673144594.792,-292.480,-143.066,-27.832,-132.812,0.000
1673144594.796,-360.840,-1000.000,-31.250,-211.426,0.000
1673144594.800,162.109,-227.051,-23.438,170.898,0.000
1673144594.804,371.582,-956.543,-20.508,359.375,0.000
1673144594.807,-109.375,257.812,-27.344,23.926,0.000
1673144594.811,-420.898,-1000.000,-31.738,-237.793,0.000
1673144594.815,7.324,-525.879,-18.555,59.082,0.000
1673144594.819,413.574,925.781,-12.207,381.348,0.000
1673144594.823,56.641,732.422,-26.855,145.020,0.000
1673144594.827,-416.016,-692.383,-34.180,-229.980,0.000
1673144594.831,-145.020,-789.551,-24.414,-75.195,0.000
1673144594.835,376.953,611.816,-11.719,321.289,0.000
1673144594.839,204.590,999.512,-21.973,242.188,0.000
1673144594.843,-343.262,-287.109,-34.180,-166.504,0.000
1673144594.846,-274.414,-1000.000,-23.438,-167.480,0.000
1673144594.850,273.926,71.289,-16.113,227.051,0.000
1673144594.854,316.895,-973.145,-21.484,303.223,0.000
1673144594.858,-221.191,-123.535,-31.738,-81.055,0.000
1673144594.862,-380.859,-1000.000,-30.762,-240.723,0.000
1673144594.866,119.141,-115.234,-21.973,111.328,0.000
1673144594.870,380.859,-852.051,-23.926,340.332,0.000
1673144594.874,-72.266,168.945,-33.203,33.691,0.000
1673144594.878,-435.059,-1000.000,-35.645,-266.113,0.000
1673144594.882,-38.086,-532.715,-21.973,-12.695,0.000
1673144594.886,395.020,858.887,-13.672,323.242,0.000
1673144594.889,74.219,698.242,-17.090,123.535,0.000
1673144594.893,-426.758,-618.164,-24.414,-254.395,0.000
1673144594.897,-207.031,-951.172,-18.555,-136.230,0.000
1673144594.901,327.148,332.031,-11.719,272.949,0.000
1673144594.905,220.215,800.293,-19.531,229.004,0.000
1673144594.909,-324.707,-440.918,-28.320,-189.453,0.000
1673144594.913,-302.734,-951.660,-26.367,-209.473,0.000
1673144594.917,174.316,-32.715,-21.973,140.137,0.000
1673144594.921,250.977,512.695,-25.879,223.633,0.000
1673144594.925,-84.961,202.148,-24.902,-21.973,0.000
1673144594.928,-254.395,-545.410,-24.414,-175.293,0.000
1673144594.932,26.855,-426.270,-20.996,28.320,0.000
1673144594.936,240.723,667.969,-23.926,216.797,0.000
1673144594.940,2.930,711.426,-29.785,41.992,0.000
1673144594.944,-265.137,-603.516,-33.691,-182.129,0.000
1673144594.948,-78.125,-1000.000,-32.227,-54.199,0.000
1673144594.952,232.910,238.770,-21.973,197.754,0.000
1673144594.956,91.797,895.508,-23.438,118.652,0.000
1673144594.960,-251.465,-340.332,-30.762,-147.949,0.000
1673144594.964,-178.711,-1000.000,-30.762,-113.281,0.000
1673144594.968,171.387,-95.703,-23.926,156.738,0.000
1673144594.971,187.500,915.527,-26.855,195.801,0.000
1673144594.975,-156.250,-211.426,-35.156,-67.383,0.000
1673144594.979,-248.047,-1000.000,-31.738,-154.785,0.000
1673144594.983,81.543,-13.184,-24.902,90.820,0.000
1673144594.987,223.633,-962.402,-22.949,223.633,0.000
1673144594.991,-87.891,232.910,-24.414,6.348,0.000
1673144594.995,-284.180,-956.543,-21.484,-171.875,0.000
1673144594.999,-21.484,-406.250,-18.555,8.789,0.000
1673144595.003,229.004,897.949,-16.113,216.797,0.000
1673144595.007,20.996,633.301,-20.508,72.266,0.000
1673144595.010,-274.902,-773.438,-30.762,-166.504,0.000
1673144595.014,-120.117,-751.953,-24.414,-70.801,0.000
1673144595.018,206.543,413.574,-13.672,185.059,0.000
1673144595.022,121.094,618.164,-17.090,150.879,0.000
1673144595.026,-221.191,-372.559,-24.902,-113.281,0.000
1673144595.030,-193.359,-743.652,-13.184,-128.906,0.000
1673144595.034,154.785,266.602,-0.977,141.113,0.000
1673144595.038,218.750,698.242,-9.277,227.539,0.000
1673144595.042,-180.176,-361.328,-16.602,-79.102,0.000
1673144595.046,-341.309,-1000.000,-16.602,-244.629,0.000
1673144595.050,156.738,56.641,-8.301,107.910,0.000
1673144595.053,384.766,854.492,-11.230,312.988,0.000
1673144595.057,-91.797,-54.199,-25.391,-19.043,0.000
1673144595.061,-412.109,-946.777,-26.855,-281.738,0.000
1673144595.065,1.953,-627.441,-13.672,2.441,0.000
1673144595.069,403.320,821.777,-14.160,308.594,0.000
1673144595.073,52.734,625.977,-26.855,85.938,0.000
1673144595.077,-421.387,-803.223,-26.855,-263.184,0.000
1673144595.081,-162.109,-847.656,-18.555,-107.910,0.000
1673144595.085,360.840,375.977,-9.766,290.039,0.000
1673144595.089,203.613,942.383,-13.184,219.727,0.000
1673144595.092,-345.215,-185.547,-22.461,-188.477,0.000
1673144595.096,-289.062,-1000.000,-16.113,-186.035,0.000
1673144595.100,261.230,-258.301,-7.812,217.285,0.000
1673144595.104,324.219,-964.844,-9.766,299.805,0.000
1673144595.108,-201.660,259.766,-18.555,-80.078,0.000
1673144595.112,-381.836,-1000.000,-22.949,-238.770,0.000
1673144595.116,113.770,-241.211,-11.719,114.258,0.000
1673144595.120,388.672,-871.582,-7.812,344.238,0.000
1673144595.124,-65.430,521.973,-20.020,41.016,0.000
1673144595.128,-428.711,-886.230,-27.832,-257.324,0.000
1673144595.132,-36.621,-726.562,-14.160,-6.836,0.000
1673144595.135,392.578,678.223,-9.766,331.055,0.000
1673144595.139,90.820,858.398,-22.461,140.625,0.000
1673144595.143,-314.941,-503.418,-37.109,-177.734,0.000
1673144595.147,-160.645,-838.379,-35.645,-89.844,0.000
1673144595.151,195.312,341.309,-22.949,190.430,0.000
1673144595.155,167.480,949.707,-20.996,194.824,0.000
1673144595.159,-192.383,-139.648,-24.902,-79.102,0.000
1673144595.163,-246.094,-1000.000,-24.902,-152.344,0.000
1673144595.167,99.121,61.523,-9.277,106.934,0.000
1673144595.171,217.285,980.469,-3.418,231.934,0.000
1673144595.174,-89.844,172.363,-8.789,11.719,0.000
1673144595.178,-274.414,-995.117,-6.836,-150.391,0.000
1673144595.182,-11.230,-613.770,-1.465,38.574,0.000
1673144595.186,219.238,614.746,-2.930,231.445,0.000
1673144595.190,-11.230,1.465,-8.789,75.195,0.000
1673144595.194,-290.527,-1000.000,-10.742,-156.738,0.000
1673144595.198,-107.910,-448.730,-9.277,-46.387,0.000
1673144595.202,208.496,484.375,-5.859,212.402,0.000
1673144595.206,97.656,713.867,-10.254,155.273,0.000
1673144595.210,-231.934,-144.043,-19.043,-117.188,0.000
1673144595.214,-184.082,-687.012,-16.113,-114.258,0.000
1673144595.217,163.574,112.793,-8.301,161.133,0.000
1673144595.221,167.969,745.605,-11.719,196.289,0.000
1673144595.225,-181.152,-147.949,-24.902,-70.801,0.000
1673144595.229,-250.000,-995.117,-21.484,-151.855,0.000
1673144595.233,76.660,-667.480,-10.254,95.703,0.000
1673144595.237,226.074,148.438,-13.184,240.723,0.000
1673144595.241,-56.641,206.543,-16.113,22.461,0.000
1673144595.245,-263.672,-822.754,-9.766,-165.527,0.000
1673144595.249,-15.137,-604.492,-0.977,21.484,0.000
1673144595.253,240.723,477.051,-1.953,246.094,0.000
1673144595.256,33.203,621.094,-8.301,110.352,0.000
1673144595.260,-273.926,-427.734,-17.090,-147.949,0.000
1673144595.264,-129.883,-771.484,-17.578,-66.895,0.000
1673144595.268,207.520,492.188,-11.719,210.449,0.000
1673144595.272,126.465,773.926,-16.602,182.129,0.000
1673144595.276,-213.379,-497.070,-23.926,-95.215,0.000
1673144595.280,-192.871,-1000.000,-17.578,-111.816,0.000
1673144595.284,151.367,65.430,-9.766,157.227,0.000
1673144595.288,204.102,-891.113,-16.113,226.562,0.000
1673144595.292,-134.277,194.336,-25.391,-26.367,0.000
1673144595.296,-255.371,-1000.000,-25.879,-150.879,0.000
1673144595.299,63.965,-353.516,-16.602,83.496,0.000
1673144595.303,247.070,-989.746,-11.230,250.488,0.000
1673144595.307,-38.086,419.434,-22.949,50.781,0.000
1673144595.311,-283.203,-860.352,-28.809,-164.062,0.000
1673144595.315,-50.293,-515.137,-22.949,-7.812,0.000
1673144595.319,230.469,597.656,-19.531,227.051,0.000
1673144595.323,67.383,199.707,-25.879,121.582,0.000
1673144595.327,-164.551,-770.996,-26.367,-75.195,0.000
1673144595.331,-133.301,-449.219,-22.949,-79.590,0.000
1673144595.335,25.391,135.254,-21.973,63.477,0.000
1673144595.338,87.402,428.223,-22.949,130.859,0.000
1673144595.342,-59.570,153.809,-24.414,-7.324,0.000
1673144595.346,-144.043,-489.258,-18.066,-103.516,0.000
1673144595.350,0.977,-485.352,-17.090,20.996,0.000
1673144595.354,113.770,147.461,-19.531,130.859,0.000
1673144595.358,-15.625,275.391,-27.832,19.043,0.000
1673144595.362,-152.832,-156.738,-31.250,-104.980,0.000
1673144595.366,-55.664,-387.695,-29.297,-24.414,0.000
1673144595.370,84.473,-532.715,-30.273,108.398,0.000
1673144595.374,18.066,-165.039,-27.832,53.711,0.000
1673144595.377,-135.742,79.590,-30.273,-87.402,0.000
1673144595.381,-96.191,-379.395,-30.273,-62.012,0.000
1673144595.385,70.312,-82.520,-30.273,83.008,0.000
1673144595.389,71.289,500.977,-29.297,99.121,0.000
1673144595.393,-87.402,192.383,-29.785,-45.410,0.000
1673144595.397,-121.582,-558.594,-38.086,-90.820,0.000
1673144595.401,30.762,-288.086,-33.203,47.852,0.000
1673144595.405,105.469,605.469,-25.391,126.465,0.000
1673144595.409,-41.504,190.430,-27.344,-1.465,0.000
1673144595.413,-146.973,-867.676,-35.645,-103.027,0.000
1673144595.417,-10.742,-665.527,-33.203,7.812,0.000
1673144595.420,116.699,438.965,-23.438,126.953,0.000
1673144595.424,10.254,503.418,-23.438,39.551,0.000
1673144595.428,-135.254,-533.691,-26.367,-98.633,0.000
1673144595.432,-46.387,-596.191,-21.973,-28.320,0.000
1673144595.436,113.770,432.129,-20.508,118.164,0.000
1673144595.440,55.176,356.445,-32.715,74.707,0.000
1673144595.444,-106.445,-454.590,-36.133,-85.938,0.000
1673144595.448,-94.238,-498.535,-30.762,-83.496,0.000
1673144595.452,50.781,213.379,-33.203,64.453,0.000
1673144595.456,90.332,576.660,-33.691,112.793,0.000
1673144595.459,-131.348,-348.633,-41.992,-74.707,0.000
1673144595.463,-203.613,-1000.000,-42.969,-151.855,0.000
1673144595.467,134.277,51.270,-33.691,111.328,0.000
1673144595.471,189.453,940.430,-40.039,178.711,0.000
1673144595.475,-148.926,-315.918,-46.875,-84.473,0.000
1673144595.479,-252.930,-1000.000,-40.527,-189.941,0.000
1673144595.483,62.500,-38.574,-29.297,55.664,0.000
1673144595.487,220.703,819.336,-31.738,209.473,0.000
1673144595.491,-57.129,246.582,-38.574,-1.953,0.000
1673144595.495,-264.648,-646.484,-36.621,-190.918,0.000
1673144595.499,-19.043,-431.641,-30.762,-7.324,0.000
1673144595.502,240.234,495.117,-30.762,210.938,0.000
1673144595.506,40.039,201.172,-39.062,65.430,0.000
1673144595.510,-267.578,-848.145,-44.434,-188.477,0.000
1673144595.514,-116.211,-666.504,-33.691,-96.680,0.000
1673144595.518,223.633,-104.492,-27.344,181.641,0.000
1673144595.522,128.418,-138.672,-31.738,144.531,0.000
1673144595.526,-135.742,-1.465,-35.645,-78.125,0.000
1673144595.530,-154.785,-287.109,-36.133,-128.906,0.000
1673144595.534,-12.695,-423.340,-37.598,1.953,0.000
1673144595.538,83.496,183.105,-41.504,108.887,0.000
1673144595.541,-35.645,387.695,-36.133,0.977,0.000
1673144595.545,-156.250,-316.895,-35.156,-120.605,0.000
1673144595.549,-46.387,-453.125,-32.227,-27.344,0.000
1673144595.553,94.727,-0.488,-27.344,104.004,0.000
1673144595.557,20.020,156.738,-31.738,30.762,0.000
1673144595.561,-121.582,-230.957,-32.227,-106.934,0.000
1673144595.565,-65.430,-830.566,-26.855,-60.547,0.000
1673144595.569,86.426,-123.535,-23.926,81.543,0.000
1673144595.573,68.848,565.430,-24.414,76.660,0.000
1673144595.577,-89.355,-374.023,-29.297,-61.035,0.000
1673144595.581,-107.910,-795.898,-30.273,-90.820,0.000
1673144595.584,52.734,41.016,-23.438,49.805,0.000
1673144595.588,109.375,649.902,-24.414,118.652,0.000
1673144595.592,-44.434,36.621,-25.391,-13.672,0.000
1673144595.596,-131.836,-626.953,-22.949,-99.609,0.000
1673144595.600,2.930,-355.469,-21.484,19.043,0.000
1673144595.604,116.699,125.000,-15.137,125.977,0.000
1673144595.608,6.348,-249.512,-15.625,31.250,0.000
1673144595.612,-129.883,-897.461,-17.090,-98.145,0.000
1673144595.616,-30.273,-273.926,-13.672,-20.508,0.000
1673144595.620,112.793,417.480,-20.020,115.234,0.000
1673144595.623,43.945,354.004,-25.391,56.641,0.000
1673144595.627,-106.445,-364.746,-23.926,-92.285,0.000
1673144595.631,-73.242,-723.633,-21.484,-71.777,0.000
1673144595.635,80.078,-184.082,-23.438,71.289,0.000
1673144595.639,80.566,287.598,-24.414,79.590,0.000
1673144595.643,-80.566,32.227,-23.926,-67.871,0.000
1673144595.647,-124.512,-633.301,-21.973,-111.328,0.000
1673144595.651,26.855,-429.199,-16.602,27.832,0.000
1673144595.655,102.539,-275.879,-13.672,111.328,0.000
1673144595.659,-34.180,-357.422,-16.113,-12.695,0.000
1673144595.663,-138.184,-203.613,-20.020,-119.629,0.000
1673144595.666,-13.184,-238.281,-20.020,0.488,0.000
1673144595.670,108.398,202.637,-21.484,120.117,0.000
1673144595.674,4.883,435.547,-21.973,23.926,0.000
1673144595.678,-128.906,-65.918,-20.996,-104.004,0.000
1673144595.682,-43.457,-383.301,-20.508,-38.086,0.000
1673144595.686,101.562,62.988,-16.602,98.145,0.000
1673144595.690,46.875,290.527,-19.531,64.941,0.000
1673144595.694,-107.910,-339.844,-23.926,-78.125,0.000
1673144595.698,-101.562,-935.547,-22.949,-74.219,0.000
1673144595.702,55.176,-584.961,-19.043,67.871,0.000
1673144595.705,88.867,459.961,-17.090,93.750,0.000
1673144595.709,-61.035,284.668,-22.949,-44.922,0.000
1673144595.713,-126.953,-512.207,-23.438,-109.375,0.000
1673144595.717,21.973,-141.602,-19.531,16.602,0.000
1673144595.721,115.234,446.777,-22.461,113.770,0.000
1673144595.725,-27.344,12.695,-20.508,-2.441,0.000
1673144595.729,-147.461,-530.762,-17.578,-123.535,0.000
1673144595.733,-24.414,-176.758,-15.137,-24.414,0.000
1673144595.737,108.398,548.340,-9.766,107.422,0.000
1673144595.741,5.859,250.488,-10.254,39.551,0.000
1673144595.745,-143.555,-769.531,-13.672,-93.750,0.000
1673144595.748,-74.219,-689.453,-11.230,-56.152,0.000
1673144595.752,81.543,407.227,-8.789,80.566,0.000
1673144595.756,47.363,515.625,-14.160,68.848,0.000
1673144595.760,-115.723,-232.910,-20.508,-81.055,0.000
1673144595.764,-119.141,-371.094,-14.160,-97.168,0.000
1673144595.768,45.898,249.512,-5.371,53.223,0.000
1673144595.772,91.309,473.633,-9.766,101.074,0.000
1673144595.776,-56.641,-35.645,-16.602,-34.668,0.000
1673144595.780,-125.977,-354.980,-12.695,-109.863,0.000
1673144595.784,19.531,26.855,-8.301,15.625,0.000
1673144595.787,119.629,10.742,-11.230,124.512,0.000
1673144595.791,-10.254,-584.473,-20.508,20.020,0.000
1673144595.795,-135.742,-452.148,-25.391,-104.004,0.000
1673144595.799,-20.996,-267.578,-20.508,-5.859,0.000
1673144595.803,112.305,-46.875,-16.113,124.512,0.000
1673144595.807,4.395,250.977,-20.996,33.691,0.000
1673144595.811,-150.391,-2.930,-28.320,-120.117,0.000
1673144595.815,-89.844,-606.445,-26.367,-73.242,0.000
1673144595.819,62.500,-232.422,-18.066,72.266,0.000
1673144595.823,47.363,519.531,-16.113,66.895,0.000
1673144595.827,-102.539,216.309,-18.555,-71.777,0.000
1673144595.830,-126.953,-358.887,-16.602,-112.305,0.000
1673144595.834,17.578,-436.035,-10.254,19.531,0.000
1673144595.838,78.125,140.625,-9.766,89.844,0.000
1673144595.842,-68.359,346.191,-18.066,-39.551,0.000
1673144595.846,-169.922,-381.836,-25.391,-142.578,0.000
1673144595.850,-31.250,-439.453,-20.996,-14.160,0.000
1673144595.854,95.703,391.113,-17.090,110.352,0.000
1673144595.858,-18.555,267.090,-23.438,7.812,0.000
1673144595.862,-150.879,-687.988,-26.855,-115.723,0.000
1673144595.866,-46.875,-663.086,-17.090,-30.273,0.000
1673144595.869,101.074,345.215,-9.766,104.492,0.000
1673144595.873,35.645,650.879,-14.648,58.594,0.000
1673144595.877,-116.699,-176.758,-21.484,-83.008,0.000
1673144595.881,-84.961,-825.195,-21.484,-66.406,0.000
1673144595.885,73.242,-63.477,-18.555,77.637,0.000
1673144595.889,77.148,665.039,-20.508,89.355,0.000
1673144595.893,-95.703,-191.406,-24.414,-61.523,0.000
1673144595.897,-149.902,-783.691,-20.508,-119.141,0.000
1673144595.901,21.484,41.016,-14.160,17.090,0.000
1673144595.905,113.770,698.730,-18.555,102.051,0.000
1673144595.909,-30.273,-150.391,-23.438,-22.461,0.000
1673144595.912,-145.508,-1000.000,-23.438,-129.395,0.000
1673144595.916,-23.926,-306.152,-20.508,-19.531,0.000
1673144595.920,104.980,524.902,-17.090,101.074,0.000
1673144595.924,-1.953,264.160,-23.926,17.090,0.000
1673144595.928,-142.578,-535.156,-24.902,-117.188,0.000
1673144595.932,-56.641,-476.074,-16.113,-54.199,0.000
1673144595.936,94.727,281.250,-13.672,89.355,0.000
1673144595.940,49.805,284.180,-13.184,62.500,0.000
1673144595.944,-104.004,-106.445,-14.648,-78.125,0.000
1673144595.948,-97.656,-249.023,-16.602,-87.891,0.000
1673144595.951,59.570,-38.574,-17.090,57.617,0.000
1673144595.955,83.984,-34.180,-20.996,99.609,0.000
1673144595.959,-79.102,-38.086,-22.461,-50.293,0.000
1673144595.963,-140.137,-211.426,-20.020,-124.512,0.000
1673144595.967,22.949,-305.176,-16.113,20.508,0.000
1673144595.971,122.559,162.109,-13.672,131.348,0.000
1673144595.975,-18.555,51.270,-19.043,13.672,0.000
1673144595.979,-139.648,-467.773,-25.391,-110.840,0.000
1673144595.983,-19.531,-526.367,-24.414,-11.719,0.000
1673144595.987,115.234,18.066,-17.578,119.629,0.000
1673144595.991,41.504,562.012,-16.113,58.105,0.000
1673144595.994,-153.320,-59.082,-22.949,-117.676,0.000
1673144595.998,-53.223,-845.703,-18.555,-49.805,0.000
1673144596.002,228.516,-202.637,-10.254,188.477,0.000
1673144596.006,62.988,671.387,-15.137,94.727,0.000
1673144596.010,-247.070,-325.195,-17.090,-158.203,0.000
1673144596.014,-115.723,-831.055,-11.719,-89.844,0.000
1673144596.018,217.285,442.871,-11.230,176.758,0.000
1673144596.022,151.367,787.598,-19.531,155.762,0.000
1673144596.026,-197.266,-458.496,-22.461,-121.094,0.000
1673144596.030,-207.031,-945.312,-13.184,-157.227,0.000
1673144596.033,143.066,163.086,-10.254,105.469,0.000
1673144596.037,228.027,-903.320,-12.207,193.359,0.000
1673144596.041,-107.910,189.453,-20.020,-56.641,0.000
1673144596.045,-257.812,-1000.000,-21.973,-192.871,0.000
1673144596.049,53.711,-222.656,-9.766,37.598,0.000
1673144596.053,258.301,-967.285,-9.766,213.867,0.000
1673144596.057,-23.438,435.059,-27.344,17.578,0.000
1673144596.061,-282.227,-864.746,-30.273,-198.730,0.000
1673144596.065,-50.781,-509.766,-11.719,-43.457,0.000
1673144596.069,249.512,589.844,-10.254,201.172,0.000
1673144596.073,76.172,360.352,-24.414,100.098,0.000
1673144596.076,-243.164,-710.938,-25.879,-155.762,0.000
1673144596.080,-133.301,-898.926,-19.531,-114.746,0.000
1673144596.084,204.102,321.777,-17.578,149.902,0.000
1673144596.088,185.547,572.266,-22.949,165.039,0.000
1673144596.092,-162.598,-569.824,-26.855,-98.633,0.000
1673144596.096,-211.914,-922.852,-23.926,-166.016,0.000
1673144596.100,127.930,-274.902,-16.113,88.867,0.000
1673144596.104,241.211,793.945,-16.602,212.891,0.000
1673144596.108,-94.727,412.109,-26.855,-20.996,0.000
1673144596.112,-251.465,-545.410,-25.879,-166.016,0.000
1673144596.115,52.246,-433.594,-21.484,41.992,0.000
1673144596.119,245.605,464.355,-24.414,215.820,0.000
1673144596.123,5.859,643.555,-26.855,53.711,0.000
1673144596.127,-270.020,-312.012,-28.809,-174.316,0.000
1673144596.131,-72.754,-613.281,-22.949,-52.734,0.000
1673144596.135,245.605,-86.426,-15.625,203.613,0.000
1673144596.139,109.375,438.477,-19.531,129.395,0.000
1673144596.143,-228.516,-56.152,-20.508,-143.555,0.000
1673144596.147,-166.504,-822.754,-17.578,-129.883,0.000
1673144596.151,179.199,12.207,-15.625,137.207,0.000
1673144596.155,191.895,-947.754,-19.043,166.016,0.000
1673144596.158,-149.414,249.512,-31.250,-101.074,0.000
1673144596.162,-227.051,-1000.000,-27.832,-188.965,0.000
1673144596.166,108.887,-403.809,-17.090,61.035,0.000
1673144596.170,249.023,966.309,-17.090,196.777,0.000
1673144596.174,-56.152,543.945,-26.367,-23.926,0.000
1673144596.178,-264.648,-819.824,-34.180,-191.406,0.000
1673144596.182,-7.324,-595.215,-26.855,-5.371,0.000
1673144596.186,245.605,839.355,-20.996,197.754,0.000
1673144596.190,28.809,562.012,-26.367,61.035,0.000
1673144596.194,-267.578,-783.203,-28.320,-176.270,0.000
1673144596.197,-115.234,-680.176,-20.996,-86.426,0.000
1673144596.201,210.938,617.676,-16.602,168.945,0.000
1673144596.205,121.582,889.160,-22.949,129.395,0.000
1673144596.209,-222.168,-428.711,-27.344,-136.719,0.000
1673144596.213,-195.801,-1000.000,-20.996,-154.785,0.000
1673144596.217,154.785,136.719,-12.695,112.305,0.000
1673144596.221,196.777,971.680,-20.020,183.594,0.000
1673144596.225,-142.090,-282.227,-27.832,-64.941,0.000
1673144596.229,-254.395,-1000.000,-25.391,-184.082,0.000
1673144596.233,72.266,16.602,-20.020,50.293,0.000
1673144596.237,256.836,883.301,-14.648,206.055,0.000
1673144596.240,-31.738,345.703,-26.367,-3.418,0.000
1673144596.244,-273.926,-589.844,-27.344,-201.660,0.000
1673144596.248,-33.203,-630.859,-14.160,-29.785,0.000
1673144596.252,252.930,324.219,-16.602,199.707,0.000
1673144596.256,62.500,329.102,-20.508,75.684,0.000
1673144596.260,-257.812,-680.176,-21.973,-175.293,0.000
1673144596.264,-134.277,-588.379,-20.020,-115.234,0.000
1673144596.268,199.219,31.250,-20.508,150.391,0.000
1673144596.272,158.203,175.781,-28.809,161.133,0.000
1673144596.276,-184.570,-75.195,-30.273,-113.281,0.000
1673144596.279,-174.316,-560.547,-25.879,-140.625,0.000
1673144596.283,174.805,-151.855,-11.230,126.465,0.000
1673144596.287,218.262,706.543,-9.277,182.129,0.000
1673144596.291,-101.562,456.055,-21.973,-55.664,0.000
1673144596.295,-252.930,-714.844,-23.438,-190.918,0.000
1673144596.299,41.016,-463.867,-17.090,24.414,0.000
1673144596.303,257.324,596.191,-15.625,209.961,0.000
1673144596.307,6.836,258.789,-13.672,41.504,0.000
1673144596.311,-253.906,-859.375,-14.160,-172.852,0.000
1673144596.315,-42.969,-990.234,-10.742,-39.062,0.000
1673144596.319,259.766,268.555,-3.906,202.148,0.000
1673144596.322,101.562,-996.094,-15.625,108.887,0.000
1673144596.326,-230.469,-244.629,-28.809,-154.297,0.000
1673144596.330,-141.113,-849.609,-27.344,-112.793,0.000
1673144596.334,197.754,404.297,-20.508,156.738,0.000
1673144596.338,203.613,-972.168,-20.020,187.500,0.000
1673144596.342,-214.844,-141.602,-29.297,-134.277,0.000
1673144596.346,-280.273,-1000.000,-17.578,-217.285,0.000
1673144596.350,249.512,-40.527,-5.371,169.922,0.000
1673144596.354,372.559,-916.504,-15.137,286.621,0.000
1673144596.358,-148.438,19.043,-24.902,-91.797,0.000
1673144596.361,-383.301,-1000.000,-18.555,-285.156,0.000
1673144596.365,94.238,-148.926,-10.742,41.504,0.000
1673144596.369,417.480,-877.441,-12.207,300.781,0.000
1673144596.373,-8.301,411.621,-20.508,20.508,0.000
1673144596.377,-423.828,-1000.000,-28.320,-299.805,0.000
1673144596.381,-74.707,-598.633,-17.090,-77.148,0.000
