timestamp,TP9,AF7,AF8,TP10,Right AUX
1673144717.041,148.926,-888.184,-39.062,165.039,0.000
1673144717.045,-157.227,34.180,-50.781,-76.660,0.000
1673144717.049,-189.941,-874.512,-47.852,-150.391,0.000
1673144717.053,105.957,205.078,-37.109,68.359,0.000
1673144717.057,193.359,-919.922,-39.551,158.203,0.000
1673144717.061,-84.473,60.059,-52.246,-65.918,0.000
1673144717.065,-238.770,-1000.000,-47.363,-215.332,0.000
1673144717.069,12.207,-403.809,-33.691,-9.277,0.000
1673144717.072,204.590,-984.375,-34.668,174.805,0.000
1673144717.076,-12.207,285.156,-40.527,35.645,0.000
1673144717.080,-239.746,-1000.000,-31.250,-137.695,0.000
1673144717.084,-75.684,-537.109,-31.250,-50.781,0.000
1673144717.088,189.941,748.535,-39.062,145.020,0.000
1673144717.092,74.219,797.852,-42.480,72.266,0.000
1673144717.096,-137.695,138.184,-44.922,-116.699,0.000
1673144717.100,-128.906,-112.793,-41.016,-133.301,0.000
1673144717.104,-2.930,152.344,-33.691,-11.719,0.000
1673144717.108,73.730,238.770,-32.227,71.289,0.000
1673144717.112,-39.551,75.195,-36.621,-31.250,0.000
1673144717.115,-147.949,-185.547,-35.645,-138.184,0.000
1673144717.119,20.996,-134.766,-32.227,1.953,0.000
1673144717.123,173.828,396.973,-33.203,152.344,0.000
1673144717.127,-71.289,362.793,-38.086,-15.137,0.000
1673144717.131,-250.977,-428.711,-41.504,-158.691,0.000
1673144717.135,-2.441,-462.891,-39.062,14.648,0.000
1673144717.139,222.656,596.191,-31.738,197.266,0.000
1673144717.143,30.762,814.941,-36.133,52.734,0.000
1673144717.147,-220.215,-200.684,-43.457,-159.180,0.000
1673144717.151,-76.172,-727.051,-41.504,-54.688,0.000
1673144717.154,211.426,87.891,-38.574,169.434,0.000
1673144717.158,120.605,784.668,-43.945,130.859,0.000
1673144717.162,-198.242,30.762,-48.340,-105.469,0.000
1673144717.166,-179.199,-1000.000,-42.969,-108.887,0.000
1673144717.170,124.023,-377.930,-34.668,141.113,0.000
1673144717.174,167.969,910.156,-37.598,205.078,0.000
1673144717.178,-127.441,13.672,-41.504,-27.344,0.000
1673144717.182,-276.367,-1000.000,-42.480,-157.715,0.000
1673144717.186,89.844,2.930,-46.387,111.328,0.000
1673144717.190,311.035,-829.590,-46.387,296.875,0.000
1673144717.194,-102.051,431.641,-51.758,2.441,0.000
1673144717.197,-383.789,-979.004,-52.734,-237.793,0.000
1673144717.201,-15.625,-633.301,-40.527,3.906,0.000
1673144717.205,337.891,861.328,-34.668,270.996,0.000
1673144717.209,33.691,651.367,-45.898,60.547,0.000
1673144717.213,-381.348,-880.371,-49.805,-260.742,0.000
1673144717.217,-143.066,-708.984,-39.062,-126.953,0.000
1673144717.221,325.195,791.016,-33.203,203.125,0.000
1673144717.225,186.523,821.777,-43.945,114.258,0.000
1673144717.229,-303.223,-583.984,-52.246,-255.859,0.000
1673144717.233,-258.789,-924.316,-42.480,-253.906,0.000
1673144717.236,235.352,380.371,-27.344,112.305,0.000
1673144717.240,292.480,-978.516,-32.227,203.613,0.000
1673144717.244,-186.523,-10.742,-44.434,-125.488,0.000
1673144717.248,-343.750,-1000.000,-42.969,-262.207,0.000
1673144717.252,101.074,-283.691,-31.250,60.547,0.000
1673144717.256,351.074,760.254,-30.762,267.578,0.000
1673144717.260,-47.852,-20.508,-41.016,-1.953,0.000
1673144717.264,-373.047,-966.797,-40.527,-258.789,0.000
1673144717.268,-12.695,-627.441,-21.973,-22.461,0.000
1673144717.272,371.094,708.984,-22.949,266.602,0.000
1673144717.276,87.402,903.809,-41.992,80.078,0.000
1673144717.279,-358.398,-407.715,-46.387,-254.883,0.000
1673144717.283,-176.270,-902.832,-41.992,-145.508,0.000
1673144717.287,293.945,377.441,-36.621,209.961,0.000
1673144717.291,203.125,-989.258,-38.574,172.852,0.000
1673144717.295,-284.668,-217.285,-42.969,-181.641,0.000
1673144717.299,-291.992,-1000.000,-34.668,-214.355,0.000
1673144717.303,191.406,-422.363,-22.461,144.043,0.000
1673144717.307,294.434,903.320,-26.855,248.535,0.000
1673144717.311,-167.480,496.094,-40.527,-78.613,0.000
1673144717.315,-375.000,-1000.000,-37.598,-238.281,0.000
1673144717.318,48.828,-346.191,-26.367,63.965,0.000
1673144717.322,345.215,-917.969,-33.203,298.340,0.000
1673144717.326,-24.902,647.949,-48.828,49.805,0.000
1673144717.330,-395.508,-786.621,-48.340,-230.957,0.000
1673144717.334,-81.055,-591.309,-28.320,-32.227,0.000
1673144717.338,343.262,904.785,-24.902,283.203,0.000
1673144717.342,100.098,755.371,-43.945,126.465,0.000
1673144717.346,-366.699,-678.711,-55.664,-230.957,0.000
1673144717.350,-212.402,-809.570,-44.922,-149.902,0.000
1673144717.354,200.684,513.184,-28.809,149.414,0.000
1673144717.358,168.457,-916.504,-35.156,157.227,0.000
1673144717.361,-136.719,-3.906,-43.457,-75.684,0.000
1673144717.365,-216.309,-929.688,-39.551,-166.992,0.000
1673144717.369,65.918,106.934,-31.738,51.270,0.000
1673144717.373,205.078,-968.262,-34.180,180.664,0.000
1673144717.377,-62.012,312.988,-42.480,-0.488,0.000
1673144717.381,-254.395,-567.383,-46.387,-165.527,0.000
1673144717.385,-27.344,-188.965,-41.016,-7.812,0.000
1673144717.389,200.195,729.004,-40.039,186.523,0.000
1673144717.393,16.602,122.559,-47.852,62.012,0.000
1673144717.397,-247.070,-1000.000,-44.922,-146.484,0.000
1673144717.401,-106.934,-602.051,-25.879,-69.824,0.000
1673144717.404,179.688,574.219,-28.320,145.020,0.000
1673144717.408,102.051,913.574,-45.898,106.934,0.000
1673144717.412,-198.242,4.883,-47.363,-130.859,0.000
1673144717.416,-187.012,-664.551,-38.574,-130.371,0.000
1673144717.420,120.117,88.379,-28.809,116.211,0.000
1673144717.424,183.105,917.969,-30.273,188.477,0.000
1673144717.428,-111.816,446.289,-36.133,-20.996,0.000
1673144717.432,-217.773,-491.211,-37.598,-121.582,0.000
1673144717.436,59.082,-528.320,-31.738,81.543,0.000
1673144717.440,211.426,405.273,-27.832,209.473,0.000
1673144717.443,-25.879,717.773,-35.645,20.508,0.000
1673144717.447,-240.723,-348.633,-41.016,-171.387,0.000
1673144717.451,-33.203,-710.938,-32.227,-36.133,0.000
1673144717.455,220.215,304.199,-31.738,167.969,0.000
1673144717.459,58.105,663.086,-37.109,58.594,0.000
1673144717.463,-227.539,-524.902,-42.969,-197.266,0.000
1673144717.467,-118.652,-807.129,-32.227,-142.578,0.000
1673144717.471,188.477,403.809,-18.066,115.723,0.000
1673144717.475,136.230,-924.805,-29.297,103.516,0.000
1673144717.479,-187.012,149.414,-40.527,-147.949,0.000
1673144717.483,-214.844,-944.336,-42.480,-192.871,0.000
1673144717.486,102.539,-142.578,-38.574,45.410,0.000
1673144717.490,185.059,-888.672,-36.133,143.555,0.000
1673144717.494,-106.445,408.691,-41.992,-68.848,0.000
1673144717.498,-237.305,-821.289,-41.992,-195.801,0.000
1673144717.502,23.438,-105.469,-31.738,-0.488,0.000
1673144717.506,200.195,-902.832,-32.227,165.039,0.000
1673144717.510,-35.645,407.227,-42.480,14.648,0.000
1673144717.514,-270.508,-935.547,-45.898,-184.082,0.000
1673144717.518,-84.473,-385.254,-37.598,-64.941,0.000
1673144717.522,191.895,852.539,-33.203,161.621,0.000
1673144717.525,71.289,643.555,-41.992,92.773,0.000
1673144717.529,-214.355,-659.668,-33.691,-127.441,0.000
1673144717.533,-154.297,-870.117,-25.879,-108.887,0.000
1673144717.537,136.230,424.805,-35.156,105.469,0.000
1673144717.541,145.508,780.762,-40.527,123.535,0.000
1673144717.545,-166.016,-166.016,-45.410,-126.465,0.000
1673144717.549,-266.113,-961.914,-41.016,-228.027,0.000
1673144717.553,137.207,-57.617,-32.227,55.176,0.000
1673144717.557,295.898,872.559,-30.762,201.660,0.000
1673144717.561,-147.949,-2.441,-38.086,-108.887,0.000
1673144717.565,-363.281,-999.023,-41.992,-312.988,0.000
1673144717.568,47.363,-398.438,-32.227,-26.367,0.000
1673144717.572,346.191,-981.445,-31.250,222.168,0.000
1673144717.576,-11.719,525.879,-38.086,-17.090,0.000
1673144717.580,-388.184,-877.441,-41.016,-313.477,0.000
1673144717.584,-92.773,-699.219,-41.016,-129.395,0.000
1673144717.588,334.473,576.660,-35.156,215.332,0.000
1673144717.592,120.605,932.617,-40.527,103.516,0.000
1673144717.596,-354.004,-237.305,-49.316,-254.883,0.000
1673144717.600,-233.887,-1000.000,-39.551,-194.824,0.000
1673144717.604,264.648,-84.961,-23.926,197.266,0.000
1673144717.607,241.211,-896.973,-31.250,222.168,0.000
1673144717.611,-240.234,149.414,-47.363,-140.625,0.000
1673144717.615,-308.594,-1000.000,-40.039,-221.191,0.000
1673144717.619,156.738,-44.922,-26.855,120.117,0.000
1673144717.623,322.754,-828.125,-29.785,260.742,0.000
1673144717.627,-117.188,197.754,-38.086,-39.551,0.000
1673144717.631,-383.789,-1000.000,-36.133,-237.793,0.000
1673144717.635,12.207,-307.617,-28.320,28.320,0.000
1673144717.639,354.492,-926.758,-27.344,295.410,0.000
1673144717.643,31.250,558.105,-32.715,89.844,0.000
1673144717.647,-369.629,-881.348,-37.109,-228.027,0.000
1673144717.650,-124.023,-669.922,-28.320,-90.332,0.000
1673144717.654,316.406,771.484,-21.484,250.000,0.000
1673144717.658,157.715,939.941,-31.738,164.551,0.000
1673144717.662,-324.219,-398.438,-42.480,-194.824,0.000
1673144717.666,-265.137,-1000.000,-38.086,-172.852,0.000
1673144717.670,229.004,190.918,-27.344,173.828,0.000
1673144717.674,268.066,-970.703,-34.180,224.121,0.000
1673144717.678,-205.566,-221.191,-45.410,-111.816,0.000
1673144717.682,-336.426,-1000.000,-42.480,-229.980,0.000
1673144717.686,110.352,39.062,-37.598,87.891,0.000
1673144717.690,336.914,-921.387,-40.039,289.062,0.000
1673144717.693,-61.035,-20.508,-43.945,24.414,0.000
1673144717.697,-361.328,-1000.000,-33.203,-230.957,0.000
1673144717.701,-19.043,-349.121,-27.344,-2.441,0.000
1673144717.705,338.379,938.965,-38.086,277.832,0.000
1673144717.709,56.152,750.000,-46.387,81.055,0.000
1673144717.713,-378.418,-557.129,-48.340,-264.160,0.000
1673144717.717,-183.594,-941.895,-38.574,-154.297,0.000
1673144717.721,285.156,208.984,-28.809,196.289,0.000
1673144717.725,181.641,968.750,-31.250,124.023,0.000
1673144717.729,-296.875,-117.676,-39.062,-254.395,0.000
1673144717.732,-275.391,-1000.000,-28.320,-262.695,0.000
1673144717.736,209.961,-417.969,-22.461,99.609,0.000
1673144717.740,294.922,696.777,-33.203,186.035,0.000
1673144717.744,-168.457,375.000,-43.457,-151.367,0.000
1673144717.748,-357.910,-1000.000,-41.992,-320.312,0.000
1673144717.752,69.336,-434.082,-29.785,-32.227,0.000
1673144717.756,340.820,-952.148,-27.344,189.453,0.000
1673144717.760,-40.527,569.824,-36.621,-71.777,0.000
1673144717.764,-394.531,-922.363,-45.898,-364.258,0.000
1673144717.768,-66.406,-709.961,-33.691,-155.762,0.000
1673144717.772,359.375,745.117,-20.996,162.109,0.000
1673144717.775,111.816,886.719,-34.668,22.949,0.000
1673144717.779,-359.863,-486.328,-46.387,-318.848,0.000
1673144717.783,-207.520,-927.246,-39.551,-255.371,0.000
1673144717.787,274.414,439.941,-26.855,102.539,0.000
1673144717.791,220.703,-978.516,-33.691,95.215,0.000
1673144717.795,-264.160,-253.418,-47.363,-257.324,0.000
1673144717.799,-314.453,-1000.000,-38.086,-326.172,0.000
1673144717.803,160.645,76.660,-27.344,8.301,0.000
1673144717.807,306.152,-860.352,-34.180,143.555,0.000
1673144717.811,-141.602,47.852,-40.039,-171.875,0.000
1673144717.814,-382.324,-1000.000,-35.645,-360.840,0.000
1673144717.818,12.695,-325.195,-23.438,-79.590,0.000
1673144717.822,328.613,-909.180,-21.973,180.176,0.000
1673144717.826,-1.953,263.184,-26.367,-32.227,0.000
1673144717.830,-394.531,-1000.000,-40.039,-338.379,0.000
1673144717.834,-125.488,-646.484,-40.527,-170.898,0.000
1673144717.838,316.406,742.188,-29.297,166.992,0.000
1673144717.842,126.465,801.270,-37.598,79.590,0.000
1673144717.846,-348.633,-566.895,-43.945,-248.535,0.000
1673144717.850,-246.582,-930.664,-39.062,-220.215,0.000
1673144717.854,250.488,385.742,-30.273,140.137,0.000
1673144717.857,272.461,941.895,-29.297,198.242,0.000
1673144717.861,-213.867,-256.348,-45.410,-160.645,0.000
1673144717.865,-330.078,-1000.000,-46.387,-269.531,0.000
1673144717.869,132.812,-126.465,-34.668,65.430,0.000
1673144717.873,332.520,939.941,-30.273,237.793,0.000
1673144717.877,-83.496,360.840,-36.621,-44.434,0.000
1673144717.881,-368.164,-949.707,-41.016,-265.137,0.000
1673144717.885,-0.977,-606.934,-33.691,-11.719,0.000
1673144717.889,354.492,755.371,-32.227,269.531,0.000
1673144717.893,50.293,730.469,-36.133,85.449,0.000
1673144717.896,-364.746,-605.469,-39.551,-231.445,0.000
1673144717.900,-140.625,-1000.000,-36.133,-100.098,0.000
1673144717.904,319.824,267.090,-31.738,243.652,0.000
1673144717.908,188.477,857.422,-39.062,175.293,0.000
1673144717.912,-301.758,-325.684,-46.387,-174.805,0.000
1673144717.916,-271.973,-1000.000,-44.434,-173.340,0.000
1673144717.920,213.867,-240.723,-31.738,180.664,0.000
1673144717.924,279.297,-959.473,-28.809,251.465,0.000
1673144717.928,-189.453,-90.820,-42.969,-88.867,0.000
1673144717.932,-330.078,-1000.000,-41.016,-215.332,0.000
1673144717.936,54.688,-243.164,-25.879,65.430,0.000
1673144717.939,238.770,944.336,-24.414,226.074,0.000
1673144717.943,-8.301,633.789,-34.668,43.457,0.000
1673144717.947,-252.441,-723.145,-41.992,-161.133,0.000
1673144717.951,-70.312,-757.812,-38.086,-34.668,0.000
1673144717.955,208.008,415.527,-40.527,182.617,0.000
1673144717.959,86.914,531.738,-47.363,92.285,0.000
1673144717.963,-204.590,-640.625,-46.387,-130.371,0.000
1673144717.967,-139.160,-794.922,-41.504,-88.379,0.000
1673144717.971,166.504,503.418,-34.668,151.855,0.000
1673144717.975,146.973,846.680,-36.621,170.898,0.000
1673144717.979,-143.555,-160.156,-32.715,-62.012,0.000
1673144717.982,-175.293,-702.148,-20.508,-134.277,0.000
1673144717.986,108.887,141.113,-20.508,72.754,0.000
1673144717.990,199.219,860.840,-28.809,166.016,0.000
1673144717.994,-73.242,224.121,-37.109,-28.320,0.000
1673144717.998,-221.680,-847.168,-29.297,-153.809,0.000
1673144718.002,19.043,-513.672,-29.785,28.809,0.000
1673144718.006,211.426,326.172,-42.480,214.844,0.000
1673144718.010,7.812,-25.879,-46.387,81.055,0.000
1673144718.014,-234.375,-658.691,-46.875,-136.719,0.000
1673144718.018,-77.637,-782.715,-43.945,-37.109,0.000
1673144718.021,194.336,327.637,-34.668,187.012,0.000
1673144718.025,83.496,960.938,-39.062,141.602,0.000
1673144718.029,-214.355,59.082,-44.922,-81.543,0.000
1673144718.033,-173.828,-592.285,-41.992,-90.332,0.000
1673144718.037,130.859,249.512,-37.109,145.020,0.000
1673144718.041,142.578,961.914,-38.574,171.875,0.000
1673144718.045,-92.773,238.281,-43.945,-20.508,0.000
1673144718.049,-148.438,-516.602,-39.551,-89.355,0.000
1673144718.053,-31.250,-724.121,-36.621,15.625,0.000
1673144718.057,71.289,109.375,-30.762,109.863,0.000
1673144718.061,-4.883,770.508,-36.133,31.250,0.000
1673144718.064,-126.953,-56.152,-43.457,-78.613,0.000
1673144718.068,-69.824,-487.793,-36.133,-32.715,0.000
1673144718.072,53.223,238.770,-36.133,84.473,0.000
1673144718.076,43.457,851.562,-41.992,81.543,0.000
1673144718.080,-124.023,48.340,-43.945,-69.824,0.000
1673144718.084,-114.746,-550.781,-37.598,-80.078,0.000
1673144718.088,170.898,567.383,-31.738,140.137,0.000
1673144718.092,138.184,891.113,-30.762,147.949,0.000
1673144718.096,-176.758,-395.996,-45.898,-102.051,0.000
1673144718.100,-181.641,-909.180,-53.711,-149.902,0.000
1673144718.103,125.000,286.621,-39.551,69.824,0.000
1673144718.107,181.641,-886.719,-40.527,141.602,0.000
1673144718.111,-108.887,128.418,-51.758,-61.523,0.000
1673144718.115,-219.727,-872.559,-46.387,-174.805,0.000
1673144718.119,64.453,61.523,-34.180,16.602,0.000
1673144718.123,221.191,-985.840,-30.762,166.504,0.000
1673144718.127,-30.762,410.645,-34.668,-3.906,0.000
1673144718.131,-242.188,-512.207,-41.016,-181.641,0.000
1673144718.135,-43.457,-281.738,-32.227,-48.340,0.000
1673144718.139,210.449,680.176,-19.531,148.926,0.000
1673144718.143,61.523,181.641,-27.344,61.523,0.000
1673144718.146,-225.586,-770.020,-37.109,-165.527,0.000
1673144718.150,-128.906,-362.793,-32.715,-115.234,0.000
1673144718.154,174.805,543.457,-32.715,133.789,0.000
1673144718.158,131.836,880.371,-41.016,137.207,0.000
1673144718.162,-180.664,138.672,-44.922,-101.074,0.000
1673144718.166,-196.777,-388.672,-42.969,-134.277,0.000
1673144718.170,37.109,-41.504,-43.945,43.945,0.000
1673144718.174,97.168,512.695,-39.062,114.258,0.000
1673144718.178,-12.207,609.863,-31.250,12.695,0.000
1673144718.182,-128.418,-73.730,-44.434,-99.609,0.000
1673144718.185,-48.828,-607.422,-52.734,-36.621,0.000
1673144718.189,72.754,-213.379,-43.457,78.613,0.000
1673144718.193,16.113,611.328,-39.062,43.457,0.000
1673144718.197,-111.816,245.605,-44.922,-60.547,0.000
1673144718.201,-80.078,-383.789,-44.434,-36.621,0.000
1673144718.205,64.453,-87.891,-33.203,72.754,0.000
1673144718.209,67.871,562.500,-28.809,85.938,0.000
1673144718.213,-68.359,287.109,-34.180,-28.320,0.000
1673144718.217,-111.328,-375.977,-31.250,-76.172,0.000
1673144718.221,11.719,109.375,-24.414,32.715,0.000
1673144718.225,77.637,822.754,-24.414,104.004,0.000
1673144718.228,-38.574,449.219,-21.484,-2.441,0.000
1673144718.232,-135.742,-551.758,-25.391,-86.426,0.000
1673144718.236,-25.879,-546.387,-28.809,-2.930,0.000
1673144718.240,83.496,424.316,-27.832,86.426,0.000
1673144718.244,-11.719,503.418,-32.227,8.301,0.000
1673144718.248,-127.441,-493.164,-31.250,-97.168,0.000
1673144718.252,-55.664,-365.723,-27.344,-34.668,0.000
1673144718.256,74.707,597.168,-28.809,81.543,0.000
1673144718.260,27.832,559.082,-35.645,49.316,0.000
1673144718.264,-112.305,-103.516,-35.645,-75.684,0.000
1673144718.267,-102.539,-156.738,-29.785,-72.266,0.000
1673144718.271,36.621,385.254,-26.855,64.453,0.000
1673144718.275,54.199,517.090,-29.785,89.844,0.000
1673144718.279,-85.938,-229.004,-33.691,-41.992,0.000
1673144718.283,-136.230,-554.199,-34.668,-103.516,0.000
1673144718.287,-3.418,136.719,-32.227,12.207,0.000
1673144718.291,85.938,88.379,-28.320,117.676,0.000
1673144718.295,-28.809,-536.133,-34.180,21.484,0.000
1673144718.299,-126.953,-523.926,-38.574,-91.797,0.000
1673144718.303,-18.066,-450.195,-33.691,-16.113,0.000
1673144718.307,94.727,116.211,-32.715,78.613,0.000
1673144718.310,20.996,326.172,-39.551,17.090,0.000
1673144718.314,-109.863,27.344,-41.504,-96.191,0.000
1673144718.318,-56.641,-115.234,-39.551,-55.176,0.000
1673144718.322,75.195,178.223,-39.062,73.730,0.000
1673144718.326,43.457,209.961,-37.109,61.523,0.000
1673144718.330,-93.750,-154.785,-39.551,-58.594,0.000
1673144718.334,-103.516,-269.043,-41.504,-63.965,0.000
1673144718.338,36.621,-503.418,-38.086,51.270,0.000
1673144718.342,82.031,94.238,-33.203,110.840,0.000
1673144718.346,-54.688,412.598,-38.086,21.484,0.000
1673144718.350,-126.953,-502.930,-43.457,-51.758,0.000
1673144718.353,-6.348,-297.852,-38.574,41.992,0.000
1673144718.357,78.125,651.367,-36.133,125.977,0.000
1673144718.361,-32.227,536.621,-40.527,26.367,0.000
1673144718.365,-138.672,-331.055,-41.992,-84.473,0.000
1673144718.369,-44.434,-391.113,-39.062,-10.742,0.000
1673144718.373,78.125,209.961,-32.227,108.887,0.000
1673144718.377,14.648,260.742,-34.180,44.922,0.000
1673144718.381,-108.887,-512.207,-41.016,-69.824,0.000
1673144718.385,-73.730,-800.781,-34.668,-38.574,0.000
1673144718.389,63.965,305.664,-31.250,80.566,0.000
1673144718.392,56.641,512.695,-36.621,91.797,0.000
1673144718.396,-77.637,-188.965,-35.645,-44.922,0.000
1673144718.400,-106.934,-337.402,-38.574,-79.590,0.000
1673144718.404,24.902,51.270,-32.715,70.801,0.000
1673144718.408,94.238,302.246,-24.414,154.297,0.000
1673144718.412,-37.109,16.602,-40.527,29.297,0.000
1673144718.416,-130.859,-310.059,-48.340,-66.895,0.000
1673144718.420,-12.695,-293.945,-43.945,19.043,0.000
1673144718.424,94.727,98.145,-43.457,90.820,0.000
1673144718.428,-19.043,-286.133,-51.270,-9.766,0.000
1673144718.432,-143.066,-664.551,-51.758,-133.301,0.000
1673144718.435,-59.570,-20.996,-40.527,-58.105,0.000
1673144718.439,69.336,299.316,-41.504,87.891,0.000
1673144718.443,22.949,260.254,-47.852,54.199,0.000
1673144718.447,-107.422,21.973,-42.480,-66.895,0.000
1673144718.451,-90.820,-158.691,-40.527,-50.781,0.000
1673144718.455,36.133,30.762,-44.434,67.383,0.000
1673144718.459,62.988,336.914,-44.922,103.027,0.000
1673144718.463,-140.625,-255.371,-50.293,-55.664,0.000
1673144718.467,-170.410,-943.359,-53.223,-105.469,0.000
1673144718.471,132.812,-375.488,-47.852,118.164,0.000
1673144718.474,161.621,151.367,-36.133,164.062,0.000
1673144718.478,-138.672,-21.484,-42.480,-83.496,0.000
1673144718.482,-226.562,-708.496,-50.781,-177.246,0.000
1673144718.486,52.734,-430.176,-45.898,38.086,0.000
1673144718.490,183.594,649.902,-53.711,157.227,0.000
1673144718.494,-70.801,530.762,-59.570,-24.414,0.000
1673144718.498,-250.977,-700.195,-56.641,-196.777,0.000
1673144718.502,-22.461,-591.309,-47.363,-51.758,0.000
1673144718.506,212.402,711.426,-41.992,149.414,0.000
1673144718.510,26.367,739.258,-45.898,37.598,0.000
1673144718.514,-239.258,-569.336,-52.734,-186.523,0.000
1673144718.517,-100.098,-1000.000,-52.734,-122.559,0.000
1673144718.521,193.359,-12.207,-47.363,84.961,0.000
1673144718.525,115.723,925.293,-52.734,56.641,0.000
1673144718.529,-196.777,-212.891,-58.594,-156.738,0.000
1673144718.533,-190.918,-986.328,-53.711,-158.691,0.000
1673144718.537,130.371,117.188,-41.992,79.590,0.000
1673144718.541,172.363,-950.684,-45.898,138.672,0.000
1673144718.545,-146.973,66.406,-57.617,-73.730,0.000
1673144718.549,-254.883,-1000.000,-53.223,-180.176,0.000
1673144718.553,38.574,-340.332,-42.480,18.555,0.000
1673144718.556,203.613,818.359,-45.410,149.414,0.000
1673144718.560,-52.246,34.180,-59.082,-36.621,0.000
1673144718.564,-262.207,-1000.000,-55.176,-219.727,0.000
1673144718.568,-47.363,-533.203,-45.410,-96.191,0.000
1673144718.572,204.102,485.352,-42.480,112.305,0.000
1673144718.576,44.434,311.035,-43.457,14.160,0.000
1673144718.580,-236.816,-761.230,-50.781,-215.820,0.000
1673144718.584,-129.395,-799.805,-47.852,-164.062,0.000
1673144718.588,157.715,398.926,-39.551,72.754,0.000
1673144718.592,98.145,779.297,-43.945,62.988,0.000
1673144718.596,-187.988,-145.020,-49.316,-163.574,0.000
1673144718.599,-190.430,-764.160,-35.156,-187.988,0.000
1673144718.603,104.004,4.395,-32.227,51.270,0.000
1673144718.607,181.641,525.391,-47.363,134.277,0.000
1673144718.611,-96.680,-86.426,-47.363,-78.613,0.000
1673144718.615,-229.980,-729.004,-45.410,-203.613,0.000
1673144718.619,41.992,-436.523,-34.180,-2.930,0.000
1673144718.623,233.398,439.941,-28.809,169.922,0.000
1673144718.627,-21.973,367.676,-50.781,-0.977,0.000
1673144718.631,-265.137,-690.918,-55.664,-202.148,0.000
1673144718.635,-71.289,-843.750,-48.340,-78.613,0.000
1673144718.639,193.848,126.953,-45.898,142.090,0.000
1673144718.642,62.012,709.961,-48.828,67.871,0.000
1673144718.646,-220.703,-288.574,-50.781,-140.137,0.000
1673144718.650,-135.254,-957.520,-43.457,-85.449,0.000
1673144718.654,83.008,-515.625,-39.062,105.469,0.000
1673144718.658,87.402,163.086,-45.410,149.902,0.000
1673144718.662,-33.203,185.059,-53.223,34.180,0.000
1673144718.666,-126.953,-646.484,-52.246,-63.477,0.000
1673144718.670,-29.785,-477.539,-46.387,31.250,0.000
1673144718.674,78.125,257.812,-44.922,140.137,0.000
1673144718.678,-18.555,38.086,-46.875,62.988,0.000
1673144718.681,-132.812,-673.828,-46.387,-47.852,0.000
1673144718.685,-47.363,-845.215,-45.898,8.301,0.000
1673144718.689,86.426,105.469,-43.945,134.277,0.000
1673144718.693,41.504,527.832,-40.527,117.188,0.000
1673144718.697,-97.656,-205.566,-46.875,-14.160,0.000
1673144718.701,-81.055,-704.590,-52.734,-16.602,0.000
1673144718.705,44.434,-66.406,-48.340,99.609,0.000
1673144718.709,67.871,448.242,-45.410,135.742,0.000
1673144718.713,-59.570,-207.520,-45.410,12.695,0.000
1673144718.717,-121.582,-462.891,-41.504,-60.059,0.000
1673144718.721,11.719,35.156,-40.527,55.176,0.000
1673144718.724,85.938,207.031,-40.527,127.441,0.000
1673144718.728,-37.109,-377.441,-41.504,11.230,0.000
1673144718.732,-131.836,-515.137,-46.875,-83.496,0.000
1673144718.736,-31.250,-67.383,-46.387,7.812,0.000
1673144718.740,79.590,140.137,-39.551,121.094,0.000
1673144718.744,10.254,67.871,-43.945,58.594,0.000
1673144718.748,-121.094,-410.645,-46.387,-68.359,0.000
1673144718.752,-59.082,-589.355,-41.504,-16.113,0.000
1673144718.756,73.730,-264.160,-36.621,100.586,0.000
1673144718.760,23.926,96.680,-40.039,67.871,0.000
1673144718.763,-103.027,141.602,-47.363,-58.594,0.000
1673144718.767,-101.562,-323.730,-47.852,-77.637,0.000
1673144718.771,38.574,-584.961,-36.133,46.875,0.000
1673144718.775,81.055,-135.254,-32.715,75.684,0.000
1673144718.779,-66.895,286.621,-47.852,-70.801,0.000
1673144718.783,-144.043,-254.883,-56.152,-143.066,0.000
1673144718.787,-2.930,-204.102,-40.527,-6.836,0.000
1673144718.791,80.566,345.703,-37.109,78.125,0.000
1673144718.795,-39.551,-0.488,-53.223,-27.832,0.000
1673144718.799,-127.441,-688.477,-48.828,-99.121,0.000
1673144718.803,-37.598,-589.844,-42.480,-32.715,0.000
1673144718.806,72.266,335.938,-45.410,64.453,0.000
1673144718.810,2.930,639.648,-44.922,7.324,0.000
1673144718.814,-116.699,-196.777,-41.016,-100.586,0.000
1673144718.818,-72.754,-750.977,-41.504,-81.543,0.000
1673144718.822,59.082,100.098,-37.109,18.555,0.000
1673144718.826,45.410,758.789,-36.621,28.809,0.000
1673144718.830,-97.656,-47.852,-43.457,-86.426,0.000
1673144718.834,-122.070,-603.516,-39.062,-118.164,0.000
1673144718.838,12.695,104.980,-37.598,1.953,0.000
1673144718.842,72.754,383.301,-42.969,57.129,0.000
1673144718.845,-51.758,-340.820,-44.922,-62.012,0.000
1673144718.849,-116.211,-689.453,-37.598,-138.184,0.000
1673144718.853,-9.277,-216.797,-31.738,-30.762,0.000
1673144718.857,75.195,454.102,-33.203,70.312,0.000
1673144718.861,-58.594,-45.410,-38.574,-36.133,0.000
1673144718.865,-223.633,-1000.000,-32.715,-179.688,0.000
1673144718.869,13.672,-101.562,-24.414,-27.344,0.000
1673144718.873,222.168,945.801,-28.320,153.809,0.000
1673144718.877,-10.742,507.812,-31.250,11.230,0.000
1673144718.881,-250.000,-511.230,-35.156,-199.707,0.000
1673144718.885,-73.730,-390.625,-32.227,-97.656,0.000
1673144718.888,197.754,478.516,-27.344,104.980,0.000
1673144718.892,85.938,465.332,-32.227,29.785,0.000
1673144718.896,-215.332,-365.723,-36.133,-194.824,0.000
1673144718.900,-166.992,-551.758,-31.250,-172.852,0.000
1673144718.904,142.090,305.664,-26.855,70.801,0.000
1673144718.908,148.926,332.520,-27.832,122.559,0.000
1673144718.912,-145.020,-334.961,-34.180,-103.027,0.000
1673144718.916,-206.055,-620.117,-35.156,-179.199,0.000
1673144718.920,82.520,-142.090,-27.344,43.457,0.000
1673144718.924,194.824,726.074,-28.809,149.414,0.000
1673144718.928,-63.477,470.703,-43.945,-50.293,0.000
1673144718.931,-239.258,-561.035,-38.574,-185.059,0.000
1673144718.935,0.977,-772.949,-25.391,4.883,0.000
1673144718.939,218.262,149.414,-39.551,169.434,0.000
1673144718.943,13.184,549.316,-51.758,24.414,0.000
1673144718.947,-249.023,-331.543,-54.199,-185.059,0.000
1673144718.951,-109.863,-1000.000,-51.758,-91.309,0.000
1673144718.955,182.617,-333.008,-47.363,140.137,0.000
1673144718.959,102.539,799.805,-45.410,91.309,0.000
1673144718.963,-200.195,-46.387,-47.363,-150.879,0.000
1673144718.967,-177.246,-959.961,-41.504,-151.855,0.000
1673144718.970,124.023,137.207,-30.273,96.680,0.000
1673144718.974,163.574,-916.016,-34.180,155.273,0.000
1673144718.978,-120.117,196.777,-38.574,-63.477,0.000
1673144718.982,-206.543,-1000.000,-33.203,-159.180,0.000
1673144718.986,50.293,-375.000,-34.668,21.973,0.000
1673144718.990,192.383,979.980,-39.062,145.508,0.000
1673144718.994,-35.156,497.559,-45.898,-31.250,0.000
1673144718.998,-232.910,-904.785,-50.293,-215.332,0.000
1673144719.002,-30.762,-529.785,-38.574,-71.289,0.000
1673144719.006,215.820,828.125,-32.227,138.184,0.000
1673144719.010,49.805,641.602,-39.062,46.387,0.000
1673144719.013,-229.492,-600.098,-42.480,-162.598,0.000
1673144719.017,-114.746,-632.812,-32.715,-98.633,0.000
1673144719.021,181.152,338.379,-29.297,136.230,0.000
1673144719.025,124.023,541.992,-34.668,137.695,0.000
1673144719.029,-187.012,-541.504,-35.645,-88.867,0.000
1673144719.033,-194.336,-1000.000,-29.785,-127.930,0.000
1673144719.037,107.422,180.176,-24.902,92.773,0.000
1673144719.041,181.152,532.227,-32.715,180.664,0.000
1673144719.045,-100.586,-518.066,-35.645,-15.137,0.000
1673144719.049,-231.934,-938.477,-31.250,-135.254,0.000
1673144719.052,29.297,-506.348,-26.367,54.688,0.000
1673144719.056,205.566,567.383,-22.461,213.867,0.000
1673144719.060,-21.973,598.633,-28.320,55.176,0.000
1673144719.064,-246.094,-402.832,-34.180,-146.973,0.000
1673144719.068,-65.430,-469.238,-25.391,-29.297,0.000
1673144719.072,185.059,400.391,-21.484,176.758,0.000
1673144719.076,51.758,409.180,-29.297,94.238,0.000
1673144719.080,-224.609,-598.633,-28.320,-107.910,0.000
1673144719.084,-145.996,-919.434,-25.391,-75.195,0.000
1673144719.088,159.668,-378.906,-24.414,143.066,0.000
1673144719.092,147.949,463.867,-21.973,172.363,0.000
1673144719.095,-138.672,265.625,-28.809,-47.852,0.000
1673144719.099,-188.965,-803.711,-30.273,-113.281,0.000
1673144719.103,95.215,-222.656,-24.414,105.957,0.000
1673144719.107,201.660,-996.094,-24.902,207.520,0.000
1673144719.111,-77.148,459.473,-30.273,8.301,0.000
1673144719.115,-235.840,-822.266,-31.738,-142.090,0.000
1673144719.119,11.719,-432.617,-25.879,30.273,0.000
1673144719.123,205.566,739.746,-28.320,191.895,0.000
1673144719.127,-5.859,406.738,-34.668,37.109,0.000
1673144719.131,-241.699,-797.852,-39.062,-155.273,0.000
1673144719.134,-88.379,-749.512,-34.180,-49.805,0.000
1673144719.138,175.293,630.371,-29.785,168.457,0.000
1673144719.142,76.172,768.555,-39.551,112.305,0.000
1673144719.146,-218.262,-554.688,-46.875,-125.977,0.000
1673144719.150,-171.387,-875.488,-41.504,-118.652,0.000
1673144719.154,138.184,347.656,-34.180,125.488,0.000
1673144719.158,161.133,984.863,-34.668,161.621,0.000
1673144719.162,-141.113,29.785,-35.156,-60.547,0.000
1673144719.166,-225.586,-800.293,-37.598,-147.949,0.000
1673144719.170,66.895,-238.281,-36.133,65.430,0.000
1673144719.174,199.219,697.266,-42.480,184.570,0.000
1673144719.177,-69.336,-120.117,-45.410,-10.742,0.000
1673144719.181,-242.676,-1000.000,-39.551,-173.828,0.000
1673144719.185,-15.137,-282.715,-34.180,-19.531,0.000
1673144719.189,208.496,582.520,-34.180,181.641,0.000
1673144719.193,28.320,486.816,-40.039,77.637,0.000
1673144719.197,-237.793,-341.797,-42.969,-145.020,0.000
1673144719.201,-104.980,-463.867,-41.016,-82.520,0.000
1673144719.205,187.012,352.051,-26.855,160.156,0.000
1673144719.209,107.910,683.594,-21.973,127.441,0.000
1673144719.213,-129.395,151.855,-37.598,-67.871,0.000
1673144719.216,-141.113,-544.922,-46.387,-106.934,0.000
1673144719.220,-13.184,-724.609,-42.969,15.625,0.000
1673144719.224,77.637,-392.578,-41.016,112.793,0.000
1673144719.228,-30.273,208.496,-42.969,10.254,0.000
1673144719.232,-121.094,-53.711,-37.109,-82.520,0.000
1673144719.236,-12.695,-437.500,-32.715,1.953,0.000
1673144719.240,91.797,89.355,-36.621,91.309,0.000
1673144719.244,2.441,370.605,-41.016,13.672,0.000
1673144719.248,-120.605,-371.582,-44.434,-105.957,0.000
1673144719.252,-58.594,-528.320,-37.598,-62.500,0.000
1673144719.256,58.594,274.414,-35.645,64.941,0.000
1673144719.259,37.109,628.418,-35.645,65.430,0.000
1673144719.263,-90.332,-142.578,-36.621,-63.477,0.000
1673144719.267,-119.629,-894.531,-41.992,-103.516,0.000
1673144719.271,21.484,-258.789,-37.598,16.602,0.000
1673144719.275,76.660,756.836,-28.809,70.801,0.000
1673144719.279,-52.246,212.402,-33.203,-48.340,0.000
1673144719.283,-117.188,-552.246,-39.062,-135.254,0.000
1673144719.287,-5.859,-31.738,-30.273,-30.273,0.000
1673144719.291,92.285,653.320,-26.367,71.777,0.000
1673144719.295,-15.625,304.199,-38.086,-17.578,0.000
1673144719.299,-128.906,-546.387,-44.434,-133.789,0.000
1673144719.302,-36.133,-454.590,-34.668,-77.148,0.000
1673144719.306,81.543,395.508,-32.227,27.344,0.000
1673144719.310,22.949,35.156,-43.457,-20.508,0.000
1673144719.314,-98.145,-793.457,-41.504,-133.789,0.000
1673144719.318,-63.477,-361.328,-33.691,-126.953,0.000
1673144719.322,68.359,324.707,-37.109,-0.977,0.000
1673144719.326,63.477,369.629,-41.016,37.109,0.000
1673144719.330,-78.613,-312.988,-44.434,-83.008,0.000
1673144719.334,-115.234,-588.379,-44.434,-132.812,0.000
1673144719.338,12.207,-15.137,-39.062,-27.832,0.000
1673144719.341,82.031,432.617,-33.691,49.805,0.000
1673144719.345,-25.391,203.125,-36.133,-41.992,0.000
1673144719.349,-107.910,-199.707,-38.574,-135.742,0.000
1673144719.353,-2.441,-136.719,-32.227,-35.645,0.000
1673144719.357,94.238,54.688,-29.297,89.355,0.000
1673144719.361,-0.977,-103.516,-34.180,20.996,0.000
1673144719.365,-117.676,-477.051,-36.621,-81.543,0.000
1673144719.369,-41.504,-410.645,-39.551,-3.906,0.000
1673144719.373,81.543,-231.445,-38.086,116.211,0.000
1673144719.377,33.203,201.172,-33.691,74.707,0.000
1673144719.381,-104.004,199.707,-34.180,-45.898,0.000
1673144719.384,-87.402,-391.602,-36.133,-40.527,0.000
1673144719.388,40.039,-109.863,-36.621,88.379,0.000
1673144719.392,52.734,565.430,-35.156,103.516,0.000
1673144719.396,-76.660,324.219,-37.598,-37.598,0.000
1673144719.400,-128.418,-477.051,-41.504,-104.980,0.000
1673144719.404,5.859,-544.922,-41.504,4.395,0.000
1673144719.408,88.867,236.816,-37.109,87.402,0.000
1673144719.412,-35.645,214.844,-41.992,-16.113,0.000
1673144719.416,-147.461,-753.906,-46.387,-117.676,0.000
1673144719.420,-39.062,-663.574,-37.598,-28.809,0.000
1673144719.423,85.449,248.047,-34.668,94.238,0.000
1673144719.427,-5.859,268.066,-34.180,36.133,0.000
1673144719.431,-133.301,-291.504,-36.133,-87.402,0.000
1673144719.435,-66.895,-264.648,-37.109,-43.457,0.000
1673144719.439,66.406,483.398,-33.203,83.984,0.000
1673144719.443,50.781,668.457,-36.133,77.148,0.000
1673144719.447,-83.984,-64.453,-43.945,-56.152,0.000
1673144719.451,-84.961,-621.582,-39.062,-76.660,0.000
1673144719.455,57.129,-85.449,-29.785,56.152,0.000
1673144719.459,79.102,593.750,-35.645,113.281,0.000
1673144719.463,-50.293,-189.453,-44.922,-9.277,0.000
1673144719.466,-120.605,-713.867,-40.039,-99.609,0.000
1673144719.470,-16.602,-28.320,-39.062,-4.395,0.000
1673144719.474,83.984,482.910,-37.109,87.891,0.000
1673144719.478,-11.719,266.602,-21.973,25.879,0.000
1673144719.482,-126.953,-94.238,-30.762,-73.730,0.000
1673144719.486,-42.969,37.109,-41.992,-18.555,0.000
1673144719.490,71.289,367.188,-38.086,101.074,0.000
1673144719.494,11.719,375.977,-43.457,70.312,0.000
1673144719.498,-184.082,-476.074,-49.316,-110.840,0.000
1673144719.502,-72.266,-570.801,-41.992,-61.523,0.000
1673144719.505,207.031,343.750,-35.645,167.480,0.000
1673144719.509,59.570,146.484,-37.109,92.285,0.000
1673144719.513,-230.469,-273.926,-41.504,-144.043,0.000
1673144719.517,-127.930,-645.508,-40.527,-98.633,0.000
1673144719.521,166.992,104.980,-34.180,137.695,0.000
1673144719.525,136.230,809.570,-37.109,135.742,0.000
1673144719.529,-157.227,71.777,-38.086,-98.145,0.000
1673144719.533,-202.637,-687.012,-37.598,-157.715,0.000
1673144719.537,81.055,-80.078,-36.621,61.523,0.000
1673144719.541,181.152,937.500,-36.133,161.621,0.000
1673144719.545,-85.449,232.910,-43.457,-49.316,0.000
1673144719.548,-238.770,-903.809,-37.598,-190.430,0.000
1673144719.552,24.414,-915.039,-23.438,-5.859,0.000
1673144719.556,217.285,328.125,-32.227,149.902,0.000
1673144719.560,-12.695,882.324,-47.852,1.465,0.000
1673144719.564,-244.141,-444.824,-44.434,-179.688,0.000
1673144719.568,-76.172,-633.789,-32.715,-74.219,0.000
1673144719.572,186.523,681.641,-24.414,129.395,0.000
1673144719.576,101.074,998.535,-31.250,82.520,0.000
1673144719.580,-254.395,-260.742,-48.340,-192.871,0.000
1673144719.584,-217.773,-831.543,-44.434,-190.918,0.000
1673144719.588,265.625,529.297,-32.227,174.316,0.000
1673144719.591,245.117,-997.070,-38.086,183.105,0.000
1673144719.595,-265.625,-302.246,-50.781,-177.734,0.000
1673144719.599,-305.664,-1000.000,-44.922,-219.238,0.000
1673144719.603,121.582,132.324,-30.273,78.613,0.000
1673144719.607,230.957,-851.074,-33.203,187.988,0.000
1673144719.611,-58.105,364.746,-41.016,-20.996,0.000
1673144719.615,-301.758,-932.129,-41.504,-235.352,0.000
1673144719.619,15.137,-154.297,-34.668,-31.738,0.000
1673144719.623,352.051,-881.836,-33.691,238.770,0.000
1673144719.627,6.836,579.590,-41.992,9.277,0.000
1673144719.630,-350.098,-656.250,-45.898,-267.090,0.000
1673144719.634,-74.707,-593.262,-38.086,-80.078,0.000
1673144719.638,315.430,676.758,-32.715,221.680,0.000
1673144719.642,129.883,653.320,-39.551,132.324,0.000
1673144719.646,-262.695,-288.086,-46.875,-166.016,0.000
1673144719.650,-184.570,-451.660,-32.715,-149.414,0.000
1673144719.654,126.465,254.395,-21.484,87.891,0.000
1673144719.658,143.555,864.746,-34.180,133.301,0.000
1673144719.662,-146.973,335.938,-47.852,-82.520,0.000
1673144719.666,-223.633,-415.527,-44.922,-172.363,0.000
1673144719.670,45.410,-139.160,-37.109,24.414,0.000
1673144719.673,184.082,667.969,-37.598,159.668,0.000
1673144719.677,-49.805,693.848,-39.551,-11.719,0.000
1673144719.681,-249.023,-253.418,-37.109,-184.570,0.000
1673144719.685,-42.969,-658.691,-29.297,-42.480,0.000
1673144719.689,200.684,127.441,-27.832,153.320,0.000
1673144719.693,38.086,704.590,-33.203,43.457,0.000
1673144719.697,-237.793,-207.520,-41.992,-185.547,0.000
1673144719.701,-121.582,-696.289,-33.203,-117.676,0.000
1673144719.705,171.875,241.211,-30.273,138.184,0.000
1673144719.709,125.977,984.863,-36.621,138.672,0.000
1673144719.712,-173.340,173.828,-36.621,-102.051,0.000
1673144719.716,-191.895,-683.594,-32.715,-143.066,0.000
1673144719.720,116.211,213.867,-30.762,94.238,0.000
1673144719.724,182.129,-877.441,-37.109,173.340,0.000
1673144719.728,-106.445,416.016,-41.504,-49.316,0.000
1673144719.732,-232.910,-846.191,-43.457,-185.059,0.000
1673144719.736,24.902,-360.352,-34.180,4.883,0.000
1673144719.740,205.078,-996.094,-33.691,167.480,0.000
1673144719.744,-18.066,598.145,-43.457,9.766,0.000
1673144719.748,-231.445,-818.359,-45.898,-182.617,0.000
1673144719.752,-53.223,-544.922,-37.598,-78.125,0.000
1673144719.755,188.965,842.285,-34.180,137.695,0.000
1673144719.759,60.547,712.402,-44.922,77.637,0.000
1673144719.763,-225.586,-689.453,-53.223,-153.809,0.000
1673144719.767,-140.137,-745.605,-41.504,-132.324,0.000
1673144719.771,160.645,533.203,-32.227,96.191,0.000
1673144719.775,137.207,829.590,-39.551,111.816,0.000
1673144719.779,-168.457,-327.148,-48.828,-116.211,0.000
1673144719.783,-228.516,-1000.000,-46.875,-179.688,0.000
1673144719.787,71.777,71.777,-33.691,37.109,0.000
1673144719.791,188.965,818.359,-29.785,144.043,0.000
1673144719.794,-93.262,223.633,-37.598,-54.199,0.000
1673144719.798,-256.348,-650.879,-40.527,-207.031,0.000
1673144719.802,0.000,-475.098,-31.250,-45.410,0.000
1673144719.806,194.824,263.184,-32.227,131.348,0.000
1673144719.810,-12.207,191.895,-38.086,-9.277,0.000
1673144719.814,-244.141,-298.828,-38.086,-212.891,0.000
1673144719.818,-88.379,-409.668,-31.738,-100.098,0.000
1673144719.822,194.824,507.812,-23.926,134.766,0.000
1673144719.826,104.980,663.086,-27.832,87.402,0.000
1673144719.830,-208.496,-245.605,-35.645,-148.926,0.000
1673144719.834,-186.035,-625.977,-34.180,-152.832,0.000
1673144719.837,122.070,70.801,-22.461,99.609,0.000
1673144719.841,155.762,960.449,-20.996,154.785,0.000
1673144719.845,-156.250,494.629,-41.504,-94.727,0.000
1673144719.849,-239.746,-655.273,-45.410,-184.570,0.000
1673144719.853,56.641,-484.375,-37.598,31.738,0.000
1673144719.857,205.566,861.816,-37.598,158.203,0.000
1673144719.861,-53.223,515.625,-42.969,-25.391,0.000
1673144719.865,-248.535,-836.914,-40.039,-182.617,0.000
1673144719.869,-23.926,-459.473,-35.156,-41.992,0.000
1673144719.873,196.777,737.305,-35.156,132.812,0.000
1673144719.877,42.480,645.020,-39.551,47.852,0.000
1673144719.880,-294.434,-645.508,-46.387,-203.613,0.000
1673144719.884,-148.438,-632.812,-34.180,-123.047,0.000
1673144719.888,312.988,833.008,-18.066,210.449,0.000
1673144719.892,145.508,868.652,-38.086,120.605,0.000
1673144719.896,-358.398,-535.645,-60.059,-247.559,0.000
1673144719.900,-285.645,-871.582,-54.688,-235.840,0.000
1673144719.904,214.355,466.309,-42.480,118.652,0.000
1673144719.908,247.559,-915.527,-44.922,176.758,0.000
1673144719.912,-230.957,-46.875,-57.129,-162.598,0.000
1673144719.916,-364.746,-1000.000,-57.129,-301.270,0.000
1673144719.919,87.891,-199.707,-44.922,5.859,0.000
1673144719.923,314.453,-922.852,-45.898,200.195,0.000
1673144719.927,-83.984,363.770,-53.223,-83.496,0.000
1673144719.931,-385.742,-1000.000,-47.363,-318.359,0.000
1673144719.935,-27.344,-295.410,-40.527,-61.035,0.000
1673144719.939,357.910,-952.148,-45.410,229.980,0.000
1673144719.943,54.688,467.285,-55.176,41.992,0.000
1673144719.947,-390.137,-775.391,-57.129,-285.645,0.000
1673144719.951,-177.246,-701.660,-48.828,-167.480,0.000
1673144719.955,214.844,447.754,-42.480,119.629,0.000
1673144719.959,135.254,947.754,-45.898,89.355,0.000
1673144719.962,-180.176,192.383,-50.781,-151.367,0.000
1673144719.966,-208.496,-775.879,-47.852,-204.102,0.000
1673144719.970,84.961,-417.480,-40.039,23.438,0.000
1673144719.974,169.922,604.980,-40.527,105.957,0.000
1673144719.978,-98.145,520.996,-42.969,-99.609,0.000
1673144719.982,-242.676,-383.301,-42.969,-225.586,0.000
1673144719.986,4.883,-683.594,-41.016,-27.344,0.000
1673144719.990,202.637,142.090,-38.086,150.391,0.000
1673144719.994,-15.137,816.895,-43.945,-2.441,0.000
1673144719.998,-250.488,-304.199,-50.781,-191.895,0.000
1673144720.001,-77.148,-619.141,-41.016,-65.918,0.000
1673144720.005,189.941,586.914,-34.180,153.809,0.000
1673144720.009,77.637,946.777,-42.969,75.195,0.000
1673144720.013,-207.520,-360.352,-47.852,-152.344,0.000
1673144720.017,-155.273,-911.621,-42.480,-142.090,0.000
1673144720.021,150.391,337.402,-35.645,73.730,0.000
1673144720.025,152.344,-916.016,-36.621,99.609,0.000
1673144720.029,-154.297,-2.930,-41.992,-125.000,0.000
1673144720.033,-208.008,-988.770,-39.551,-201.660,0.000
1673144720.037,81.055,22.461,-35.645,4.395,0.000
1673144720.041,187.500,-866.211,-35.645,119.629,0.000
1673144720.044,-84.961,345.703,-45.410,-83.496,0.000
1673144720.048,-248.047,-855.957,-42.480,-247.070,0.000
1673144720.052,6.348,-222.168,-18.066,-70.801,0.000
1673144720.056,220.703,965.332,-28.809,99.121,0.000
1673144720.060,8.789,288.574,-53.711,-41.992,0.000
1673144720.064,-249.023,-1000.000,-50.293,-243.652,0.000
1673144720.068,-98.633,-571.289,-40.039,-153.809,0.000
1673144720.072,197.754,729.492,-40.527,81.543,0.000
1673144720.076,111.816,490.234,-51.758,43.457,0.000
1673144720.080,-207.031,-899.414,-51.758,-177.734,0.000
1673144720.083,-173.340,-983.398,-44.434,-187.500,0.000
1673144720.087,138.184,111.328,-42.969,33.203,0.000
1673144720.091,168.457,942.871,-46.387,88.867,0.000
1673144720.095,-124.512,271.484,-50.293,-122.070,0.000
1673144720.099,-221.191,-607.910,-47.852,-231.445,0.000
1673144720.103,53.223,-60.547,-39.062,-44.922,0.000
1673144720.107,200.684,672.852,-37.598,85.449,0.000
1673144720.111,-47.363,280.762,-39.551,-84.473,0.000
1673144720.115,-238.281,-422.852,-39.062,-237.305,0.000
1673144720.119,-19.043,-389.160,-37.109,-80.566,0.000
1673144720.123,204.102,257.812,-33.691,122.559,0.000
1673144720.126,31.250,611.328,-35.645,13.184,0.000
1673144720.130,-235.352,-90.332,-40.039,-207.520,0.000
1673144720.134,-116.699,-586.426,-40.527,-145.508,0.000
1673144720.138,179.688,255.859,-38.086,84.473,0.000
1673144720.142,119.629,875.977,-42.480,59.082,0.000
1673144720.146,-176.758,155.762,-49.316,-174.316,0.000
1673144720.150,-180.664,-751.465,-40.527,-190.430,0.000
1673144720.154,112.793,-244.141,-27.832,53.223,0.000
1673144720.158,161.621,802.246,-29.785,116.699,0.000
1673144720.162,-73.730,734.375,-41.992,-78.125,0.000
1673144720.165,-164.551,-430.176,-44.434,-165.039,0.000
1673144720.169,-48.828,-651.367,-37.109,-75.195,0.000
1673144720.173,83.008,326.660,-33.203,22.949,0.000
1673144720.177,26.367,333.984,-34.180,-19.043,0.000
1673144720.181,-95.703,-218.750,-30.762,-130.859,0.000
1673144720.185,-55.176,-203.125,-27.344,-104.980,0.000
1673144720.189,56.152,542.969,-36.133,13.184,0.000
1673144720.193,38.574,750.000,-43.945,12.695,0.000
1673144720.197,-78.125,-2.441,-43.945,-105.957,0.000
1673144720.201,-112.305,-553.711,-41.016,-127.930,0.000
1673144720.205,6.348,-104.004,-35.156,2.930,0.000
1673144720.208,68.359,619.141,-35.645,76.660,0.000
1673144720.212,-48.828,-143.555,-39.551,-33.691,0.000
1673144720.216,-118.652,-627.441,-36.133,-138.184,0.000
1673144720.220,-12.695,276.367,-35.156,-47.852,0.000
1673144720.224,82.520,659.668,-32.227,54.688,0.000
1673144720.228,-9.277,413.086,-35.156,-39.062,0.000
1673144720.232,-184.082,-206.055,-36.621,-196.777,0.000
1673144720.236,-21.484,51.758,-29.785,-69.336,0.000
1673144720.240,202.637,924.316,-26.855,139.648,0.000
1673144720.244,-4.883,627.441,-34.180,-2.441,0.000
1673144720.248,-241.211,-580.078,-40.039,-214.844,0.000
1673144720.251,-70.312,-719.238,-30.273,-103.027,0.000
1673144720.255,203.613,187.012,-31.250,118.164,0.000
1673144720.259,81.055,281.738,-42.480,63.477,0.000
1673144720.263,-211.426,-62.500,-42.969,-170.410,0.000
1673144720.267,-157.715,-617.676,-38.574,-168.457,0.000
1673144720.271,144.531,55.176,-30.273,87.891,0.000
1673144720.275,158.203,-975.586,-33.203,159.180,0.000
1673144720.279,-143.066,433.105,-43.457,-66.406,0.000
1673144720.283,-222.168,-497.070,-41.016,-154.785,0.000
1673144720.287,70.312,-24.902,-28.320,64.941,0.000
1673144720.290,215.332,956.055,-27.832,188.477,0.000
1673144720.294,-52.246,361.816,-35.156,1.465,0.000
1673144720.298,-241.699,-792.480,-34.668,-164.551,0.000
1673144720.302,-4.883,-791.992,-30.273,-7.812,0.000
1673144720.306,209.961,414.551,-26.855,175.781,0.000
1673144720.310,42.969,905.762,-35.645,64.941,0.000
1673144720.314,-139.160,78.125,-44.922,-97.168,0.000
1673144720.318,-96.680,-396.973,-40.039,-95.215,0.000
1673144720.322,33.203,302.246,-33.203,21.484,0.000
1673144720.326,67.871,975.098,-37.109,71.777,0.000
1673144720.330,-51.270,309.570,-41.504,-49.316,0.000
1673144720.333,-116.211,-368.652,-39.062,-125.000,0.000
1673144720.337,0.000,242.188,-33.691,-4.883,0.000
1673144720.341,85.938,644.043,-36.133,92.773,0.000
1673144720.345,-12.695,-64.453,-31.250,10.742,0.000
1673144720.349,-124.023,-738.770,-31.738,-99.609,0.000
1673144720.353,-51.270,2.930,-44.434,-46.875,0.000
1673144720.357,70.801,792.480,-38.086,63.965,0.000
1673144720.361,-0.977,415.527,-36.133,6.836,0.000
1673144720.365,-133.301,-396.973,-41.992,-98.145,0.000
1673144720.369,-73.730,-198.730,-37.109,-42.480,0.000
1673144720.372,48.828,519.531,-35.156,76.172,0.000
1673144720.376,17.578,595.703,-33.203,54.688,0.000
1673144720.380,-98.145,189.941,-35.645,-78.613,0.000
1673144720.384,-103.027,-41.992,-35.156,-108.398,0.000
1673144720.388,29.297,218.750,-34.668,8.789,0.000
1673144720.392,80.078,0.977,-37.598,88.867,0.000
1673144720.396,-44.922,-215.820,-39.062,-14.648,0.000
1673144720.400,-116.699,7.812,-41.504,-119.141,0.000
1673144720.404,-2.441,137.207,-41.016,-24.902,0.000
1673144720.408,81.543,453.613,-44.434,52.734,0.000
1673144720.412,-14.648,460.938,-45.898,-58.105,0.000
1673144720.415,-127.441,113.281,-39.551,-168.945,0.000
1673144720.419,-45.410,-183.105,-37.598,-87.402,0.000
1673144720.423,81.543,253.906,-34.180,27.344,0.000
1673144720.427,27.344,719.238,-31.738,-20.020,0.000
1673144720.431,-100.586,255.371,-30.273,-127.930,0.000
1673144720.435,-76.660,-634.277,-30.762,-94.238,0.000
1673144720.439,47.363,-500.977,-30.273,20.996,0.000
1673144720.443,73.242,690.918,-29.297,37.598,0.000
1673144720.447,-120.117,367.676,-38.086,-120.117,0.000
1673144720.451,-175.293,-667.969,-39.551,-181.152,0.000
1673144720.454,126.465,-4.883,-31.738,53.711,0.000
1673144720.458,150.879,997.559,-34.180,94.727,0.000
1673144720.462,-164.551,264.160,-37.598,-128.906,0.000
1673144720.466,-219.238,-778.320,-32.227,-175.781,0.000
1673144720.470,77.637,66.895,-22.949,31.250,0.000
1673144720.474,188.477,-965.820,-27.832,121.582,0.000
1673144720.478,-82.520,221.191,-42.969,-74.219,0.000
1673144720.482,-250.977,-932.617,-37.598,-213.867,0.000
1673144720.486,-2.930,-408.691,-27.832,-36.621,0.000
1673144720.490,202.148,929.199,-28.809,134.766,0.000
1673144720.494,-0.977,747.559,-32.227,6.836,0.000
1673144720.497,-253.418,-619.629,-38.574,-200.684,0.000
1673144720.501,-100.586,-557.617,-37.109,-120.605,0.000
1673144720.505,189.453,777.344,-31.738,104.492,0.000
1673144720.509,102.051,756.836,-33.203,63.965,0.000
1673144720.513,-202.637,-362.305,-36.621,-166.016,0.000
1673144720.517,-179.688,-607.910,-32.715,-174.316,0.000
1673144720.521,127.930,440.918,-28.320,58.105,0.000
1673144720.525,163.574,876.465,-35.645,112.305,0.000
1673144720.529,-143.066,-191.406,-46.387,-117.676,0.000
1673144720.533,-244.629,-1000.000,-42.969,-218.750,0.000
1673144720.537,50.781,-111.816,-31.738,1.465,0.000
1673144720.540,191.895,670.410,-31.738,151.367,0.000
1673144720.544,-57.129,-136.719,-39.551,-30.273,0.000
1673144720.548,-299.805,-883.789,-42.480,-240.723,0.000
1673144720.552,-31.738,-441.406,-34.668,-48.340,0.000
1673144720.556,323.730,919.922,-26.855,244.629,0.000
1673144720.560,16.602,775.879,-37.109,38.086,0.000
1673144720.564,-382.812,-590.332,-42.480,-276.367,0.000
1673144720.568,-130.371,-777.344,-34.668,-103.027,0.000
1673144720.572,233.398,506.348,-34.180,188.477,0.000
1673144720.576,121.094,782.715,-39.062,144.531,0.000
1673144720.579,-186.523,-206.543,-44.922,-88.867,0.000
1673144720.583,-193.848,-658.691,-46.387,-129.395,0.000
1673144720.587,112.305,-505.859,-40.039,106.445,0.000
1673144720.591,174.805,450.195,-39.062,178.711,0.000
1673144720.595,-113.281,588.867,-47.363,-27.344,0.000
1673144720.599,-225.098,-702.637,-46.875,-136.230,0.000
1673144720.603,54.199,-360.352,-31.738,48.828,0.000
1673144720.607,223.633,939.941,-23.926,183.594,0.000
1673144720.611,-24.902,753.418,-37.109,1.465,0.000
1673144720.615,-238.281,-534.668,-42.969,-190.918,0.000
1673144720.619,-35.645,-609.863,-33.691,-79.590,0.000
1673144720.622,205.078,558.594,-27.832,108.398,0.000
1673144720.626,59.570,641.602,-35.645,39.551,0.000
1673144720.630,-149.902,-437.012,-37.598,-121.582,0.000
1673144720.634,-122.559,-840.820,-26.367,-128.418,0.000
1673144720.638,13.184,158.203,-22.461,-8.789,0.000
1673144720.642,74.707,607.910,-26.855,54.688,0.000
1673144720.646,-44.434,-74.707,-33.203,-48.828,0.000
1673144720.650,-121.094,-479.980,-38.086,-141.113,0.000
1673144720.654,5.859,125.000,-36.133,-44.434,0.000
1673144720.658,91.797,679.199,-39.062,59.082,0.000
1673144720.661,-11.719,330.566,-42.480,-21.973,0.000
1673144720.665,-124.512,-204.102,-41.504,-117.676,0.000
1673144720.669,-41.992,-358.887,-34.668,-42.480,0.000
1673144720.673,79.590,171.875,-27.344,75.684,0.000
1673144720.677,20.508,-142.090,-30.762,42.969,0.000
1673144720.681,-99.121,-571.777,-34.180,-73.730,0.000
1673144720.685,-77.637,-9.766,-34.180,-67.383,0.000
1673144720.689,42.969,295.898,-30.273,53.711,0.000
1673144720.693,67.871,483.398,-28.809,78.125,0.000
1673144720.697,-64.453,252.441,-31.738,-42.480,0.000
1673144720.701,-114.258,-339.844,-35.156,-88.867,0.000
1673144720.704,11.230,-288.574,-34.180,30.762,0.000
1673144720.708,78.613,397.949,-36.621,99.121,0.000
1673144720.712,-28.320,369.141,-40.527,0.000,0.000
1673144720.716,-115.723,-416.016,-36.621,-80.566,0.000
1673144720.720,-17.578,-649.414,-33.203,9.766,0.000
1673144720.724,82.031,-279.785,-30.273,106.934,0.000
1673144720.728,-0.488,396.484,-35.645,22.949,0.000
1673144720.732,-111.816,162.598,-44.434,-96.680,0.000
1673144720.736,-51.758,-414.551,-41.016,-58.594,0.000
1673144720.740,73.730,81.055,-33.691,62.012,0.000
1673144720.743,42.480,749.512,-34.180,40.039,0.000
1673144720.747,-87.402,232.910,-38.574,-75.684,0.000
1673144720.751,-82.031,-326.172,-37.598,-65.430,0.000
1673144720.755,48.340,28.809,-32.227,65.430,0.000
1673144720.759,82.520,550.781,-25.879,117.676,0.000
1673144720.763,-45.410,168.457,-28.809,2.930,0.000
1673144720.767,-106.445,-782.227,-38.574,-67.383,0.000
1673144720.771,27.344,-395.508,-27.832,45.898,0.000
1673144720.775,121.582,757.812,-21.973,123.535,0.000
1673144720.779,-36.621,404.297,-44.434,-28.320,0.000
1673144720.783,-195.801,-689.941,-50.781,-161.621,0.000
1673144720.786,33.691,-44.922,-40.039,38.574,0.000
1673144720.790,207.031,-885.254,-39.551,202.637,0.000
1673144720.794,-40.527,479.004,-45.898,30.273,0.000
1673144720.798,-242.188,-774.902,-43.457,-148.926,0.000
1673144720.802,-14.160,-281.738,-34.180,10.254,0.000
1673144720.806,192.383,807.129,-35.645,184.570,0.000
1673144720.810,-6.348,247.070,-47.363,48.340,0.000
1673144720.814,-236.328,-975.586,-53.223,-141.113,0.000
1673144720.818,-119.629,-751.465,-46.875,-87.402,0.000
1673144720.822,171.387,620.605,-39.062,138.672,0.000
1673144720.825,125.000,710.449,-42.969,130.859,0.000
1673144720.829,-180.176,-504.395,-41.504,-104.004,0.000
1673144720.833,-198.242,-892.090,-33.203,-139.648,0.000
1673144720.837,111.328,210.449,-28.809,82.520,0.000
1673144720.841,190.430,979.980,-28.809,158.691,0.000
1673144720.845,-101.074,312.988,-34.180,-49.805,0.000
1673144720.849,-233.887,-450.195,-39.551,-178.223,0.000
1673144720.853,15.625,42.969,-35.156,4.883,0.000
1673144720.857,188.477,766.602,-28.809,165.527,0.000
1673144720.861,-31.738,495.605,-33.691,8.301,0.000
1673144720.865,-250.000,-312.012,-36.621,-175.293,0.000
1673144720.868,-58.105,-518.066,-32.715,-57.617,0.000
1673144720.872,213.867,398.438,-28.809,157.715,0.000
1673144720.876,78.125,897.461,-36.133,83.984,0.000
1673144720.880,-228.516,41.504,-39.551,-153.809,0.000
1673144720.884,-157.715,-638.672,-32.227,-119.141,0.000
1673144720.888,153.320,72.266,-29.297,111.816,0.000
1673144720.892,144.531,-996.582,-34.180,122.559,0.000
1673144720.896,-163.086,401.367,-38.574,-102.051,0.000
1673144720.900,-210.938,-717.285,-32.715,-156.250,0.000
1673144720.904,82.031,-341.797,-26.855,68.848,0.000
1673144720.908,191.406,906.250,-27.832,173.828,0.000
1673144720.911,-83.496,666.992,-38.086,-31.738,0.000
1673144720.915,-251.953,-687.988,-45.898,-179.199,0.000
1673144720.919,2.441,-388.672,-36.133,-5.371,0.000
1673144720.923,213.379,908.203,-24.902,162.598,0.000
1673144720.927,6.348,552.246,-35.645,14.160,0.000
1673144720.931,-253.418,-744.629,-48.340,-198.730,0.000
1673144720.935,-93.262,-565.918,-35.156,-93.262,0.000
1673144720.939,188.965,763.184,-25.391,138.672,0.000
1673144720.943,68.848,976.074,-34.668,74.219,0.000
1673144720.947,-231.445,-141.602,-42.969,-161.133,0.000
1673144720.950,-180.176,-904.785,-38.574,-147.949,0.000
1673144720.954,137.207,197.266,-38.086,79.590,0.000
1673144720.958,158.691,-967.285,-41.992,124.023,0.000
1673144720.962,-148.438,34.668,-42.969,-94.727,0.000
1673144720.966,-221.680,-674.805,-39.062,-178.711,0.000
1673144720.970,60.059,260.254,-32.227,40.039,0.000
1673144720.974,191.406,-963.379,-39.062,165.527,0.000
1673144720.978,-64.941,26.855,-47.363,-30.273,0.000
1673144720.982,-254.395,-873.047,-44.922,-206.543,0.000
1673144720.986,-27.832,-84.961,-40.527,-48.828,0.000
1673144720.990,208.008,905.273,-38.086,145.508,0.000
1673144720.993,19.531,663.086,-42.969,12.207,0.000
1673144720.997,-250.488,-530.273,-42.969,-205.078,0.000
1673144721.001,-128.418,-678.223,-37.109,-125.977,0.000
1673144721.005,75.195,-45.410,-38.574,57.129,0.000
1673144721.009,67.871,437.500,-41.016,73.242,0.000
1673144721.013,-59.082,475.098,-39.062,-38.086,0.000
1673144721.017,-126.465,-204.590,-42.969,-108.887,0.000
1673144721.021,-3.906,-562.500,-43.945,-2.441,0.000
1673144721.025,90.820,38.574,-38.574,98.145,0.000
1673144721.029,-23.926,712.402,-37.109,-3.418,0.000
1673144721.032,-177.246,-189.941,-36.133,-134.766,0.000
1673144721.036,4.395,-261.719,-32.715,8.789,0.000
1673144721.040,197.266,904.297,-32.715,175.293,0.000
1673144721.044,-41.504,571.777,-37.109,12.207,0.000
1673144721.048,-251.953,-752.930,-41.504,-170.410,0.000
1673144721.052,-44.922,-639.160,-37.109,-41.504,0.000
1673144721.056,207.520,659.180,-33.691,152.832,0.000
1673144721.060,51.758,984.375,-39.551,41.504,0.000
1673144721.064,-229.492,-162.598,-46.875,-183.105,0.000
1673144721.068,-118.164,-871.582,-39.551,-117.676,0.000
1673144721.072,183.594,305.176,-29.297,114.258,0.000
1673144721.075,133.301,-864.258,-31.738,105.469,0.000
1673144721.079,-181.152,24.414,-38.086,-127.441,0.000
1673144721.083,-207.520,-848.633,-38.086,-179.688,0.000
1673144721.087,90.820,184.570,-32.227,33.691,0.000
1673144721.091,189.453,937.500,-24.414,135.254,0.000
1673144721.095,-89.355,-30.762,-37.598,-79.102,0.000
1673144721.099,-250.977,-979.980,-48.828,-226.074,0.000
1673144721.103,1.465,-76.660,-41.016,-24.414,0.000
1673144721.107,203.125,-910.645,-42.969,150.879,0.000
1673144721.111,-13.184,265.137,-49.805,-12.207,0.000
1673144721.114,-253.418,-1000.000,-47.852,-218.750,0.000
1673144721.118,-75.684,-329.102,-41.504,-105.469,0.000
1673144721.122,195.801,807.129,-32.227,117.188,0.000
1673144721.126,68.848,752.441,-39.062,40.039,0.000
1673144721.130,-224.121,-214.844,-48.340,-195.312,0.000
1673144721.134,-163.086,-570.312,-42.969,-166.016,0.000
1673144721.138,146.484,171.387,-38.086,72.266,0.000
1673144721.142,152.832,704.590,-36.133,104.004,0.000
1673144721.146,-151.855,-14.160,-43.457,-127.441,0.000
1673144721.150,-215.820,-779.297,-44.434,-199.707,0.000
1673144721.154,83.496,0.977,-36.133,29.297,0.000
1673144721.157,190.918,669.434,-34.180,155.273,0.000
1673144721.161,-90.332,248.535,-42.969,-30.273,0.000
1673144721.165,-257.324,-475.586,-47.852,-176.270,0.000
1673144721.169,-16.602,-333.984,-41.992,-2.441,0.000
1673144721.173,199.707,619.629,-40.039,185.547,0.000
1673144721.177,9.766,811.523,-39.062,53.711,0.000
1673144721.181,-253.418,-246.094,-43.945,-160.156,0.000
1673144721.185,-113.281,-982.422,-44.434,-68.848,0.000
1673144721.189,183.594,6.836,-37.598,173.340,0.000
1673144721.193,117.188,974.609,-37.109,141.602,0.000
1673144721.197,-185.059,104.004,-42.480,-100.098,0.000
1673144721.200,-174.316,-996.094,-43.457,-88.867,0.000
1673144721.204,131.836,-422.363,-36.621,153.809,0.000
1673144721.208,171.875,786.133,-38.574,196.289,0.000
1673144721.212,-127.930,290.527,-43.457,-26.367,0.000
1673144721.216,-219.727,-759.766,-26.855,-119.141,0.000
1673144721.220,60.059,-114.258,-26.855,80.078,0.000
1673144721.224,191.895,-932.129,-40.527,208.008,0.000
1673144721.228,-58.105,601.074,-44.922,27.832,0.000
1673144721.232,-255.371,-760.254,-46.387,-153.320,0.000
1673144721.236,-34.668,-583.496,-40.039,-12.207,0.000
1673144721.239,205.078,798.340,-34.668,190.430,0.000
1673144721.243,21.484,756.836,-40.039,85.449,0.000
1673144721.247,-255.371,-583.496,-44.922,-136.719,0.000
1673144721.251,-130.371,-727.051,-37.109,-68.359,0.000
1673144721.255,172.852,519.043,-29.785,165.039,0.000
1673144721.259,118.164,797.852,-35.156,146.484,0.000
1673144721.263,-186.523,-301.758,-44.922,-86.426,0.000
1673144721.267,-199.707,-687.012,-43.457,-129.883,0.000
1673144721.271,104.004,325.684,-36.621,99.609,0.000
1673144721.275,170.410,880.859,-39.551,185.059,0.000
1673144721.279,-119.629,-87.891,-45.898,-30.273,0.000
1673144721.282,-244.629,-973.145,-39.551,-153.809,0.000
1673144721.286,21.973,-59.082,-32.227,39.062,0.000
1673144721.290,210.938,673.828,-36.133,194.336,0.000
1673144721.294,-13.184,-204.590,-43.457,25.879,0.000
1673144721.298,-239.258,-891.602,-44.922,-173.828,0.000
1673144721.302,-56.641,-566.406,-42.480,-52.734,0.000
1673144721.306,199.707,604.492,-34.668,165.527,0.000
1673144721.310,51.270,888.184,-36.621,87.402,0.000
1673144721.314,-239.746,-193.359,-44.434,-144.531,0.000
1673144721.318,-146.484,-858.398,-40.039,-103.516,0.000
1673144721.321,157.715,159.668,-32.227,140.137,0.000
1673144721.325,139.648,718.750,-31.250,145.996,0.000
1673144721.329,-165.527,-193.848,-35.645,-87.891,0.000
1673144721.333,-211.426,-786.133,-41.992,-146.484,0.000
1673144721.337,86.914,-569.824,-33.691,85.449,0.000
1673144721.341,192.383,497.559,-24.414,194.336,0.000
1673144721.345,-85.938,684.082,-33.203,-16.602,0.000
1673144721.349,-244.629,-697.266,-40.039,-162.109,0.000
1673144721.353,0.977,-436.035,-41.992,-0.977,0.000
1673144721.357,200.684,937.988,-39.551,172.852,0.000
1673144721.361,-1.953,805.176,-38.086,44.434,0.000
1673144721.364,-242.676,-476.562,-41.016,-161.621,0.000
1673144721.368,-78.125,-737.793,-37.598,-69.336,0.000
1673144721.372,204.590,462.402,-33.691,152.832,0.000
1673144721.376,89.355,637.695,-42.969,94.727,0.000
1673144721.380,-217.773,-577.148,-46.875,-137.695,0.000
1673144721.384,-146.973,-853.027,-36.133,-106.934,0.000
1673144721.388,91.797,203.613,-22.949,90.820,0.000
1673144721.392,113.281,562.012,-23.438,139.648,0.000
1673144721.396,-15.625,1.465,-32.227,22.949,0.000
1673144721.400,-117.188,-291.504,-31.250,-72.754,0.000
1673144721.403,-5.859,83.496,-28.320,24.414,0.000
1673144721.407,104.492,579.590,-33.691,121.094,0.000
1673144721.411,9.766,435.547,-37.598,36.133,0.000
1673144721.415,-111.328,-73.242,-39.551,-82.031,0.000
1673144721.419,-42.969,-327.637,-40.039,-32.715,0.000
1673144721.423,76.172,141.602,-37.598,83.984,0.000
1673144721.427,37.598,-185.059,-38.574,59.082,0.000
1673144721.431,-94.238,-637.207,-39.062,-71.289,0.000
1673144721.435,-87.402,-38.574,-42.969,-79.102,0.000
1673144721.439,47.363,327.637,-42.480,53.223,0.000
1673144721.443,73.242,517.578,-40.039,89.844,0.000
1673144721.446,-63.965,325.684,-43.945,-37.598,0.000
1673144721.450,-126.953,-11.230,-47.852,-104.004,0.000
1673144721.454,3.906,-25.391,-43.945,13.672,0.000
1673144721.458,98.145,397.461,-36.133,105.957,0.000
1673144721.462,-13.672,447.754,-37.109,11.719,0.000
1673144721.466,-126.953,-272.461,-44.434,-82.520,0.000
1673144721.470,-33.203,-645.996,-44.922,1.465,0.000
1673144721.474,83.496,-347.656,-41.992,110.352,0.000
1673144721.478,1.953,375.488,-42.480,50.293,0.000
1673144721.482,-124.512,96.191,-46.875,-77.148,0.000
1673144721.486,-57.617,-447.266,-43.457,-51.270,0.000
1673144721.489,74.707,-13.672,-41.016,64.941,0.000
1673144721.493,40.039,671.875,-42.480,36.621,0.000
1673144721.497,-90.332,297.363,-42.969,-97.168,0.000
1673144721.501,-98.145,-416.016,-44.434,-121.094,0.000
1673144721.505,45.410,129.395,-42.480,-3.418,0.000
1673144721.509,85.938,772.461,-43.457,33.203,0.000
1673144721.513,-52.246,134.766,-49.316,-86.426,0.000
1673144721.517,-150.879,-878.906,-50.781,-164.551,0.000
1673144721.521,36.133,-233.398,-43.945,-9.766,0.000
1673144721.525,172.852,-892.090,-43.945,99.609,0.000
1673144721.528,-102.051,344.727,-48.828,-105.957,0.000
1673144721.532,-250.000,-830.078,-46.875,-225.098,0.000
1673144721.536,18.555,-217.285,-42.480,-20.020,0.000
1673144721.540,206.543,885.742,-39.062,138.184,0.000
1673144721.544,-25.879,536.133,-44.922,-22.949,0.000
1673144721.548,-244.141,-690.918,-41.992,-198.730,0.000
1673144721.552,-61.035,-464.844,-30.762,-83.496,0.000
1673144721.556,195.312,812.012,-30.273,130.371,0.000
1673144721.560,67.383,505.859,-42.480,62.012,0.000
1673144721.564,-228.516,-876.953,-49.805,-164.551,0.000
1673144721.568,-147.461,-647.461,-38.574,-130.371,0.000
1673144721.571,156.250,544.434,-28.809,107.910,0.000
1673144721.575,135.742,828.125,-35.645,126.953,0.000
1673144721.579,-174.316,-235.840,-42.480,-106.445,0.000
1673144721.583,-216.309,-850.098,-38.086,-169.922,0.000
1673144721.587,83.984,149.902,-30.762,48.828,0.000
1673144721.591,187.012,998.535,-28.320,144.531,0.000
1673144721.595,-75.684,270.996,-23.438,-43.457,0.000
1673144721.599,-244.141,-730.469,-34.180,-186.035,0.000
1673144721.603,-7.324,-216.309,-40.039,-16.113,0.000
1673144721.607,220.215,625.488,-30.273,183.105,0.000
1673144721.610,16.602,451.172,-33.203,53.223,0.000
1673144721.614,-250.488,-300.781,-46.875,-161.133,0.000
1673144721.618,-100.586,-401.855,-44.922,-79.102,0.000
1673144721.622,189.941,223.633,-38.574,139.648,0.000
1673144721.626,94.238,732.910,-41.504,102.539,0.000
1673144721.630,-207.520,109.863,-45.898,-136.719,0.000
1673144721.634,-153.809,-630.371,-40.527,-127.930,0.000
1673144721.638,77.637,-51.758,-35.156,63.477,0.000
1673144721.642,106.445,757.324,-34.668,107.422,0.000
1673144721.646,-11.719,641.602,-34.180,1.465,0.000
1673144721.650,-113.281,-260.254,-36.621,-99.121,0.000
1673144721.653,-18.066,-484.375,-34.180,-21.973,0.000
1673144721.657,100.586,125.977,-28.809,90.820,0.000
1673144721.661,14.648,514.160,-31.738,26.367,0.000
1673144721.665,-125.977,-276.855,-37.598,-87.891,0.000
1673144721.669,-61.523,-740.234,-30.273,-37.109,0.000
1673144721.673,61.035,202.148,-27.832,69.336,0.000
1673144721.677,34.180,431.152,-32.715,54.688,0.000
1673144721.681,-144.043,-222.168,-41.016,-87.891,0.000
1673144721.685,-135.254,-443.359,-45.410,-98.145,0.000
1673144721.689,140.625,590.820,-39.062,108.887,0.000
1673144721.692,90.332,980.469,-38.086,104.492,0.000
1673144721.696,-210.938,-101.074,-40.527,-128.906,0.000
1673144721.700,-201.660,-931.641,-40.039,-160.156,0.000
1673144721.704,105.957,-83.984,-36.133,63.477,0.000
1673144721.708,166.016,869.629,-45.410,135.742,0.000
1673144721.712,-123.047,-157.715,-54.688,-81.543,0.000
1673144721.716,-238.770,-992.188,-49.316,-194.336,0.000
1673144721.720,40.527,126.953,-36.621,16.113,0.000
1673144721.724,212.891,976.562,-33.203,165.039,0.000
1673144721.728,-28.809,473.633,-41.992,-23.438,0.000
1673144721.732,-238.281,-410.156,-39.551,-217.285,0.000
1673144721.735,-38.574,-176.270,-36.133,-87.402,0.000
1673144721.739,204.102,742.188,-35.645,118.164,0.000
1673144721.743,48.340,688.477,-46.875,24.414,0.000
1673144721.747,-231.934,-469.727,-59.082,-198.730,0.000
1673144721.751,-145.508,-872.070,-48.828,-134.766,0.000
1673144721.755,157.227,1.465,-40.527,118.164,0.000
1673144721.759,115.234,268.066,-44.922,94.727,0.000
1673144721.763,-190.430,-231.934,-46.387,-163.086,0.000
1673144721.767,-198.730,-883.301,-46.387,-198.730,0.000
1673144721.771,84.961,-198.242,-36.621,32.227,0.000
1673144721.775,162.598,971.191,-32.715,124.512,0.000
1673144721.778,-106.934,528.809,-45.410,-83.008,0.000
1673144721.782,-242.676,-587.402,-49.805,-219.238,0.000
1673144721.786,19.043,-261.230,-40.039,-28.809,0.000
1673144721.790,205.078,857.910,-40.039,133.301,0.000
1673144721.794,-5.859,490.234,-38.086,-17.090,0.000
1673144721.798,-234.375,-730.469,-36.621,-207.520,0.000
1673144721.802,-67.871,-1000.000,-42.480,-96.191,0.000
1673144721.806,195.312,160.156,-35.156,128.418,0.000
1673144721.810,68.359,-976.562,-41.992,51.270,0.000
1673144721.814,-207.031,-158.691,-49.805,-179.688,0.000
1673144721.817,-141.602,-922.363,-39.551,-155.273,0.000
1673144721.821,148.926,166.504,-29.297,76.172,0.000
1673144721.825,144.531,-895.996,-34.180,95.215,0.000
1673144721.829,-161.133,98.145,-44.434,-141.602,0.000
1673144721.833,-229.004,-940.430,-41.016,-218.262,0.000
1673144721.837,62.988,-32.227,-35.645,3.418,0.000
1673144721.841,185.547,853.027,-40.039,115.723,0.000
1673144721.845,-80.566,5.371,-45.410,-80.078,0.000
1673144721.849,-248.047,-1000.000,-41.016,-218.750,0.000
1673144721.853,-17.578,-280.273,-33.691,-40.527,0.000
1673144721.857,192.383,928.711,-34.180,147.461,0.000
1673144721.860,1.953,433.594,-36.621,26.855,0.000
1673144721.864,-252.441,-831.055,-38.574,-175.781,0.000
1673144721.868,-100.586,-591.797,-34.668,-89.355,0.000
1673144721.872,182.129,573.242,-31.738,139.648,0.000
1673144721.876,89.844,655.762,-44.922,84.473,0.000
1673144721.880,-209.961,-338.867,-48.828,-160.156,0.000
1673144721.884,-182.617,-775.391,-36.133,-151.367,0.000
1673144721.888,124.023,-18.555,-27.832,83.008,0.000
1673144721.892,162.109,88.867,-31.250,135.254,0.000
1673144721.896,-140.137,-558.105,-39.062,-96.191,0.000
1673144721.899,-276.855,-865.723,-37.109,-227.539,0.000
1673144721.903,96.680,-119.629,-25.391,49.316,0.000
1673144721.907,309.082,-900.879,-29.785,227.539,0.000
1673144721.911,-112.305,456.543,-38.574,-66.406,0.000
1673144721.915,-379.395,-888.672,-38.086,-287.598,0.000
1673144721.919,3.418,-540.527,-33.203,-23.926,0.000
1673144721.923,334.961,809.570,-28.809,253.906,0.000
1673144721.927,18.555,680.664,-37.109,46.387,0.000
1673144721.931,-379.883,-632.324,-41.504,-263.184,0.000
1673144721.935,-141.113,-1000.000,-33.691,-113.281,0.000
1673144721.939,324.219,120.117,-26.855,229.980,0.000
1673144721.942,175.781,-991.211,-36.621,142.578,0.000
1673144721.946,-320.801,-199.219,-45.898,-218.750,0.000
1673144721.950,-258.789,-1000.000,-37.598,-207.520,0.000
1673144721.954,232.910,-60.059,-31.738,149.902,0.000
1673144721.958,267.090,-856.445,-37.598,212.891,0.000
1673144721.962,-202.148,202.637,-49.805,-130.859,0.000
1673144721.966,-344.727,-1000.000,-47.852,-264.648,0.000
1673144721.970,93.262,-78.125,-38.574,54.688,0.000
1673144721.974,323.730,-840.332,-37.109,251.465,0.000
1673144721.978,-72.754,441.406,-40.527,-23.438,0.000
1673144721.981,-393.555,-968.750,-42.969,-278.320,0.000
1673144721.985,-51.270,-708.984,-33.203,-49.805,0.000
1673144721.989,336.914,730.957,-26.367,242.676,0.000
1673144721.993,60.059,711.426,-38.574,65.918,0.000
1673144721.997,-377.930,-767.578,-43.945,-268.066,0.000
1673144722.001,-183.594,-837.891,-33.691,-162.109,0.000
1673144722.005,289.062,611.816,-28.320,189.453,0.000
1673144722.009,194.824,880.859,-35.156,160.156,0.000
1673144722.013,-296.387,-545.898,-48.340,-191.406,0.000
1673144722.017,-294.434,-1000.000,-44.434,-225.586,0.000
1673144722.021,198.730,210.449,-29.785,128.418,0.000
1673144722.024,295.898,-998.047,-34.668,227.539,0.000
1673144722.028,-151.855,-180.664,-41.992,-101.562,0.000
1673144722.032,-335.938,-1000.000,-22.949,-272.949,0.000
1673144722.036,72.754,-158.203,-21.484,-3.906,0.000
1673144722.040,337.402,920.898,-37.598,206.543,0.000
1673144722.044,-41.504,160.645,-43.457,-41.992,0.000
1673144722.048,-389.648,-946.777,-43.945,-322.754,0.000
1673144722.052,-76.660,-687.500,-33.203,-127.441,0.000
1673144722.056,337.402,423.828,-29.785,189.941,0.000
1673144722.060,106.934,549.316,-41.016,62.012,0.000
1673144722.064,-355.469,-496.582,-48.340,-291.992,0.000
1673144722.067,-206.055,-911.133,-37.598,-232.422,0.000
1673144722.071,270.020,390.625,-24.902,135.254,0.000
1673144722.075,215.332,953.613,-30.762,141.602,0.000
1673144722.079,-261.719,-283.203,-41.016,-209.961,0.000
1673144722.083,-309.082,-1000.000,-35.156,-273.926,0.000
1673144722.087,163.086,-238.281,-24.902,62.500,0.000
1673144722.091,315.918,-920.898,-29.297,200.684,0.000
1673144722.095,-119.141,392.090,-39.062,-94.238,0.000
1673144722.099,-357.910,-1000.000,-34.180,-291.016,0.000
1673144722.103,33.691,-626.953,-23.926,-18.555,0.000
1673144722.106,347.168,868.164,-24.902,238.281,0.000
1673144722.110,11.719,716.797,-40.527,14.648,0.000
1673144722.114,-382.324,-733.887,-49.316,-284.180,0.000
1673144722.118,-108.887,-711.914,-39.551,-115.723,0.000
1673144722.122,340.820,650.879,-31.250,223.633,0.000
1673144722.126,148.926,930.664,-37.109,121.094,0.000
1673144722.130,-336.426,-391.602,-46.875,-227.539,0.000
1673144722.134,-238.770,-945.801,-36.133,-180.664,0.000
1673144722.138,257.812,402.832,-23.926,181.152,0.000
1673144722.142,260.742,-962.891,-35.156,226.074,0.000
1673144722.146,-217.285,-198.730,-50.781,-112.793,0.000
1673144722.149,-325.195,-1000.000,-44.922,-208.496,0.000
1673144722.153,128.906,-86.914,-34.668,125.977,0.000
1673144722.157,316.406,-934.570,-39.062,280.273,0.000
1673144722.161,-67.383,403.320,-44.434,5.371,0.000
1673144722.165,-301.270,-680.176,-43.457,-201.660,0.000
1673144722.169,-62.988,-574.219,-38.086,-63.477,0.000
1673144722.173,193.848,411.133,-31.738,136.230,0.000
1673144722.177,45.410,510.742,-37.109,49.805,0.000
1673144722.181,-225.098,-405.762,-37.598,-173.340,0.000
1673144722.185,-117.188,-442.383,-25.391,-94.238,0.000
1673144722.188,175.781,527.344,-31.250,144.043,0.000
1673144722.192,113.281,490.234,-43.945,120.117,0.000
1673144722.196,-193.848,-283.203,-41.992,-105.957,0.000
1673144722.200,-206.543,-515.625,-38.574,-135.254,0.000
1673144722.204,115.234,131.836,-20.508,136.719,0.000
1673144722.208,202.637,870.605,-15.137,246.582,0.000
1673144722.212,-105.957,229.492,-39.062,-2.930,0.000
1673144722.216,-239.746,-850.586,-47.852,-154.297,0.000
1673144722.220,24.902,-574.219,-44.434,37.109,0.000
1673144722.224,201.172,565.430,-44.434,208.008,0.000
1673144722.228,-17.090,755.371,-42.969,59.082,0.000
1673144722.231,-240.234,-228.516,-42.480,-121.582,0.000
1673144722.235,-61.523,-888.184,-41.016,2.930,0.000
1673144722.239,202.148,17.090,-36.621,201.172,0.000
1673144722.243,76.660,985.352,-40.527,114.746,0.000
1673144722.247,-216.309,-79.590,-47.852,-123.047,0.000
1673144722.251,-149.902,-732.422,-45.898,-113.281,0.000
1673144722.255,135.742,369.141,-39.062,125.000,0.000
1673144722.259,123.047,-932.617,-39.551,154.785,0.000
1673144722.263,-178.223,-66.895,-48.828,-73.242,0.000
1673144722.267,-230.469,-1000.000,-43.945,-141.602,0.000
1673144722.270,72.754,-110.840,-27.832,70.801,0.000
1673144722.274,177.246,-895.020,-31.738,183.594,0.000
1673144722.278,-97.656,500.977,-41.992,-25.391,0.000
1673144722.282,-252.930,-817.871,-43.457,-193.359,0.000
1673144722.286,-10.742,-285.645,-37.109,-10.254,0.000
1673144722.290,192.383,-988.770,-34.180,189.453,0.000
1673144722.294,-5.371,620.117,-41.016,60.547,0.000
1673144722.298,-255.371,-612.305,-43.457,-138.672,0.000
1673144722.302,-99.121,-456.543,-35.156,-52.246,0.000
1673144722.306,186.035,779.297,-28.809,155.273,0.000
1673144722.310,87.891,635.742,-33.203,120.117,0.000
1673144722.313,-215.332,-718.750,-35.645,-121.582,0.000
1673144722.317,-180.176,-779.785,-28.809,-139.160,0.000
1673144722.321,132.812,398.438,-24.902,101.562,0.000
1673144722.325,164.062,626.953,-32.227,163.086,0.000
1673144722.329,-140.137,-569.336,-34.180,-60.059,0.000
1673144722.333,-226.074,-860.352,-29.297,-158.691,0.000
1673144722.337,60.547,155.762,-25.391,55.664,0.000
1673144722.341,198.730,958.496,-30.762,194.336,0.000
1673144722.345,-63.477,576.660,-35.645,8.301,0.000
1673144722.349,-260.254,-414.551,-33.203,-187.500,0.000
1673144722.352,-33.691,-290.527,-30.762,-64.941,0.000
1673144722.356,202.637,438.965,-31.250,121.582,0.000
1673144722.360,27.832,424.316,-28.809,8.301,0.000
1673144722.364,-244.629,-262.207,-26.855,-216.309,0.000
1673144722.368,-130.859,-518.066,-28.320,-150.879,0.000
1673144722.372,167.969,99.121,-25.391,95.215,0.000
1673144722.376,108.887,636.230,-29.297,88.867,0.000
1673144722.380,-191.895,-126.465,-34.180,-143.555,0.000
1673144722.384,-187.500,-916.992,-28.809,-163.574,0.000
1673144722.388,121.094,9.766,-20.996,74.219,0.000
1673144722.392,176.758,-972.656,-22.461,148.438,0.000
1673144722.395,-120.117,481.934,-35.156,-67.871,0.000
1673144722.399,-233.398,-693.359,-41.016,-187.988,0.000
1673144722.403,36.133,-508.789,-33.203,8.301,0.000
1673144722.407,194.824,759.277,-28.320,148.926,0.000
1673144722.411,-42.480,811.523,-37.109,-16.113,0.000
1673144722.415,-256.836,-534.668,-46.387,-184.570,0.000
1673144722.419,-61.035,-702.637,-36.133,-49.316,0.000
1673144722.423,191.895,631.348,-30.273,156.738,0.000
1673144722.427,51.758,931.641,-37.598,72.266,0.000
1673144722.431,-224.121,-245.605,-38.086,-149.414,0.000
1673144722.435,-114.258,-742.676,-31.738,-113.770,0.000
1673144722.438,179.688,463.379,-30.273,129.883,0.000
1673144722.442,119.141,-995.117,-38.574,137.207,0.000
1673144722.446,-104.980,218.750,-38.574,-52.246,0.000
1673144722.450,-121.582,-538.086,-27.832,-92.773,0.000
1673144722.454,0.488,-173.340,-27.344,21.484,0.000
1673144722.458,75.195,735.840,-32.227,105.957,0.000
1673144722.462,-11.230,30.273,-35.156,21.484,0.000
1673144722.466,-165.039,-800.293,-36.133,-121.582,0.000
1673144722.470,-24.414,72.754,-31.250,-13.672,0.000
1673144722.474,199.219,955.566,-32.715,181.641,0.000
1673144722.477,-10.742,610.352,-40.039,47.363,0.000
1673144722.481,-252.930,-316.895,-35.156,-150.391,0.000
1673144722.485,-81.543,-200.195,-25.879,-31.738,0.000
1673144722.489,195.801,700.684,-29.297,193.359,0.000
1673144722.493,80.078,782.227,-41.016,127.441,0.000
1673144722.497,-224.121,-351.074,-44.434,-105.469,0.000
1673144722.501,-157.715,-630.859,-38.574,-86.426,0.000
1673144722.505,140.137,266.602,-35.645,143.066,0.000
1673144722.509,152.344,492.676,-34.180,175.293,0.000
1673144722.513,-191.895,226.562,-35.645,-81.055,0.000
1673144722.517,-269.043,-749.023,-21.484,-156.738,0.000
1673144722.520,115.723,-172.363,-13.672,118.164,0.000
1673144722.524,221.680,-971.191,-28.320,205.078,0.000
1673144722.528,-63.477,745.605,-35.156,-11.719,0.000
1673144722.532,-234.375,-164.551,-34.668,-173.340,0.000
1673144722.536,3.906,-28.809,-29.297,-23.926,0.000
1673144722.540,214.844,940.918,-29.785,167.480,0.000
1673144722.544,15.137,724.609,-31.250,46.387,0.000
1673144722.548,-230.469,-298.340,-33.691,-176.758,0.000
1673144722.552,-80.078,-867.188,-28.320,-90.820,0.000
1673144722.556,200.684,166.504,-19.531,147.461,0.000
1673144722.559,104.004,-853.516,-26.855,108.398,0.000
1673144722.563,-197.754,179.688,-33.203,-124.512,0.000
1673144722.567,-176.270,-457.031,-28.320,-123.535,0.000
1673144722.571,128.906,505.859,-24.414,107.422,0.000
1673144722.575,166.504,-833.984,-26.855,160.156,0.000
1673144722.579,-131.348,402.344,-29.785,-50.781,0.000
1673144722.583,-227.539,-514.160,-33.203,-145.996,0.000
1673144722.587,55.176,304.199,-30.762,73.730,0.000
1673144722.591,209.473,-843.262,-21.973,229.980,0.000
1673144722.595,-49.805,441.406,-35.645,50.293,0.000
1673144722.599,-251.953,-794.434,-44.922,-124.512,0.000
1673144722.602,-43.457,-175.781,-29.785,21.973,0.000
1673144722.606,188.965,963.867,-25.391,219.238,0.000
1673144722.610,31.738,718.750,-29.297,112.793,0.000
1673144722.614,-227.539,-175.293,-29.785,-108.398,0.000
1673144722.618,-109.375,-23.438,-26.367,-65.430,0.000
1673144722.622,169.922,817.871,-26.367,153.320,0.000
1673144722.626,107.910,-997.070,-31.738,147.461,0.000
1673144722.630,-189.941,423.828,-35.156,-90.820,0.000
1673144722.634,-197.754,-103.027,-34.668,-127.930,0.000
1673144722.638,107.422,529.785,-28.320,100.098,0.000
1673144722.641,185.547,662.598,-25.879,199.219,0.000
1673144722.645,-99.121,106.934,-25.879,-5.371,0.000
1673144722.649,-229.980,-31.738,-28.809,-138.672,0.000
1673144722.653,42.480,430.664,-26.855,60.059,0.000
1673144722.657,214.844,-977.539,-25.879,207.031,0.000
1673144722.661,-26.367,792.480,-31.738,41.016,0.000
1673144722.665,-237.793,78.613,-33.691,-142.090,0.000
1673144722.669,-51.758,38.086,-29.785,-19.531,0.000
1673144722.673,201.172,744.141,-26.367,195.312,0.000
1673144722.677,67.383,984.375,-28.320,125.000,0.000
1673144722.681,-222.168,323.242,-32.715,-96.191,0.000
1673144722.684,-143.066,-495.605,-32.715,-67.871,0.000
1673144722.688,154.297,75.195,-29.297,158.691,0.000
1673144722.692,132.324,-934.570,-32.227,167.480,0.000
1673144722.696,-171.387,564.941,-41.504,-65.430,0.000
1673144722.700,-215.332,-452.148,-35.645,-131.348,0.000
1673144722.704,70.801,53.711,-25.879,86.426,0.000
1673144722.708,169.434,-911.621,-31.250,183.594,0.000
1673144722.712,-102.051,705.566,-37.109,-19.043,0.000
1673144722.716,-251.953,-369.141,-36.133,-150.391,0.000
1673144722.720,6.348,55.176,-29.297,27.344,0.000
1673144722.724,212.891,-893.555,-28.320,191.406,0.000
1673144722.727,-6.348,740.723,-35.645,27.832,0.000
1673144722.731,-245.605,-543.457,-33.691,-166.016,0.000
1673144722.735,-75.195,-546.875,-24.414,-49.805,0.000
1673144722.739,189.941,709.961,-17.090,162.598,0.000
1673144722.743,80.566,991.699,-23.926,110.352,0.000
1673144722.747,-208.496,-310.059,-31.250,-119.141,0.000
1673144722.751,-157.227,-571.289,-26.367,-116.699,0.000
1673144722.755,143.555,694.824,-23.438,116.699,0.000
1673144722.759,159.180,-998.535,-25.879,156.250,0.000
1673144722.763,-138.184,301.270,-29.785,-69.824,0.000
1673144722.766,-212.891,-270.508,-25.391,-154.785,0.000
1673144722.770,83.496,292.480,-15.625,55.176,0.000
1673144722.774,203.613,964.355,-19.043,186.523,0.000
1673144722.778,-83.984,393.066,-36.621,-3.418,0.000
1673144722.782,-258.301,-459.961,-38.086,-174.805,0.000
1673144722.786,-16.113,168.457,-27.832,-24.414,0.000
1673144722.790,203.125,824.707,-27.832,166.992,0.000
1673144722.794,12.207,355.469,-32.715,61.035,0.000
1673144722.798,-241.699,-297.852,-37.598,-161.621,0.000
1673144722.802,-100.098,-234.863,-32.715,-97.656,0.000
1673144722.806,176.758,743.652,-28.809,140.137,0.000
1673144722.809,106.445,-957.031,-34.668,110.840,0.000
1673144722.813,-175.781,395.508,-37.109,-125.000,0.000
1673144722.817,-165.039,-142.090,-33.691,-126.465,0.000
1673144722.821,120.605,491.699,-25.391,104.492,0.000
1673144722.825,165.527,-967.285,-26.855,161.621,0.000
1673144722.829,-122.559,347.168,-37.598,-61.523,0.000
1673144722.833,-234.375,-500.977,-41.016,-178.223,0.000
1673144722.837,46.387,-347.656,-30.273,33.691,0.000
1673144722.841,205.078,613.281,-24.902,186.523,0.000
1673144722.845,-35.156,925.293,-37.109,16.113,0.000
1673144722.848,-247.070,-126.465,-41.992,-155.762,0.000
1673144722.852,-52.734,-44.434,-32.715,-25.879,0.000
1673144722.856,196.777,957.520,-32.715,159.180,0.000
1673144722.860,43.945,-990.234,-39.551,53.223,0.000
1673144722.864,-230.957,32.715,-41.504,-173.828,0.000
1673144722.868,-127.930,-302.246,-34.668,-124.023,0.000
1673144722.872,171.875,712.402,-27.344,122.559,0.000
1673144722.876,128.418,-925.781,-26.367,124.512,0.000
1673144722.880,-166.992,-27.344,-37.109,-106.445,0.000
1673144722.884,-184.570,-793.457,-34.180,-144.043,0.000
1673144722.888,102.051,449.219,-21.484,75.195,0.000
1673144722.891,186.523,-864.258,-28.320,153.809,0.000
1673144722.895,-92.773,422.363,-39.062,-54.199,0.000
1673144722.899,-231.934,-303.223,-38.086,-177.246,0.000
1673144722.903,25.879,373.047,-28.320,13.672,0.000
1673144722.907,208.496,-937.988,-30.762,182.129,0.000
1673144722.911,-15.625,725.586,-39.062,20.508,0.000
1673144722.915,-250.977,-136.719,-36.621,-182.129,0.000
1673144722.919,-67.383,-203.613,-32.227,-60.547,0.000
1673144722.923,203.613,841.309,-25.391,171.875,0.000
1673144722.927,68.848,536.621,-26.855,115.234,0.000
1673144722.930,-224.121,-341.309,-33.203,-113.770,0.000
1673144722.934,-147.461,8.301,-28.320,-96.680,0.000
1673144722.938,152.344,700.195,-26.855,124.023,0.000
1673144722.942,143.066,-953.613,-35.645,134.766,0.000
1673144722.946,-155.273,575.195,-41.992,-104.980,0.000
1673144722.950,-216.309,-22.949,-39.551,-182.129,0.000
1673144722.954,65.430,475.098,-32.715,29.297,0.000
1673144722.958,188.965,-938.477,-34.668,131.836,0.000
1673144722.962,-75.684,706.543,-45.410,-70.801,0.000
1673144722.966,-248.535,-291.016,-43.457,-222.656,0.000
1673144722.970,-9.277,-302.734,-34.180,-44.434,0.000
1673144722.973,200.684,528.320,-32.227,127.930,0.000
1673144722.977,1.953,929.199,-37.109,-30.762,0.000
1673144722.981,-244.141,286.621,-41.992,-252.930,0.000
1673144722.985,-94.238,-175.781,-34.180,-156.738,0.000
1673144722.989,181.152,582.031,-30.273,74.707,0.000
1673144722.993,87.402,-996.582,-38.574,35.156,0.000
1673144722.997,-202.637,35.645,-39.062,-190.430,0.000
1673144723.001,-166.992,-445.801,-33.691,-182.129,0.000
1673144723.005,118.164,544.922,-33.203,61.035,0.000
1673144723.009,142.578,-936.035,-34.668,123.535,0.000
1673144723.013,-150.391,329.590,-37.598,-83.008,0.000
1673144723.016,-238.770,-843.262,-37.109,-194.824,0.000
1673144723.020,40.039,-157.715,-29.785,-3.418,0.000
1673144723.024,179.199,-852.051,-33.691,136.719,0.000
1673144723.028,-69.336,651.367,-44.434,-44.434,0.000
1673144723.032,-243.652,-362.793,-43.945,-222.168,0.000
1673144723.036,-20.508,106.445,-34.668,-68.359,0.000
1673144723.040,198.730,-946.777,-31.250,137.207,0.000
1673144723.044,26.855,793.457,-40.039,29.297,0.000
1673144723.048,-235.840,-208.008,-44.434,-192.383,0.000
1673144723.052,-106.934,-334.473,-37.109,-125.000,0.000
1673144723.055,176.758,779.297,-32.227,122.070,0.000
1673144723.059,108.398,873.535,-38.086,114.258,0.000
1673144723.063,-183.105,-422.363,-43.457,-126.953,0.000
1673144723.067,-181.641,-486.328,-36.133,-164.062,0.000
1673144723.071,119.141,627.930,-29.297,56.641,0.000
1673144723.075,177.734,-990.234,-28.320,128.906,0.000
1673144723.079,-117.188,273.926,-33.203,-79.590,0.000
1673144723.083,-240.234,-423.340,-38.086,-199.707,0.000
1673144723.087,38.574,317.871,-32.715,-8.789,0.000
1673144723.091,205.078,-942.383,-30.273,149.902,0.000
1673144723.095,-43.945,791.504,-38.574,-20.020,0.000
1673144723.098,-260.254,33.203,-43.945,-215.332,0.000
1673144723.102,-46.387,113.770,-33.203,-81.055,0.000
1673144723.106,206.543,879.883,-28.809,116.211,0.000
1673144723.110,45.410,807.129,-41.016,5.859,0.000
1673144723.114,-243.164,-34.180,-47.852,-229.492,0.000
1673144723.118,-154.785,-158.691,-42.480,-193.359,0.000
1673144723.122,156.250,562.012,-36.621,25.391,0.000
1673144723.126,125.977,-971.680,-38.086,6.348,0.000
1673144723.130,-181.152,546.387,-43.457,-243.164,0.000
1673144723.134,-210.449,-290.527,-41.504,-316.895,0.000
1673144723.137,76.172,130.859,-35.156,-90.820,0.000
1673144723.141,167.969,-974.609,-37.598,26.855,0.000
1673144723.145,-97.656,772.461,-41.992,-166.016,0.000
1673144723.149,-240.234,-276.855,-38.574,-288.574,0.000
1673144723.153,20.508,-208.008,-28.320,-96.191,0.000
1673144723.157,210.938,903.320,-23.438,71.777,0.000
1673144723.161,-11.719,852.539,-33.203,-80.566,0.000
1673144723.165,-237.793,-446.289,-36.621,-273.438,0.000
1673144723.169,-73.242,-424.316,-30.762,-161.133,0.000
1673144723.173,202.148,822.266,-28.809,55.176,0.000
1673144723.177,93.262,-937.500,-34.180,-11.719,0.000
1673144723.180,-216.797,-174.316,-40.039,-235.352,0.000
1673144723.184,-166.504,-613.770,-31.250,-195.312,0.000
1673144723.188,145.020,705.078,-20.508,62.988,0.000
1673144723.192,149.902,-907.227,-28.320,105.469,0.000
1673144723.196,-152.832,298.340,-40.527,-113.770,0.000
1673144723.200,-220.703,-544.922,-38.574,-178.711,0.000
1673144723.204,50.293,258.789,-28.809,24.902,0.000
1673144723.208,172.363,-902.344,-33.691,138.672,0.000
1673144723.212,-85.938,538.086,-41.504,-41.992,0.000
1673144723.216,-254.395,-275.879,-38.574,-185.547,0.000
1673144723.219,-14.648,104.980,-29.297,-20.508,0.000
1673144723.223,201.660,980.957,-18.555,145.996,0.000
1673144723.227,13.184,587.891,-25.879,18.555,0.000
1673144723.231,-242.188,-140.625,-29.785,-180.664,0.000
1673144723.235,-108.398,164.551,-20.020,-90.820,0.000
1673144723.239,172.852,905.762,-19.043,133.301,0.000
1673144723.243,88.379,-974.609,-25.879,90.332,0.000
1673144723.247,-206.543,128.906,-32.715,-133.789,0.000
1673144723.251,-167.969,-313.477,-29.297,-132.812,0.000
1673144723.255,144.531,536.133,-20.020,101.562,0.000
1673144723.259,180.664,-990.723,-23.438,155.273,0.000
1673144723.262,-117.676,702.148,-33.203,-74.707,0.000
1673144723.266,-214.844,-87.891,-31.738,-169.922,0.000
1673144723.270,69.336,-94.727,-22.461,34.180,0.000
1673144723.274,205.566,648.926,-25.879,151.367,0.000
1673144723.278,-53.711,910.156,-38.086,-43.457,0.000
1673144723.282,-247.070,168.945,-41.992,-217.285,0.000
1673144723.286,-45.898,173.340,-36.621,-68.848,0.000
1673144723.290,193.848,950.684,-30.762,125.488,0.000
1673144723.294,38.574,935.059,-36.621,22.949,0.000
1673144723.298,-246.094,42.969,-44.434,-203.125,0.000
1673144723.302,-128.906,-205.078,-38.086,-152.832,0.000
1673144723.305,174.805,700.195,-33.691,82.520,0.000
1673144723.309,114.258,-871.094,-39.551,79.102,0.000
1673144723.313,-189.941,514.160,-44.922,-157.715,0.000
1673144723.317,-196.777,-455.078,-34.668,-190.430,0.000
1673144723.321,111.328,320.312,-26.855,63.965,0.000
1673144723.325,177.246,-806.641,-32.715,152.832,0.000
1673144723.329,-106.934,499.023,-41.992,-63.965,0.000
1673144723.333,-230.469,-281.738,-40.039,-181.152,0.000
1673144723.337,13.672,425.781,-30.762,13.184,0.000
1673144723.341,177.734,-853.516,-31.738,164.551,0.000
1673144723.344,-43.945,552.246,-39.062,-11.230,0.000
1673144723.348,-263.672,-337.402,-38.086,-221.680,0.000
1673144723.352,-71.777,267.090,-27.832,-98.633,0.000
1673144723.356,188.477,-888.672,-25.879,108.398,0.000
1673144723.360,47.363,615.234,-34.180,31.250,0.000
1673144723.364,-234.375,-440.918,-39.551,-178.223,0.000
1673144723.368,-135.254,-5.859,-35.645,-145.020,0.000
1673144723.372,158.691,884.766,-31.738,81.055,0.000
1673144723.376,131.836,-971.191,-35.156,122.559,0.000
1673144723.380,-161.133,602.051,-44.922,-106.445,0.000
1673144723.384,-202.637,-3.906,-43.945,-172.363,0.000
1673144723.387,83.496,457.520,-34.668,64.941,0.000
1673144723.391,188.477,985.352,-32.227,163.086,0.000
1673144723.395,-79.590,669.434,-41.016,-45.898,0.000
1673144723.399,-296.387,-164.062,-41.504,-228.516,0.000
1673144723.403,63.965,191.406,-18.066,35.156,0.000
1673144723.407,358.887,-921.875,-21.484,282.227,0.000
1673144723.411,-31.250,798.828,-38.574,20.020,0.000
1673144723.415,-393.555,-260.254,-40.527,-271.973,0.000
1673144723.419,-97.168,-161.621,-37.598,-78.613,0.000
1673144723.423,325.684,888.672,-30.762,246.582,0.000
1673144723.426,104.004,-988.770,-41.504,118.164,0.000
1673144723.430,-355.957,11.230,-52.246,-234.863,0.000
1673144723.434,-223.145,-836.914,-40.039,-159.668,0.000
1673144723.438,252.441,237.305,-28.809,233.887,0.000
1673144723.442,211.914,-912.109,-40.527,222.168,0.000
1673144723.446,-267.578,391.113,-53.711,-151.367,0.000
1673144723.450,-324.219,-859.375,-48.828,-215.820,0.000
1673144723.454,148.926,-260.254,-34.668,132.324,0.000
1673144723.458,304.199,-860.352,-34.668,269.043,0.000
1673144723.462,-132.812,667.480,-49.316,-49.805,0.000
1673144723.466,-376.953,-611.328,-47.363,-242.188,0.000
1673144723.469,7.324,-20.996,-30.273,30.762,0.000
1673144723.473,334.961,-879.883,-20.996,277.832,0.000
1673144723.477,12.207,831.543,-33.691,57.129,0.000
1673144723.481,-389.160,-542.480,-40.039,-230.957,0.000
1673144723.485,-128.906,-483.398,-24.414,-64.453,0.000
1673144723.489,324.707,964.355,-19.531,256.836,0.000
1673144723.493,153.809,-993.652,-31.250,150.879,0.000
1673144723.497,-330.566,-377.930,-41.504,-204.590,0.000
1673144723.501,-246.094,-691.406,-28.320,-162.598,0.000
1673144723.505,239.746,733.398,-12.207,196.289,0.000
1673144723.508,253.906,-889.160,-15.625,225.586,0.000
1673144723.512,-221.680,262.695,-24.902,-132.812,0.000
1673144723.516,-345.215,-500.488,-22.461,-224.121,0.000
1673144723.520,114.746,364.746,-12.695,90.332,0.000
1673144723.524,324.219,-858.398,-15.625,240.234,0.000
1673144723.528,-91.797,532.227,-26.855,-20.996,0.000
1673144723.532,-374.023,-738.770,-19.043,-242.676,0.000
1673144723.536,-5.371,-63.477,-0.977,4.395,0.000
1673144723.540,350.586,-945.801,-4.883,325.195,0.000
1673144723.544,42.480,687.012,-18.066,135.254,0.000
1673144723.548,-381.348,-492.188,-26.367,-239.746,0.000
1673144723.551,-151.367,-480.469,-21.484,-108.887,0.000
1673144723.555,312.500,851.074,-9.766,250.977,0.000
1673144723.559,185.059,-900.879,-14.160,200.684,0.000
1673144723.563,-292.969,272.949,-23.926,-134.277,0.000
1673144723.567,-261.230,-394.043,-19.043,-152.832,0.000
1673144723.571,217.773,490.723,-6.836,192.871,0.000
1673144723.575,289.062,-863.770,-10.742,303.223,0.000
1673144723.579,-175.781,389.160,-21.484,-33.203,0.000
1673144723.583,-355.469,-546.875,-25.879,-199.707,0.000
1673144723.587,81.055,-62.500,-15.137,117.676,0.000
1673144723.590,341.797,876.465,-6.348,321.777,0.000
1673144723.594,-45.898,899.902,-11.230,60.547,0.000
1673144723.598,-394.531,-289.062,-21.484,-196.777,0.000
1673144723.602,-76.660,-159.180,-19.531,-2.441,0.000
1673144723.606,327.148,-972.168,-8.301,303.711,0.000
1673144723.610,72.754,958.496,-19.043,177.246,0.000
1673144723.614,-371.582,-282.715,-28.320,-154.785,0.000
1673144723.618,-195.312,-494.141,-15.625,-61.523,0.000
1673144723.622,277.344,780.273,-9.277,286.133,0.000
1673144723.626,196.777,-815.430,-19.043,242.676,0.000
1673144723.630,-291.016,116.211,-26.367,-103.516,0.000
1673144723.633,-311.523,-792.969,-16.602,-159.180,0.000
1673144723.637,168.945,484.375,-12.207,175.293,0.000
1673144723.641,294.434,-824.219,-21.484,281.250,0.000
1673144723.645,-152.832,385.742,-24.414,-68.848,0.000
1673144723.649,-365.723,-468.262,-20.020,-244.629,0.000
1673144723.653,49.316,321.289,-13.672,39.551,0.000
1673144723.657,338.379,-913.574,-16.602,261.230,0.000
1673144723.661,-19.043,772.949,-25.879,13.184,0.000
1673144723.665,-399.902,-349.121,-26.855,-273.926,0.000
1673144723.669,-118.652,-281.738,-13.672,-92.773,0.000
1673144723.673,310.547,-979.492,-12.207,237.793,0.000
1673144723.676,102.051,638.672,-20.020,125.977,0.000
1673144723.680,-356.934,-452.148,-21.484,-227.051,0.000
1673144723.684,-230.957,-89.355,-17.090,-178.223,0.000
1673144723.688,259.766,873.047,-9.277,182.617,0.000
1673144723.692,246.582,-909.180,-21.484,192.383,0.000
1673144723.696,-237.793,525.879,-30.273,-145.508,0.000
1673144723.700,-331.055,-191.895,-17.578,-249.023,0.000
1673144723.704,133.301,507.812,-3.906,46.387,0.000
1673144723.708,308.105,-882.324,-2.930,205.078,0.000
1673144723.712,-125.000,694.824,-13.672,-93.262,0.000
1673144723.715,-388.184,-481.934,-19.043,-323.730,0.000
1673144723.719,3.418,-158.691,-10.254,-79.102,0.000
1673144723.723,344.238,934.082,-3.906,207.520,0.000
1673144723.727,20.996,966.797,-12.207,-5.859,0.000
1673144723.731,-385.742,158.203,-20.020,-351.074,0.000
1673144723.735,-135.742,-83.496,-14.648,-201.660,0.000
1673144723.739,309.570,810.547,-8.789,147.949,0.000
1673144723.743,141.113,-882.812,-12.695,69.824,0.000
1673144723.747,-332.520,300.293,-22.949,-275.391,0.000
1673144723.751,-266.113,-319.824,-17.090,-257.812,0.000
1673144723.755,224.121,654.297,-6.836,101.562,0.000
1673144723.758,242.188,-887.695,-15.137,141.602,0.000
1673144723.762,-178.223,596.680,-24.902,-164.551,0.000
1673144723.766,-274.414,-622.559,-20.508,-248.535,0.000
1673144723.770,22.461,-119.629,-12.695,-51.758,0.000
1673144723.774,192.871,-866.699,-15.137,79.590,0.000
1673144723.778,-45.898,774.414,-18.555,-65.918,0.000
1673144723.782,-264.648,-4.395,-6.836,-220.215,0.000
1673144723.786,-69.824,302.246,-3.906,-92.285,0.000
1673144723.790,181.641,-949.219,-12.695,101.074,0.000
1673144723.794,35.156,912.109,-17.090,26.855,0.000
1673144723.797,-254.883,279.297,-19.043,-190.430,0.000
1673144723.801,-160.156,342.285,-14.648,-147.461,0.000
1673144723.805,139.648,-991.699,-8.789,104.980,0.000
1673144723.809,110.840,903.809,-13.184,108.887,0.000
1673144723.813,-178.711,84.473,-13.184,-145.020,0.000
1673144723.817,-221.191,122.559,-6.836,-208.984,0.000
1673144723.821,71.289,857.422,-5.859,27.344,0.000
1673144723.825,173.340,986.328,-9.277,113.281,0.000
1673144723.829,-105.957,589.844,-15.137,-115.234,0.000
1673144723.833,-259.277,3.418,-11.719,-255.859,0.000
1673144723.837,0.977,427.734,-5.371,-76.172,0.000
1673144723.840,199.707,-970.215,-7.812,96.680,0.000
1673144723.844,-23.438,955.078,-15.625,-48.340,0.000
1673144723.848,-261.719,449.219,-22.949,-242.676,0.000
1673144723.852,-87.402,485.840,-18.555,-137.695,0.000
1673144723.856,194.336,984.863,-11.230,83.984,0.000
1673144723.860,81.055,-985.840,-17.090,24.414,0.000
1673144723.864,-232.910,694.824,-23.926,-208.496,0.000
1673144723.868,-168.457,370.117,-19.531,-190.918,0.000
1673144723.872,67.383,556.641,-13.672,-15.137,0.000
1673144723.876,93.262,872.559,-13.184,11.719,0.000
1673144723.879,-26.855,-978.027,-15.137,-108.398,0.000
1673144723.883,-120.117,682.617,-15.625,-211.426,0.000
1673144723.887,-20.508,607.422,-15.137,-107.422,0.000
1673144723.891,78.125,949.707,-15.137,10.254,0.000
1673144723.895,-3.418,-954.590,-16.602,-60.059,0.000
1673144723.899,-119.141,669.922,-20.996,-174.805,0.000
1673144723.903,-55.176,348.633,-22.461,-119.629,0.000
1673144723.907,66.406,790.527,-20.508,3.906,0.000
1673144723.911,17.090,-884.766,-20.996,-11.719,0.000
1673144723.915,-112.305,522.461,-28.320,-124.023,0.000
1673144723.919,-104.004,-91.309,-28.320,-140.137,0.000
1673144723.922,24.902,699.219,-16.113,-30.762,0.000
1673144723.926,53.223,-930.176,-15.137,33.691,0.000
1673144723.930,-73.242,700.195,-19.043,-49.316,0.000
1673144723.934,-130.371,641.113,-20.020,-104.492,0.000
1673144723.938,-10.254,924.805,-20.996,22.461,0.000
1673144723.942,71.289,-990.234,-24.414,103.027,0.000
1673144723.946,-29.785,816.406,-31.738,-32.227,0.000
1673144723.950,-180.176,184.570,-33.691,-193.359,0.000
1673144723.954,-9.766,422.363,-28.809,-67.871,0.000
1673144723.958,175.293,-845.215,-25.391,73.730,0.000
1673144723.962,-66.895,351.074,-36.133,-107.910,0.000
1673144723.965,-263.184,-302.246,-36.133,-273.926,0.000
1673144723.969,-42.480,587.402,-24.414,-119.629,0.000
1673144723.973,208.008,-990.234,-21.484,95.215,0.000
1673144723.977,39.551,987.793,-25.391,-8.789,0.000
1673144723.981,-233.887,522.461,-29.785,-226.562,0.000
1673144723.985,-126.953,455.566,-25.879,-157.227,0.000
1673144723.989,170.410,961.426,-17.578,73.242,0.000
1673144723.993,122.070,-939.453,-19.531,62.012,0.000
1673144723.997,-158.203,474.609,-24.414,-165.039,0.000
1673144724.001,-158.203,-131.836,-22.461,-213.379,0.000
1673144724.004,105.957,520.996,-19.043,-0.488,0.000
1673144724.008,166.016,996.094,-19.531,97.656,0.000
1673144724.012,-123.047,826.172,-29.785,-99.121,0.000
1673144724.016,-252.441,119.629,-33.203,-224.121,0.000
1673144724.020,8.789,347.168,-21.973,-29.297,0.000
1673144724.024,187.012,-975.586,-20.508,131.348,0.000
1673144724.028,-42.480,964.844,-28.320,-31.250,0.000
1673144724.032,-261.719,485.352,-28.809,-203.613,0.000
1673144724.036,-68.848,400.879,-24.414,-67.871,0.000
1673144724.040,194.824,948.730,-21.973,155.762,0.000
1673144724.044,67.871,983.887,-24.902,99.609,0.000
1673144724.047,-231.445,366.699,-28.320,-119.629,0.000
1673144724.051,-160.156,-368.164,-30.762,-92.285,0.000
1673144724.055,146.484,299.805,-29.297,140.137,0.000
1673144724.059,125.977,-849.609,-34.180,165.039,0.000
1673144724.063,-185.059,632.324,-37.109,-94.727,0.000
1673144724.067,-228.516,144.531,-33.203,-168.945,0.000
1673144724.071,76.172,716.797,-30.273,66.406,0.000
1673144724.075,179.199,-891.113,-33.203,159.180,0.000
1673144724.079,-94.238,682.129,-41.504,-54.688,0.000
1673144724.083,-252.930,100.098,-39.062,-208.008,0.000
1673144724.086,-8.789,573.242,-27.832,-34.668,0.000
1673144724.090,194.336,-895.508,-20.996,137.695,0.000
1673144724.094,-10.742,747.559,-28.320,-4.883,0.000
1673144724.098,-256.348,-333.496,-35.645,-199.219,0.000
1673144724.102,-93.750,149.902,-30.273,-88.867,0.000
1673144724.106,185.059,-935.059,-23.438,145.508,0.000
1673144724.110,83.496,897.461,-32.227,103.027,0.000
1673144724.114,-211.914,199.707,-35.156,-131.836,0.000
1673144724.118,-165.039,104.004,-24.414,-137.695,0.000
1673144724.122,155.273,883.789,-25.391,97.168,0.000
1673144724.126,172.363,-954.102,-29.785,156.738,0.000
1673144724.129,-133.301,741.699,-33.691,-83.984,0.000
1673144724.133,-211.914,307.129,-34.668,-183.594,0.000
1673144724.137,75.195,658.691,-27.832,43.945,0.000
1673144724.141,209.961,886.230,-28.320,179.688,0.000
1673144724.145,-57.617,677.734,-38.086,-10.254,0.000
1673144724.149,-241.699,437.500,-38.574,-189.453,0.000
1673144724.153,-11.230,627.441,-30.273,-29.297,0.000
1673144724.157,219.238,997.070,-26.367,163.086,0.000
1673144724.161,31.738,989.258,-33.691,40.039,0.000
1673144724.165,-232.422,562.012,-36.621,-162.109,0.000
1673144724.168,-106.445,342.285,-34.668,-81.055,0.000
1673144724.172,171.387,811.523,-35.645,163.574,0.000
1673144724.176,103.516,-959.473,-38.086,126.953,0.000
1673144724.180,-198.242,704.590,-44.922,-138.184,0.000
1673144724.184,-191.406,-124.023,-48.340,-138.184,0.000
1673144724.188,109.863,138.672,-39.551,107.910,0.000
1673144724.192,166.504,-975.098,-34.180,149.414,0.000
1673144724.196,-125.488,852.051,-41.992,-89.355,0.000
1673144724.200,-242.188,85.938,-43.945,-198.730,0.000
1673144724.204,27.832,346.191,-35.156,-6.836,0.000
1673144724.208,191.406,-951.660,-32.227,129.395,0.000
1673144724.211,-45.898,942.383,-39.551,-42.480,0.000
1673144724.215,-257.324,224.609,-41.016,-229.004,0.000
1673144724.219,-57.617,373.047,-31.250,-91.309,0.000
1673144724.223,198.730,-963.867,-26.367,118.164,0.000
1673144724.227,41.992,986.328,-33.691,11.230,0.000
1673144724.231,-233.887,125.488,-39.062,-213.379,0.000
1673144724.235,-129.883,-16.602,-36.621,-153.809,0.000
1673144724.239,163.086,925.781,-31.738,87.402,0.000
1673144724.243,129.395,-927.246,-38.574,81.055,0.000
1673144724.247,-168.945,417.480,-45.898,-155.762,0.000
1673144724.251,-197.266,133.789,-40.039,-187.988,0.000
1673144724.254,96.680,842.773,-29.297,46.387,0.000
1673144724.258,177.734,-953.125,-31.738,121.582,0.000
1673144724.262,-100.586,537.598,-43.457,-109.863,0.000
1673144724.266,-255.859,189.941,-45.410,-241.699,0.000
1673144724.270,-5.859,665.039,-38.574,-36.133,0.000
1673144724.274,195.801,-952.637,-35.645,145.020,0.000
1673144724.278,-20.996,791.992,-41.992,-10.254,0.000
1673144724.282,-260.742,0.000,-42.969,-214.355,0.000
1673144724.286,-83.496,267.578,-37.598,-112.793,0.000
1673144724.290,193.359,962.891,-29.297,107.910,0.000
1673144724.293,72.266,991.211,-29.297,38.574,0.000
1673144724.297,-228.027,301.758,-30.273,-196.777,0.000
1673144724.301,-158.203,104.492,-22.949,-168.457,0.000
1673144724.305,157.227,854.980,-22.461,77.148,0.000
1673144724.309,140.625,991.211,-24.902,105.469,0.000
1673144724.313,-164.062,740.723,-29.785,-133.789,0.000
1673144724.317,-211.426,291.992,-34.668,-208.984,0.000
1673144724.321,83.008,652.344,-27.344,23.438,0.000
1673144724.325,195.801,-981.934,-27.344,124.512,0.000
1673144724.329,-78.125,890.625,-30.762,-103.027,0.000
1673144724.333,-246.094,371.582,-28.320,-249.512,0.000
1673144724.336,1.465,350.098,-24.414,-72.754,0.000
1673144724.340,225.586,929.199,-25.391,108.887,0.000
1673144724.344,29.297,-950.195,-30.762,-20.020,0.000
1673144724.348,-222.656,453.613,-35.645,-226.562,0.000
1673144724.352,-86.426,-55.664,-31.738,-133.789,0.000
1673144724.356,183.594,699.219,-27.344,87.891,0.000
1673144724.360,98.145,-849.609,-30.273,45.898,0.000
1673144724.364,-207.031,487.305,-35.645,-200.195,0.000
1673144724.368,-181.152,48.828,-32.227,-211.914,0.000
1673144724.372,134.277,714.355,-21.484,40.527,0.000
1673144724.375,171.387,-868.652,-24.902,99.609,0.000
1673144724.379,-134.277,485.840,-41.992,-122.070,0.000
1673144724.383,-233.887,-140.137,-45.898,-207.031,0.000
1673144724.387,58.594,639.648,-33.691,32.715,0.000
1673144724.391,196.777,-878.418,-27.832,178.711,0.000
1673144724.395,-69.336,381.348,-35.156,-8.301,0.000
1673144724.399,-252.441,-370.117,-36.133,-160.156,0.000
1673144724.403,-24.902,495.605,-27.832,1.465,0.000
1673144724.407,216.797,-962.891,-26.367,209.473,0.000
1673144724.411,36.621,922.852,-31.738,97.168,0.000
1673144724.415,-247.070,448.242,-36.621,-135.254,0.000
1673144724.418,-128.906,197.754,-36.621,-78.125,0.000
1673144724.422,154.785,816.406,-31.250,160.645,0.000
1673144724.426,95.215,-954.590,-36.621,160.156,0.000
1673144724.430,-196.777,618.652,-43.457,-61.523,0.000
1673144724.434,-204.590,378.906,-40.527,-70.801,0.000
1673144724.438,99.121,842.773,-33.691,179.199,0.000
1673144724.442,161.621,972.168,-35.156,254.883,0.000
1673144724.446,-133.789,774.414,-39.062,37.109,0.000
1673144724.450,-247.559,160.156,-35.645,-83.984,0.000
1673144724.454,28.320,428.223,-30.762,104.492,0.000
1673144724.457,184.082,-961.914,-28.320,243.652,0.000
1673144724.461,-18.555,956.055,-31.250,108.398,0.000
1673144724.465,-164.551,602.051,-30.762,-28.809,0.000
1673144724.469,-84.961,247.070,-26.855,4.395,0.000
1673144724.473,52.246,600.098,-22.461,137.695,0.000
1673144724.477,69.336,-999.023,-11.719,169.922,0.000
1673144724.481,-74.219,957.031,-23.438,44.922,0.000
1673144724.485,-117.676,185.059,-33.203,9.277,0.000
1673144724.489,24.902,187.500,-24.414,143.066,0.000
1673144724.493,79.590,-963.379,-26.855,193.359,0.000
1673144724.497,-47.852,972.656,-32.715,72.754,0.000
1673144724.500,-134.766,540.039,-37.109,-11.719,0.000
1673144724.504,-17.578,579.590,-36.133,88.867,0.000
1673144724.508,90.820,-973.145,-32.227,181.641,0.000
1673144724.512,-18.066,847.656,-37.109,94.238,0.000
1673144724.516,-132.812,266.602,-41.504,-21.973,0.000
1673144724.520,-38.086,510.254,-33.691,33.691,0.000
1673144724.524,87.402,-975.586,-26.855,150.879,0.000
1673144724.528,22.949,975.098,-35.156,109.863,0.000
1673144724.532,-118.164,257.812,-36.133,-20.020,0.000
1673144724.536,-92.285,276.855,-28.320,-16.602,0.000
1673144724.540,44.434,-999.023,-27.344,111.816,0.000
1673144724.543,58.594,958.984,-28.320,130.859,0.000
1673144724.547,-68.359,735.840,-29.297,5.859,0.000
1673144724.551,-120.117,714.844,-26.367,-34.668,0.000
1673144724.555,7.324,940.430,-20.508,82.520,0.000
1673144724.559,76.660,917.480,-27.832,155.273,0.000
1673144724.563,-33.691,471.680,-36.133,48.340,0.000
1673144724.567,-120.117,384.277,-33.691,-49.805,0.000
1673144724.571,-23.438,873.535,-33.691,45.898,0.000
1673144724.575,76.660,828.613,-37.598,153.809,0.000
1673144724.579,-11.719,378.906,-39.551,67.383,0.000
1673144724.582,-125.488,468.750,-35.645,-63.965,0.000
1673144724.586,-58.105,785.645,-31.250,-12.695,0.000
1673144724.590,69.336,959.473,-30.273,111.328,0.000
1673144724.594,35.156,964.355,-35.645,83.984,0.000
1673144724.598,-91.309,896.484,-41.992,-52.734,0.000
1673144724.602,-83.496,756.836,-43.457,-70.312,0.000
1673144724.606,43.945,771.484,-40.039,45.410,0.000
1673144724.610,65.430,941.406,-39.551,86.426,0.000
1673144724.614,-52.246,931.641,-42.480,-14.160,0.000
1673144724.618,-112.793,557.129,-43.457,-66.406,0.000
1673144724.622,0.488,336.914,-37.598,53.223,0.000
1673144724.625,88.379,800.781,-29.297,146.973,0.000
1673144724.629,-19.531,-957.031,-32.715,40.527,0.000
1673144724.633,-122.559,604.492,-35.156,-62.500,0.000
1673144724.637,-20.508,553.223,-32.227,34.180,0.000
1673144724.641,89.355,953.613,-36.133,141.602,0.000
1673144724.645,7.812,-951.172,-42.480,72.266,0.000
1673144724.649,-116.211,621.582,-41.016,-41.504,0.000
1673144724.653,-65.430,197.266,-38.086,0.488,0.000
1673144724.657,65.430,721.680,-34.180,117.676,0.000
1673144724.661,54.199,-873.535,-19.531,121.094,0.000
1673144724.664,-74.707,524.902,-28.809,7.324,0.000
1673144724.668,-101.562,-192.383,-43.457,-18.066,0.000
1673144724.672,21.973,563.965,-34.668,113.770,0.000
1673144724.676,68.848,-910.645,-32.227,167.969,0.000
1673144724.680,-58.594,629.883,-36.621,48.340,0.000
1673144724.684,-132.812,496.582,-38.086,-29.297,0.000
1673144724.688,-8.301,896.973,-30.762,69.824,0.000
1673144724.692,86.914,995.117,-31.250,156.738,0.000
1673144724.696,-17.090,870.605,-35.645,64.453,0.000
1673144724.700,-121.094,419.434,-30.273,-46.387,0.000
1673144724.704,-40.039,456.055,-27.832,26.855,0.000
1673144724.707,70.801,-942.871,-31.250,133.789,0.000
1673144724.711,6.348,525.879,-35.156,75.684,0.000
1673144724.715,-124.023,167.969,-34.180,-59.570,0.000
1673144724.719,-90.332,806.641,-31.738,-41.992,0.000
1673144724.723,43.945,958.496,-29.297,74.707,0.000
1673144724.727,43.457,954.102,-29.785,62.500,0.000
1673144724.731,-87.891,735.840,-34.180,-65.430,0.000
1673144724.735,-118.652,626.953,-31.250,-92.773,0.000
1673144724.739,8.789,897.461,-32.227,49.316,0.000
1673144724.743,68.848,-992.188,-38.574,130.371,0.000
1673144724.746,-53.711,742.188,-39.062,12.695,0.000
1673144724.750,-137.695,374.023,-38.086,-81.543,0.000
1673144724.754,-16.602,404.297,-40.039,18.555,0.000
1673144724.758,81.055,598.633,-39.551,127.930,0.000
1673144724.762,-15.137,910.645,-36.133,41.992,0.000
1673144724.766,-130.371,521.484,-38.574,-69.824,0.000
1673144724.770,-58.594,362.305,-34.668,3.418,0.000
1673144724.774,69.336,862.305,-35.645,110.840,0.000
1673144724.778,29.297,-959.961,-38.574,72.754,0.000
1673144724.782,-100.586,767.090,-35.645,-43.945,0.000
1673144724.786,-86.426,310.059,-28.809,-30.273,0.000
1673144724.789,44.922,666.992,-23.926,105.957,0.000
1673144724.793,82.031,-963.379,-26.855,136.230,0.000
1673144724.797,-49.805,757.812,-32.715,10.254,0.000
1673144724.801,-110.352,-188.965,-28.320,-34.668,0.000
1673144724.805,33.203,58.594,-10.254,99.121,0.000
1673144724.809,114.746,-867.676,-19.043,173.340,0.000
1673144724.813,-66.406,770.020,-37.598,2.930,0.000
1673144724.817,-210.449,76.660,-32.715,-128.418,0.000
1673144724.821,42.969,520.508,-21.484,57.617,0.000
1673144724.825,189.941,-880.371,-30.762,186.523,0.000
1673144724.829,-63.965,690.430,-41.016,5.371,0.000
1673144724.832,-238.281,-27.832,-40.039,-163.086,0.000
1673144724.836,-22.461,439.453,-33.203,-0.977,0.000
1673144724.840,199.707,-892.578,-29.297,198.730,0.000
1673144724.844,12.695,768.555,-37.109,84.473,0.000
1673144724.848,-249.023,-392.578,-38.574,-135.254,0.000
1673144724.852,-115.723,26.367,-20.996,-73.242,0.000
1673144724.856,165.527,-948.242,-16.602,160.645,0.000
1673144724.860,100.586,886.230,-28.809,145.508,0.000
1673144724.864,-196.777,351.562,-35.645,-91.309,0.000
1673144724.868,-190.918,309.082,-33.691,-122.070,0.000
1673144724.871,111.816,866.211,-31.738,98.633,0.000
1673144724.875,173.828,-974.121,-30.762,162.109,0.000
1673144724.879,-125.977,771.973,-35.156,-53.223,0.000
1673144724.883,-243.652,191.895,-41.016,-158.691,0.000
1673144724.887,41.016,485.352,-39.551,38.086,0.000
1673144724.891,206.543,860.352,-40.527,181.152,0.000
1673144724.895,-38.086,570.312,-46.387,17.090,0.000
1673144724.899,-246.094,67.871,-45.898,-164.062,0.000
1673144724.903,-31.738,325.684,-34.668,-36.133,0.000
1673144724.907,219.727,-998.535,-33.203,163.574,0.000
1673144724.911,56.641,973.633,-41.504,66.895,0.000
1673144724.914,-228.027,445.312,-48.828,-168.945,0.000
1673144724.918,-130.859,195.312,-43.945,-116.211,0.000
1673144724.922,171.387,737.793,-35.156,130.371,0.000
1673144724.926,138.672,-945.312,-34.180,118.652,0.000
1673144724.930,-172.363,676.758,-41.016,-129.395,0.000
1673144724.934,-193.359,-219.238,-29.297,-160.645,0.000
1673144724.938,114.258,160.156,-7.812,80.566,0.000
1673144724.942,180.176,-966.797,-25.391,147.461,0.000
1673144724.946,-107.422,901.367,-47.852,-66.895,0.000
1673144724.950,-246.582,-136.230,-50.781,-188.965,0.000
1673144724.953,6.836,-95.215,-40.527,-0.488,0.000
1673144724.957,196.777,-980.957,-36.133,159.668,0.000
1673144724.961,-22.461,989.746,-43.945,17.578,0.000
1673144724.965,-255.371,186.523,-44.922,-166.016,0.000
1673144724.969,-75.195,244.629,-35.156,-51.270,0.000
1673144724.973,203.125,998.535,-28.809,163.574,0.000
1673144724.977,78.613,-957.031,-33.691,95.215,0.000
1673144724.981,-217.773,127.441,-34.668,-130.859,0.000
1673144724.985,-162.598,-179.688,-28.809,-116.699,0.000
1673144724.989,142.578,821.289,-22.949,117.676,0.000
1673144724.993,152.344,-870.117,-25.391,126.465,0.000
1673144724.996,-146.973,163.574,-33.203,-123.535,0.000
1673144725.000,-204.590,-280.273,-29.785,-207.031,0.000
1673144725.004,80.566,731.445,-21.973,0.488,0.000
1673144725.008,187.012,-954.590,-28.320,116.211,0.000
1673144725.012,-71.777,699.219,-37.598,-76.660,0.000
1673144725.016,-246.582,201.660,-35.645,-217.285,0.000
1673144725.020,-13.184,545.410,-24.902,-40.039,0.000
1673144725.024,197.754,-974.609,-21.973,135.254,0.000
1673144725.028,-1.465,779.297,-29.785,16.113,0.000
1673144725.032,-239.746,96.191,-36.133,-179.199,0.000
1673144725.035,-90.332,350.586,-33.691,-97.656,0.000
1673144725.039,185.547,908.203,-29.785,126.465,0.000
1673144725.043,94.238,791.992,-32.227,88.867,0.000
1673144725.047,-201.660,288.086,-36.133,-139.648,0.000
1673144725.051,-173.340,-152.344,-32.715,-146.973,0.000
1673144725.055,127.441,614.258,-25.391,80.566,0.000
1673144725.059,151.367,-909.180,-27.832,135.742,0.000
1673144725.063,-135.742,696.777,-30.273,-83.984,0.000
1673144725.067,-220.703,-42.480,-26.367,-187.988,0.000
1673144725.071,63.477,385.742,-21.973,13.672,0.000
1673144725.075,203.125,-952.148,-22.461,141.113,0.000
1673144725.078,-66.895,828.613,-31.250,-43.945,0.000
1673144725.082,-249.512,275.879,-35.645,-212.402,0.000
1673144725.086,-23.926,-110.352,-31.250,-55.664,0.000
1673144725.090,203.125,531.738,-30.273,137.695,0.000
1673144725.094,49.316,-889.160,-20.508,27.344,0.000
1673144725.098,-213.379,332.520,-21.973,-191.895,0.000
1673144725.102,-106.445,97.168,-35.645,-128.906,0.000
1673144725.106,183.594,883.301,-33.691,99.609,0.000
1673144725.110,118.652,-893.555,-34.180,77.637,0.000
1673144725.114,-187.500,480.957,-44.922,-148.438,0.000
1673144725.118,-186.035,-146.484,-42.480,-179.688,0.000
1673144725.121,112.305,550.293,-30.273,48.828,0.000
1673144725.125,182.129,-848.145,-32.227,128.418,0.000
1673144725.129,-107.910,460.449,-41.992,-69.336,0.000
1673144725.133,-246.094,-573.730,-42.480,-179.688,0.000
1673144725.137,28.320,328.613,-32.715,13.184,0.000
1673144725.141,200.684,-872.559,-32.715,166.992,0.000
1673144725.145,-36.133,704.102,-41.992,-3.906,0.000
1673144725.149,-252.441,148.926,-44.922,-180.176,0.000
1673144725.153,-59.082,486.816,-31.250,-44.434,0.000
1673144725.157,194.336,-994.629,-23.438,154.785,0.000
1673144725.160,56.641,931.641,-28.809,64.941,0.000
1673144725.164,-231.934,384.277,-30.762,-162.598,0.000
1673144725.168,-150.879,5.371,-29.297,-126.465,0.000
1673144725.172,150.879,781.738,-22.461,99.609,0.000
1673144725.176,118.164,709.473,-25.391,97.656,0.000
1673144725.180,-168.457,-3.418,-35.645,-138.184,0.000
1673144725.184,-203.125,242.188,-30.273,-202.637,0.000
1673144725.188,83.496,787.109,-26.367,26.367,0.000
1673144725.192,180.176,-980.469,-29.785,126.465,0.000
1673144725.196,-95.703,827.148,-32.227,-78.613,0.000
1673144725.200,-237.305,366.211,-31.250,-218.262,0.000
1673144725.203,19.043,593.750,-28.320,-64.941,0.000
1673144725.207,220.215,-962.402,-27.832,92.285,0.000
1673144725.211,-0.488,889.648,-34.668,-50.293,0.000
1673144725.215,-242.188,80.078,-35.645,-238.770,0.000
1673144725.219,-71.777,-186.523,-27.832,-132.324,0.000
1673144725.223,191.895,537.109,-24.902,84.473,0.000
1673144725.227,88.379,-956.543,-24.902,18.066,0.000
1673144725.231,-194.336,578.613,-34.180,-205.566,0.000
1673144725.235,-149.414,-59.082,-37.109,-182.617,0.000
1673144725.239,151.367,518.555,-28.320,47.852,0.000
1673144725.242,163.574,-892.090,-28.809,85.938,0.000
1673144725.246,-133.789,689.453,-33.691,-143.066,0.000
1673144725.250,-208.496,-40.527,-37.109,-210.938,0.000
1673144725.254,83.984,468.262,-31.738,28.320,0.000
1673144725.258,205.566,-906.738,-31.250,161.133,0.000
1673144725.262,-69.824,726.074,-41.016,-23.438,0.000
1673144725.266,-237.305,-569.336,-38.574,-169.434,0.000
1673144725.270,-3.418,-277.832,-25.879,-5.371,0.000
1673144725.274,207.031,-916.992,-24.414,178.711,0.000
1673144725.278,31.250,900.879,-34.180,59.570,0.000
1673144725.282,-228.516,87.402,-41.504,-150.879,0.000
1673144725.285,-100.098,190.430,-32.227,-56.152,0.000
1673144725.289,188.965,976.562,-24.414,187.500,0.000
1673144725.293,100.098,942.383,-32.715,152.832,0.000
1673144725.297,-123.535,561.523,-35.156,-32.227,0.000
1673144725.301,-129.883,394.043,-31.738,-68.848,0.000
1673144725.305,-2.441,774.902,-31.738,39.551,0.000
1673144725.309,89.355,871.582,-34.668,121.582,0.000
1673144725.313,-9.277,331.055,-36.621,16.602,0.000
1673144725.317,-110.840,332.031,-38.574,-96.680,0.000
1673144725.321,-1.465,731.934,-25.391,7.812,0.000
1673144725.324,100.098,876.953,-27.344,122.559,0.000
1673144725.328,15.625,625.977,-47.363,33.203,0.000
1673144725.332,-105.957,385.254,-51.270,-110.352,0.000
1673144725.336,-66.895,535.156,-47.852,-78.125,0.000
1673144725.340,65.918,831.055,-41.504,36.133,0.000
1673144725.344,47.852,893.555,-45.410,9.277,0.000
1673144725.348,-83.496,647.949,-47.852,-111.328,0.000
1673144725.352,-83.496,455.566,-43.945,-131.836,0.000
1673144725.356,44.434,475.098,-41.992,-16.602,0.000
1673144725.360,80.078,792.480,-40.039,29.785,0.000
1673144725.364,-47.363,901.367,-39.551,-88.379,0.000
1673144725.367,-128.418,461.426,-40.039,-155.273,0.000
1673144725.371,-7.812,392.090,-38.574,-37.598,0.000
1673144725.375,90.332,893.066,-34.668,52.246,0.000
1673144725.379,1.953,950.195,-40.039,-38.574,0.000
1673144725.383,-107.910,402.832,-46.387,-135.254,0.000
1673144725.387,-36.621,120.117,-41.504,-55.176,0.000
1673144725.391,88.379,751.465,-36.133,66.895,0.000
1673144725.395,26.855,-952.637,-32.715,26.367,0.000
1673144725.399,-109.375,403.320,-34.180,-91.309,0.000
1673144725.403,-84.961,-116.699,-33.203,-66.895,0.000
1673144725.406,46.387,395.996,-23.926,52.246,0.000
1673144725.410,54.688,-967.773,-22.949,61.035,0.000
1673144725.414,-78.613,457.520,-27.344,-46.875,0.000
1673144725.418,-109.863,-165.039,-28.320,-82.031,0.000
1673144725.422,26.367,387.207,-26.855,39.062,0.000
1673144725.426,87.402,-998.047,-26.367,110.352,0.000
1673144725.430,-26.855,363.281,-33.691,-0.977,0.000
1673144725.434,-113.770,-457.031,-33.203,-90.820,0.000
1673144725.438,-19.531,418.945,-22.949,10.254,0.000
1673144725.442,91.797,-955.566,-26.855,125.000,0.000
1673144725.446,3.418,702.148,-36.133,40.039,0.000
1673144725.449,-118.164,-76.172,-37.109,-70.312,0.000
1673144725.453,-46.875,40.527,-36.621,6.836,0.000
1673144725.457,79.102,728.027,-31.738,127.930,0.000
1673144725.461,34.668,644.043,-27.832,76.660,0.000
1673144725.465,-99.121,362.305,-33.203,-53.223,0.000
1673144725.469,-75.195,354.980,-33.691,-40.527,0.000
1673144725.473,63.477,537.109,-38.086,79.102,0.000
1673144725.477,80.566,449.219,-41.016,94.727,0.000
1673144725.481,-47.363,352.051,-42.969,-35.156,0.000
1673144725.485,-96.191,374.023,-41.992,-81.055,0.000
1673144725.489,21.973,441.406,-27.344,50.293,0.000
1673144725.492,89.844,764.648,-35.156,103.516,0.000
1673144725.496,-28.320,501.465,-49.316,-23.926,0.000
1673144725.500,-131.836,113.281,-46.387,-112.305,0.000
1673144725.504,-34.180,197.754,-38.086,-21.973,0.000
1673144725.508,80.078,562.988,-34.668,85.938,0.000
1673144725.512,8.301,800.781,-37.109,24.414,0.000
1673144725.516,-108.398,188.965,-38.574,-96.680,0.000
1673144725.520,-65.918,-351.074,-38.574,-57.129,0.000
1673144725.524,55.664,121.582,-36.621,54.688,0.000
1673144725.528,31.738,997.559,-36.133,27.344,0.000
1673144725.531,-94.238,634.277,-41.016,-101.074,0.000
1673144725.535,-90.820,96.680,-38.086,-109.375,0.000
1673144725.539,34.180,529.785,-36.621,12.695,0.000
1673144725.543,65.918,923.828,-35.645,51.758,0.000
1673144725.547,-61.035,431.152,-37.598,-69.336,0.000
1673144725.551,-132.324,-127.441,-41.016,-145.996,0.000
1673144725.555,-14.160,369.629,-38.086,-52.246,0.000
1673144725.559,82.031,-939.453,-31.250,20.508,0.000
1673144725.563,-19.043,820.801,-34.180,-83.984,0.000
1673144725.567,-119.629,-283.203,-35.645,-182.129,0.000
1673144725.571,-35.645,-134.766,-29.297,-88.867,0.000
1673144725.574,75.195,-995.605,-30.273,34.668,0.000
1673144725.578,9.766,860.840,-33.691,-17.090,0.000
1673144725.582,-108.398,271.484,-33.691,-119.629,0.000
1673144725.586,-55.176,315.918,-32.715,-59.570,0.000
1673144725.590,73.242,792.480,-29.785,76.660,0.000
1673144725.594,48.828,727.051,-33.203,67.871,0.000
1673144725.598,-79.590,266.113,-36.621,-64.453,0.000
1673144725.602,-87.891,291.016,-35.156,-86.914,0.000
1673144725.606,35.645,794.922,-31.250,41.992,0.000
1673144725.610,88.379,735.840,-29.297,106.445,0.000
1673144725.613,-35.156,187.988,-34.180,-25.391,0.000
1673144725.617,-104.980,387.695,-21.973,-108.887,0.000
1673144725.621,20.996,738.770,-18.066,11.719,0.000
1673144725.625,106.934,875.488,-32.715,97.168,0.000
1673144725.629,-7.324,884.766,-31.738,8.301,0.000
1673144725.633,-121.094,626.465,-30.762,-93.750,0.000
1673144725.637,-34.668,310.547,-34.668,-24.414,0.000
1673144725.641,77.148,526.855,-34.180,90.332,0.000
1673144725.645,24.902,895.508,-32.715,45.898,0.000
1673144725.649,-96.191,779.297,-33.691,-74.707,0.000
1673144725.653,-69.824,547.363,-32.715,-51.270,0.000
1673144725.656,52.246,431.641,-30.273,74.707,0.000
1673144725.660,54.199,737.305,-31.250,72.754,0.000
1673144725.664,-72.754,892.578,-35.156,-43.945,0.000
1673144725.668,-114.746,379.883,-40.039,-77.148,0.000
1673144725.672,11.719,512.695,-37.109,29.297,0.000
1673144725.676,84.961,-980.469,-35.645,88.867,0.000
1673144725.680,-20.020,790.527,-36.133,-14.160,0.000
1673144725.684,-103.027,11.230,-27.832,-97.168,0.000
1673144725.688,-10.742,-18.555,-33.691,-28.809,0.000
1673144725.692,84.961,766.602,-37.598,61.523,0.000
1673144725.695,10.254,-903.320,-33.691,11.230,0.000
1673144725.699,-155.762,134.766,-39.551,-132.812,0.000
1673144725.703,-31.250,-335.938,-38.086,-50.781,0.000
1673144725.707,202.148,847.656,-30.273,130.859,0.000
1673144725.711,15.625,-935.547,-36.133,0.488,0.000
1673144725.715,-243.652,15.137,-39.551,-197.266,0.000
1673144725.719,-96.191,-3.418,-30.762,-91.309,0.000
1673144725.723,194.336,980.469,-31.738,144.043,0.000
1673144725.727,94.727,-987.305,-37.598,90.820,0.000
1673144725.731,-188.477,145.020,-38.574,-137.207,0.000
1673144725.735,-146.973,-338.379,-36.621,-133.789,0.000
1673144725.738,122.070,534.180,-27.344,66.895,0.000
1673144725.742,159.180,-853.516,-29.297,116.699,0.000
1673144725.746,-139.160,213.867,-43.457,-114.746,0.000
1673144725.750,-236.328,-454.102,-36.133,-222.656,0.000
1673144725.754,61.035,521.973,-23.438,-10.742,0.000
1673144725.758,199.219,-948.730,-26.855,128.906,0.000
1673144725.762,-67.871,748.535,-38.574,-59.570,0.000
1673144725.766,-255.859,153.809,-39.062,-232.910,0.000
1673144725.770,-34.180,417.480,-29.785,-75.195,0.000
1673144725.774,204.590,-965.332,-27.344,127.930,0.000
1673144725.778,30.762,842.285,-32.227,20.020,0.000
1673144725.781,-240.234,78.613,-37.598,-201.172,0.000
1673144725.785,-111.816,193.359,-27.832,-137.207,0.000
1673144725.789,181.152,867.188,-28.809,97.656,0.000
1673144725.793,128.418,655.762,-34.668,85.449,0.000
1673144725.797,-166.992,64.453,-25.879,-146.973,0.000
