timestamp,TP9,AF7,AF8,TP10,Right AUX
1673144826.238,-204.102,-812.988,-122.070,-162.109,0.000
1673144826.242,-114.746,-1000.000,-118.164,-113.770,0.000
1673144826.246,147.461,-564.941,-111.328,125.977,0.000
1673144826.250,121.582,-215.332,-125.488,126.953,0.000
1673144826.254,-159.668,-835.449,-142.578,-101.562,0.000
1673144826.258,-186.035,-1000.000,-139.648,-146.484,0.000
1673144826.262,95.703,-947.754,-129.395,74.707,0.000
1673144826.266,182.617,-307.129,-125.977,162.598,0.000
1673144826.270,-72.266,-476.562,-136.230,-46.387,0.000
1673144826.274,-216.797,-1000.000,-138.184,-166.504,0.000
1673144826.277,13.672,-837.891,-120.117,28.320,0.000
1673144826.281,189.941,-28.320,-110.352,177.246,0.000
1673144826.285,-8.789,-163.574,-120.605,7.324,0.000
1673144826.289,-227.051,-1000.000,-129.395,-193.359,0.000
1673144826.293,-82.520,-963.867,-118.652,-81.543,0.000
1673144826.297,174.805,-125.977,-110.352,154.297,0.000
1673144826.301,72.266,-11.719,-120.605,73.242,0.000
1673144826.305,-209.961,-855.469,-133.789,-192.383,0.000
1673144826.309,-141.113,-1000.000,-119.629,-151.367,0.000
1673144826.313,141.113,-569.336,-102.051,103.516,0.000
1673144826.317,126.953,54.688,-109.375,112.793,0.000
1673144826.320,-156.738,-607.910,-124.512,-125.000,0.000
1673144826.324,-208.984,-1000.000,-121.582,-191.895,0.000
1673144826.328,66.406,-631.836,-105.957,41.016,0.000
1673144826.332,171.875,59.570,-109.863,155.273,0.000
1673144826.336,-80.566,-503.418,-126.953,-54.199,0.000
1673144826.340,-231.934,-1000.000,-114.258,-186.035,0.000
1673144826.344,-0.488,-784.180,-95.215,8.789,0.000
1673144826.348,198.242,-72.754,-105.957,168.945,0.000
1673144826.352,16.602,-508.301,-124.512,22.949,0.000
1673144826.356,-235.352,-1000.000,-125.488,-195.312,0.000
1673144826.359,-104.492,-956.055,-103.027,-104.004,0.000
1673144826.363,175.781,-528.320,-94.727,130.859,0.000
1673144826.367,99.609,-653.320,-107.422,89.844,0.000
1673144826.371,-183.594,-1000.000,-107.910,-148.926,0.000
1673144826.375,-169.434,-990.723,-100.098,-157.715,0.000
1673144826.379,101.562,-725.098,-92.285,88.379,0.000
1673144826.383,145.508,-229.004,-97.656,142.090,0.000
1673144826.387,-117.676,-566.895,-104.492,-81.055,0.000
1673144826.391,-215.332,-1000.000,-101.074,-188.965,0.000
1673144826.395,49.316,-924.805,-92.285,-7.812,0.000
1673144826.399,194.824,-510.742,-92.285,132.812,0.000
1673144826.402,-35.156,-659.668,-103.027,-49.316,0.000
1673144826.406,-218.262,-1000.000,-103.516,-218.750,0.000
1673144826.410,-26.855,-1000.000,-93.750,-55.664,0.000
1673144826.414,189.453,-587.891,-83.008,146.973,0.000
1673144826.418,34.180,-369.141,-89.844,34.180,0.000
1673144826.422,-225.098,-1000.000,-104.004,-191.895,0.000
1673144826.426,-125.000,-1000.000,-94.238,-113.770,0.000
1673144826.430,147.461,-287.598,-79.102,143.066,0.000
1673144826.434,110.352,74.707,-85.938,108.398,0.000
1673144826.438,-157.715,-723.633,-96.191,-142.090,0.000
1673144826.442,-163.574,-1000.000,-87.891,-162.598,0.000
1673144826.445,114.258,-805.176,-74.707,79.590,0.000
1673144826.449,178.223,-193.359,-72.754,159.668,0.000
1673144826.453,-98.633,-484.863,-87.891,-55.664,0.000
1673144826.457,-214.355,-1000.000,-91.797,-187.500,0.000
1673144826.461,36.133,-744.629,-70.801,0.488,0.000
1673144826.465,192.871,156.250,-63.965,168.945,0.000
1673144826.469,-18.066,-229.492,-76.660,-1.465,0.000
1673144826.473,-230.957,-1000.000,-84.473,-191.406,0.000
1673144826.477,-58.105,-941.406,-73.242,-74.219,0.000
1673144826.481,185.059,-19.043,-63.477,130.371,0.000
1673144826.484,61.035,-109.375,-75.195,59.570,0.000
1673144826.488,-206.055,-1000.000,-88.867,-169.922,0.000
1673144826.492,-135.742,-1000.000,-81.543,-136.719,0.000
1673144826.496,153.320,-611.328,-69.336,92.285,0.000
1673144826.500,133.789,-495.117,-82.520,99.609,0.000
1673144826.504,-146.973,-986.328,-95.215,-141.602,0.000
1673144826.508,-182.129,-1000.000,-87.891,-208.008,0.000
1673144826.512,74.707,-610.840,-83.008,36.133,0.000
1673144826.516,172.852,-2.441,-83.008,129.883,0.000
1673144826.520,-64.453,-468.750,-83.496,-90.820,0.000
1673144826.524,-218.750,-1000.000,-85.938,-227.539,0.000
1673144826.527,1.465,-876.953,-88.867,-50.293,0.000
1673144826.531,194.336,-248.535,-83.984,133.789,0.000
1673144826.535,-8.789,-307.617,-92.773,0.488,0.000
1673144826.539,-245.117,-978.027,-104.492,-203.125,0.000
1673144826.543,-84.473,-1000.000,-90.332,-86.914,0.000
1673144826.547,175.293,-770.020,-80.078,150.391,0.000
1673144826.551,77.148,-628.418,-85.938,101.074,0.000
1673144826.555,-186.035,-875.000,-93.750,-129.883,0.000
1673144826.559,-152.832,-1000.000,-85.938,-141.602,0.000
1673144826.563,117.676,-562.012,-68.359,88.379,0.000
1673144826.566,141.602,210.938,-66.406,139.160,0.000
1673144826.570,-126.953,-417.969,-73.730,-84.961,0.000
1673144826.574,-199.707,-1000.000,-82.031,-158.691,0.000
1673144826.578,60.547,-626.465,-77.148,55.176,0.000
1673144826.582,182.617,194.336,-76.172,168.945,0.000
1673144826.586,-57.617,-431.152,-89.844,-24.902,0.000
1673144826.590,-220.703,-1000.000,-95.215,-186.035,0.000
1673144826.594,-11.230,-837.402,-77.637,-26.367,0.000
1673144826.598,193.359,87.891,-63.965,157.715,0.000
1673144826.602,14.648,48.340,-80.566,26.367,0.000
1673144826.606,-229.492,-946.777,-84.961,-180.664,0.000
1673144826.609,-99.121,-986.328,-72.754,-106.445,0.000
1673144826.613,155.762,-69.824,-67.871,105.957,0.000
1673144826.617,86.426,229.492,-79.590,83.496,0.000
1673144826.621,-185.059,-723.145,-84.473,-152.344,0.000
1673144826.625,-175.293,-1000.000,-72.266,-166.992,0.000
1673144826.629,107.422,-393.555,-63.477,89.844,0.000
1673144826.633,155.273,-28.809,-69.336,166.016,0.000
1673144826.637,-116.211,-732.422,-82.520,-83.984,0.000
1673144826.641,-222.168,-1000.000,-77.637,-203.613,0.000
1673144826.645,39.062,-803.711,-66.895,15.137,0.000
1673144826.649,198.730,-231.934,-76.172,155.273,0.000
1673144826.652,-26.367,-504.883,-84.961,-23.926,0.000
1673144826.656,-278.809,-1000.000,-85.449,-240.723,0.000
1673144826.660,-35.156,-720.215,-75.684,-60.547,0.000
1673144826.664,330.078,381.836,-65.918,242.676,0.000
1673144826.668,58.594,94.727,-83.496,64.453,0.000
1673144826.672,-359.863,-957.520,-97.656,-268.066,0.000
1673144826.676,-166.016,-1000.000,-84.473,-139.160,0.000
1673144826.680,281.250,-411.133,-74.707,221.680,0.000
1673144826.684,172.363,-69.824,-86.914,165.527,0.000
1673144826.688,-285.156,-646.973,-104.980,-205.078,0.000
1673144826.691,-244.629,-1000.000,-111.328,-202.637,0.000
1673144826.695,216.797,-635.742,-103.516,188.477,0.000
1673144826.699,264.648,114.258,-110.352,249.023,0.000
1673144826.703,-179.199,-447.266,-126.465,-114.746,0.000
1673144826.707,-333.496,-1000.000,-123.535,-241.211,0.000
1673144826.711,23.926,-836.426,-107.910,38.574,0.000
1673144826.715,210.938,63.477,-97.168,201.660,0.000
1673144826.719,-17.090,20.996,-107.422,28.809,0.000
1673144826.723,-235.840,-899.414,-116.699,-168.457,0.000
1673144826.727,-73.730,-1000.000,-106.934,-51.270,0.000
1673144826.731,181.641,-238.770,-99.121,178.223,0.000
1673144826.734,64.453,121.582,-106.934,118.164,0.000
1673144826.738,-204.102,-750.000,-117.676,-106.445,0.000
1673144826.742,-157.715,-1000.000,-107.910,-102.051,0.000
1673144826.746,119.141,-284.180,-91.309,113.281,0.000
1673144826.750,143.555,294.434,-93.262,161.621,0.000
1673144826.754,-195.801,-518.066,-112.793,-115.723,0.000
1673144826.758,-273.926,-1000.000,-111.816,-206.543,0.000
1673144826.762,163.086,-295.898,-83.984,142.090,0.000
1673144826.766,303.223,862.305,-80.078,275.391,0.000
1673144826.770,-129.883,-85.449,-104.980,-58.105,0.000
1673144826.773,-355.957,-1000.000,-114.258,-255.859,0.000
1673144826.777,35.645,-721.191,-90.332,19.531,0.000
1673144826.781,327.637,632.812,-87.891,262.695,0.000
1673144826.785,-7.324,138.672,-114.258,20.020,0.000
1673144826.789,-365.723,-1000.000,-117.676,-270.996,0.000
1673144826.793,-92.285,-853.027,-94.727,-83.496,0.000
1673144826.797,312.012,474.609,-84.961,234.375,0.000
1673144826.801,110.352,206.055,-100.586,117.188,0.000
1673144826.805,-324.707,-1000.000,-108.398,-247.559,0.000
1673144826.809,-208.008,-1000.000,-100.586,-204.102,0.000
1673144826.813,237.793,-312.988,-86.914,164.551,0.000
1673144826.816,223.145,398.438,-89.355,191.406,0.000
1673144826.820,-227.539,-547.852,-111.328,-149.902,0.000
1673144826.824,-313.965,-1000.000,-106.445,-264.160,0.000
1673144826.828,117.676,-507.812,-88.867,80.566,0.000
1673144826.832,303.223,324.219,-91.797,252.441,0.000
1673144826.836,-90.332,-259.277,-104.492,-84.473,0.000
1673144826.840,-361.328,-1000.000,-107.422,-307.617,0.000
1673144826.844,-5.371,-920.898,-91.309,-29.785,0.000
1673144826.848,314.941,-67.871,-76.660,258.301,0.000
1673144826.852,15.625,99.121,-84.961,41.992,0.000
1673144826.856,-374.512,-905.762,-99.609,-283.691,0.000
1673144826.859,-151.855,-1000.000,-87.402,-126.953,0.000
1673144826.863,278.320,11.230,-75.195,216.309,0.000
1673144826.867,130.859,332.520,-94.727,127.441,0.000
1673144826.871,-323.730,-833.984,-106.934,-223.633,0.000
1673144826.875,-269.043,-1000.000,-89.844,-195.312,0.000
1673144826.879,199.219,-156.250,-75.195,166.504,0.000
1673144826.883,237.305,853.027,-87.891,224.121,0.000
1673144826.887,-207.031,-206.055,-106.445,-115.234,0.000
1673144826.891,-339.844,-1000.000,-101.562,-231.934,0.000
1673144826.895,65.918,-520.996,-79.590,103.516,0.000
1673144826.898,300.293,815.430,-75.684,288.574,0.000
1673144826.902,-65.430,134.766,-95.215,-16.602,0.000
1673144826.906,-371.582,-1000.000,-99.609,-246.094,0.000
1673144826.910,-35.645,-782.227,-80.078,3.906,0.000
1673144826.914,336.914,306.641,-71.777,274.414,0.000
1673144826.918,70.312,34.180,-90.820,84.961,0.000
1673144826.922,-349.609,-1000.000,-105.957,-249.023,0.000
1673144826.926,-169.922,-1000.000,-93.750,-136.719,0.000
1673144826.930,272.461,96.680,-76.660,234.863,0.000
1673144826.934,180.664,662.598,-89.844,193.848,0.000
1673144826.938,-285.645,-694.336,-109.375,-162.598,0.000
1673144826.941,-288.086,-1000.000,-95.703,-192.871,0.000
1673144826.945,173.828,-116.699,-80.566,129.395,0.000
1673144826.949,260.742,740.234,-93.750,220.215,0.000
1673144826.953,-178.223,-357.422,-108.887,-116.211,0.000
1673144826.957,-362.305,-1000.000,-103.516,-288.574,0.000
1673144826.961,33.691,-678.223,-83.984,20.996,0.000
1673144826.965,300.781,180.664,-78.613,260.742,0.000
1673144826.969,-43.945,-223.145,-96.191,14.160,0.000
1673144826.973,-383.789,-1000.000,-99.609,-270.020,0.000
1673144826.977,-88.379,-795.898,-80.566,-55.664,0.000
1673144826.980,305.176,-104.004,-76.172,295.410,0.000
1673144826.984,91.797,-137.695,-93.262,165.527,0.000
1673144826.988,-348.145,-773.438,-106.445,-208.008,0.000
1673144826.992,-229.004,-1000.000,-97.168,-155.273,0.000
1673144826.996,234.375,-208.984,-76.172,223.145,0.000
1673144827.000,197.754,729.980,-82.520,243.164,0.000
1673144827.004,-264.648,-320.312,-105.469,-145.020,0.000
1673144827.008,-317.871,-1000.000,-104.004,-231.934,0.000
1673144827.012,135.742,-591.797,-82.031,128.418,0.000
1673144827.016,285.156,652.832,-85.449,281.738,0.000
1673144827.020,-126.953,-46.387,-102.539,-26.855,0.000
1673144827.023,-354.980,-1000.000,-96.191,-256.836,0.000
1673144827.027,17.090,-761.230,-78.613,19.531,0.000
1673144827.031,327.637,598.633,-72.266,280.273,0.000
1673144827.035,13.184,204.102,-95.703,48.828,0.000
1673144827.039,-351.562,-1000.000,-110.352,-245.605,0.000
1673144827.043,-113.281,-864.746,-90.820,-78.125,0.000
1673144827.047,288.574,458.496,-76.172,274.902,0.000
1673144827.051,116.211,642.090,-92.285,182.617,0.000
1673144827.055,-342.285,-744.141,-109.863,-185.059,0.000
1673144827.059,-264.160,-1000.000,-94.238,-153.320,0.000
1673144827.062,206.543,0.977,-72.266,203.125,0.000
1673144827.066,219.238,875.977,-78.613,248.535,0.000
1673144827.070,-230.957,-330.078,-106.445,-102.539,0.000
1673144827.074,-326.172,-1000.000,-96.680,-210.938,0.000
1673144827.078,103.516,-337.402,-64.941,131.836,0.000
1673144827.082,289.551,868.652,-79.102,293.945,0.000
1673144827.086,-99.609,-38.086,-101.562,-27.832,0.000
1673144827.090,-363.770,-1000.000,-101.562,-264.648,0.000
1673144827.094,-47.363,-686.035,-82.031,-8.301,0.000
1673144827.098,223.145,277.832,-79.102,227.051,0.000
1673144827.102,43.945,-177.246,-96.191,86.914,0.000
1673144827.105,-210.938,-1000.000,-98.633,-134.766,0.000
1673144827.109,-113.281,-930.176,-87.402,-96.191,0.000
1673144827.113,168.457,-319.824,-83.496,138.672,0.000
1673144827.117,132.812,-234.375,-89.844,138.672,0.000
1673144827.121,-161.133,-790.527,-94.238,-104.980,0.000
1673144827.125,-191.406,-1000.000,-90.820,-149.902,0.000
1673144827.129,93.262,-539.551,-83.496,92.773,0.000
1673144827.133,172.363,261.719,-87.402,201.172,0.000
1673144827.137,-102.051,-101.074,-99.609,-25.391,0.000
1673144827.141,-240.723,-1000.000,-102.051,-186.523,0.000
1673144827.145,-3.906,-895.996,-90.332,24.414,0.000
1673144827.148,162.598,-159.668,-89.355,204.102,0.000
1673144827.152,-37.598,-381.836,-96.191,27.344,0.000
1673144827.156,-247.559,-998.535,-100.098,-185.547,0.000
1673144827.160,-74.219,-1000.000,-96.191,-63.965,0.000
1673144827.164,188.477,-466.309,-82.520,169.922,0.000
1673144827.168,50.293,305.176,-86.914,88.867,0.000
1673144827.172,-229.492,-581.543,-101.074,-154.785,0.000
1673144827.176,-145.508,-1000.000,-92.285,-107.910,0.000
1673144827.180,143.555,-164.551,-75.684,143.066,0.000
1673144827.184,129.883,556.641,-83.496,154.297,0.000
1673144827.187,-160.156,-306.152,-104.004,-92.285,0.000
1673144827.191,-211.426,-1000.000,-105.469,-174.805,0.000
1673144827.195,79.102,-667.480,-91.797,58.594,0.000
1673144827.199,182.617,156.250,-88.867,172.363,0.000
1673144827.203,-87.891,-307.129,-98.145,-30.762,0.000
1673144827.207,-249.512,-1000.000,-98.633,-173.340,0.000
1673144827.211,-13.672,-707.520,-86.426,-17.090,0.000
1673144827.215,192.871,493.652,-84.961,169.434,0.000
1673144827.219,11.230,215.332,-97.656,30.762,0.000
1673144827.223,-245.605,-1000.000,-111.816,-197.754,0.000
1673144827.227,-114.258,-895.996,-100.586,-96.680,0.000
1673144827.230,161.621,268.066,-85.449,152.832,0.000
1673144827.234,58.594,330.566,-98.145,108.887,0.000
1673144827.238,-222.656,-804.688,-109.375,-130.371,0.000
1673144827.242,-178.223,-1000.000,-98.145,-129.883,0.000
1673144827.246,106.445,-374.512,-84.961,98.633,0.000
1673144827.250,136.719,-2.441,-94.727,137.695,0.000
1673144827.254,-140.625,-854.492,-107.422,-83.496,0.000
1673144827.258,-220.703,-1000.000,-94.727,-156.250,0.000
1673144827.262,48.828,-519.043,-81.055,41.016,0.000
1673144827.266,186.523,405.273,-80.566,157.715,0.000
1673144827.270,-63.965,28.809,-94.238,-30.762,0.000
1673144827.273,-249.023,-905.273,-96.680,-195.801,0.000
1673144827.277,-29.785,-798.340,-84.473,-24.902,0.000
1673144827.281,184.570,186.035,-78.613,175.781,0.000
1673144827.285,16.113,266.602,-91.309,58.594,0.000
1673144827.289,-238.770,-786.621,-97.656,-172.852,0.000
1673144827.293,-120.605,-987.793,-85.449,-117.188,0.000
1673144827.297,161.621,-570.312,-82.520,140.625,0.000
1673144827.301,101.074,-261.719,-88.867,126.953,0.000
1673144827.305,-178.711,-608.887,-98.145,-156.250,0.000
1673144827.309,-183.105,-1000.000,-99.609,-187.988,0.000
1673144827.312,97.168,-510.254,-84.961,66.406,0.000
1673144827.316,166.016,440.918,-78.125,146.973,0.000
1673144827.320,-107.910,-74.707,-94.238,-77.637,0.000
1673144827.324,-224.609,-1000.000,-96.680,-210.938,0.000
1673144827.328,28.320,-592.285,-78.613,-2.441,0.000
1673144827.332,191.406,512.207,-79.102,159.668,0.000
1673144827.336,-39.551,-37.109,-94.727,-15.137,0.000
1673144827.340,-260.742,-1000.000,-100.098,-196.289,0.000
1673144827.344,-68.848,-778.320,-86.914,-63.477,0.000
1673144827.348,192.871,394.531,-67.383,158.691,0.000
1673144827.352,58.594,567.383,-80.078,57.617,0.000
1673144827.355,-230.469,-632.812,-100.098,-196.777,0.000
1673144827.359,-155.762,-990.234,-88.867,-157.715,0.000
1673144827.363,131.348,122.559,-77.148,104.004,0.000
1673144827.367,112.793,634.766,-85.938,120.605,0.000
1673144827.371,-161.133,-484.375,-97.656,-139.160,0.000
1673144827.375,-201.172,-1000.000,-90.332,-189.941,0.000
1673144827.379,74.219,-286.133,-78.125,54.688,0.000
1673144827.383,176.270,350.586,-81.055,154.785,0.000
1673144827.387,-84.961,-464.844,-93.262,-67.383,0.000
1673144827.391,-221.191,-1000.000,-96.680,-184.570,0.000
1673144827.394,22.461,-700.684,-88.379,1.465,0.000
1673144827.398,189.941,166.504,-83.984,140.625,0.000
1673144827.402,-13.184,-283.691,-91.797,-5.371,0.000
1673144827.406,-234.375,-1000.000,-96.680,-191.895,0.000
1673144827.410,-72.266,-738.281,-89.355,-73.730,0.000
1673144827.414,178.711,111.816,-85.449,139.160,0.000
1673144827.418,63.965,290.039,-97.656,70.801,0.000
1673144827.422,-209.473,-527.344,-102.051,-144.531,0.000
1673144827.426,-155.273,-1000.000,-92.285,-116.211,0.000
1673144827.430,132.324,-632.812,-88.379,104.004,0.000
1673144827.434,148.926,-114.746,-93.750,127.441,0.000
1673144827.437,-153.809,-395.996,-104.004,-128.906,0.000
1673144827.441,-231.445,-1000.000,-102.051,-220.703,0.000
1673144827.445,49.316,-849.121,-88.379,27.344,0.000
1673144827.449,169.434,57.617,-87.402,157.227,0.000
1673144827.453,-83.008,83.496,-97.168,-39.062,0.000
1673144827.457,-249.512,-969.727,-98.633,-187.500,0.000
1673144827.461,-23.438,-860.840,-87.402,-11.719,0.000
1673144827.465,181.152,324.707,-82.520,170.898,0.000
1673144827.469,4.395,414.062,-94.727,41.504,0.000
1673144827.473,-241.699,-705.078,-102.539,-164.062,0.000
1673144827.477,-108.887,-1000.000,-91.797,-95.215,0.000
1673144827.480,166.992,-191.895,-82.031,141.602,0.000
1673144827.484,77.637,294.434,-93.750,104.004,0.000
1673144827.488,-203.125,-608.887,-99.609,-164.551,0.000
1673144827.492,-172.363,-1000.000,-90.332,-199.219,0.000
1673144827.496,120.605,-151.855,-87.891,27.832,0.000
1673144827.500,155.762,687.012,-92.285,79.102,0.000
1673144827.504,-129.395,-167.969,-106.934,-150.391,0.000
1673144827.508,-229.980,-1000.000,-102.051,-259.277,0.000
1673144827.512,32.227,-445.312,-81.543,-47.852,0.000
1673144827.516,191.406,617.676,-85.938,111.328,0.000
1673144827.519,-46.875,-40.527,-101.074,-107.910,0.000
1673144827.523,-246.094,-1000.000,-105.469,-315.430,0.000
1673144827.527,-40.039,-765.625,-86.914,-156.738,0.000
1673144827.531,187.988,475.586,-74.219,47.363,0.000
1673144827.535,28.320,103.027,-97.656,-65.430,0.000
1673144827.539,-231.445,-1000.000,-107.422,-293.457,0.000
1673144827.543,-123.535,-898.438,-90.820,-233.887,0.000
1673144827.547,153.320,-128.418,-85.449,4.395,0.000
1673144827.551,98.145,148.926,-92.773,-14.160,0.000
1673144827.555,-198.730,-627.930,-99.609,-252.930,0.000
1673144827.559,-216.309,-1000.000,-92.285,-282.715,0.000
1673144827.562,86.426,-384.277,-83.496,-55.176,0.000
1673144827.566,160.156,167.480,-90.820,50.293,0.000
1673144827.570,-123.535,-534.668,-102.051,-182.129,0.000
1673144827.574,-239.258,-1000.000,-95.703,-334.961,0.000
1673144827.578,15.137,-623.535,-85.449,-132.324,0.000
1673144827.582,163.574,-383.789,-88.867,23.926,0.000
1673144827.586,-57.129,-509.766,-91.797,-143.555,0.000
1673144827.590,-261.230,-793.945,-97.656,-334.961,0.000
1673144827.594,-79.590,-1000.000,-92.285,-196.289,0.000
1673144827.598,169.434,-151.855,-82.520,28.320,0.000
1673144827.601,45.898,377.441,-92.773,-34.668,0.000
1673144827.605,-225.098,-603.516,-110.352,-268.066,0.000
1673144827.609,-143.555,-1000.000,-104.492,-248.535,0.000
1673144827.613,142.578,-245.605,-89.355,-21.484,0.000
1673144827.617,117.188,286.621,-97.168,-13.672,0.000
1673144827.621,-160.156,-615.723,-108.398,-249.512,0.000
1673144827.625,-198.242,-1000.000,-107.422,-313.965,0.000
1673144827.629,74.219,-635.742,-90.820,-66.895,0.000
1673144827.633,169.922,482.422,-80.566,59.082,0.000
1673144827.637,-87.402,74.219,-97.168,-123.535,0.000
1673144827.641,-229.980,-1000.000,-101.562,-285.645,0.000
1673144827.644,11.719,-636.230,-87.402,-111.816,0.000
1673144827.648,190.918,416.992,-84.473,98.145,0.000
1673144827.652,2.441,60.547,-98.633,-38.086,0.000
1673144827.656,-296.387,-985.352,-103.516,-279.297,0.000
1673144827.660,-115.723,-784.180,-90.332,-120.605,0.000
1673144827.664,283.203,463.867,-80.566,221.191,0.000
1673144827.668,80.078,463.867,-88.379,115.723,0.000
1673144827.672,-353.027,-787.109,-104.492,-248.535,0.000
1673144827.676,-226.074,-1000.000,-94.238,-187.012,0.000
1673144827.680,245.605,142.090,-77.148,190.918,0.000
1673144827.683,208.008,823.730,-93.750,198.242,0.000
1673144827.687,-264.648,-506.836,-111.328,-160.645,0.000
1673144827.691,-320.312,-1000.000,-100.586,-243.164,0.000
1673144827.695,125.977,-100.098,-83.008,122.559,0.000
1673144827.699,290.039,941.406,-81.543,280.762,0.000
1673144827.703,-123.535,-96.680,-100.098,-52.246,0.000
1673144827.707,-374.512,-1000.000,-102.539,-250.000,0.000
1673144827.711,-11.719,-649.414,-79.102,-3.906,0.000
1673144827.715,306.641,340.332,-74.707,233.398,0.000
1673144827.719,-4.395,-190.430,-93.262,17.578,0.000
1673144827.723,-381.836,-1000.000,-99.609,-302.734,0.000
1673144827.726,-120.117,-790.039,-84.961,-113.770,0.000
1673144827.730,302.734,382.324,-73.730,235.352,0.000
1673144827.734,140.625,759.277,-88.379,131.836,0.000
1673144827.738,-302.734,-475.586,-99.609,-206.055,0.000
1673144827.742,-240.234,-1000.000,-92.773,-178.223,0.000
1673144827.746,201.660,-123.047,-83.008,177.246,0.000
1673144827.750,218.262,959.473,-95.703,204.590,0.000
1673144827.754,-212.891,-122.559,-116.699,-143.555,0.000
1673144827.758,-323.730,-1000.000,-107.422,-257.812,0.000
1673144827.762,85.938,-977.051,-84.473,84.961,0.000
1673144827.766,283.691,198.730,-86.426,271.484,0.000
1673144827.769,-101.074,97.168,-108.398,-39.062,0.000
1673144827.773,-378.418,-1000.000,-108.398,-283.691,0.000
1673144827.777,-36.621,-680.176,-88.867,-23.926,0.000
1673144827.781,303.711,719.238,-86.426,275.879,0.000
1673144827.785,25.879,607.422,-105.957,69.824,0.000
1673144827.789,-375.977,-815.430,-116.699,-287.598,0.000
1673144827.793,-166.992,-942.871,-96.680,-162.109,0.000
1673144827.797,273.926,415.039,-79.102,202.637,0.000
1673144827.801,160.156,791.992,-94.727,135.742,0.000
1673144827.805,-299.805,-596.680,-116.699,-240.723,0.000
1673144827.808,-278.320,-1000.000,-102.539,-223.633,0.000
1673144827.812,127.930,-132.812,-79.590,104.492,0.000
1673144827.816,173.340,688.965,-89.355,166.504,0.000
1673144827.820,-121.094,-255.371,-107.422,-51.270,0.000
1673144827.824,-236.816,-1000.000,-103.027,-190.430,0.000
1673144827.828,9.766,-472.656,-87.891,-14.648,0.000
1673144827.832,186.035,528.809,-90.332,156.250,0.000
1673144827.836,-20.508,49.316,-102.051,-11.230,0.000
1673144827.840,-246.094,-982.910,-105.957,-210.938,0.000
1673144827.844,-70.801,-812.012,-93.262,-49.805,0.000
1673144827.848,190.918,244.629,-88.379,198.730,0.000
1673144827.851,60.547,15.625,-102.051,123.047,0.000
1673144827.855,-213.379,-991.211,-109.863,-109.863,0.000
1673144827.859,-141.113,-890.137,-98.145,-72.754,0.000
1673144827.863,56.152,-534.180,-86.914,126.465,0.000
1673144827.867,71.777,-320.801,-89.355,176.270,0.000
1673144827.871,-30.762,-249.023,-92.285,42.969,0.000
1673144827.875,-114.258,-773.438,-95.215,-58.105,0.000
1673144827.879,-10.254,-947.266,-87.891,77.148,0.000
1673144827.883,92.285,-488.281,-79.590,176.270,0.000
1673144827.887,0.000,-144.531,-85.938,55.664,0.000
1673144827.890,-104.492,-482.910,-93.750,-65.430,0.000
1673144827.894,-30.762,-845.215,-90.332,-4.883,0.000
1673144827.898,85.449,-668.457,-85.938,133.301,0.000
1673144827.902,43.457,-221.680,-85.449,118.652,0.000
1673144827.906,-83.496,-386.719,-87.891,-30.273,0.000
1673144827.910,-78.613,-909.668,-85.938,-51.270,0.000
1673144827.914,40.039,-433.105,-78.125,78.613,0.000
1673144827.918,70.312,271.973,-79.590,104.492,0.000
1673144827.922,-41.016,-124.512,-89.355,-19.531,0.000
1673144827.926,-104.980,-877.441,-90.332,-62.988,0.000
1673144827.930,0.488,-769.531,-79.102,46.387,0.000
1673144827.933,79.590,19.531,-76.660,111.328,0.000
1673144827.937,-24.902,-11.230,-84.473,14.160,0.000
1673144827.941,-124.512,-780.762,-83.008,-83.008,0.000
1673144827.945,-28.809,-927.246,-76.172,5.859,0.000
1673144827.949,75.684,-238.770,-74.707,120.605,0.000
1673144827.953,-3.906,35.156,-82.031,29.297,0.000
1673144827.957,-115.723,-787.109,-88.379,-93.750,0.000
1673144827.961,-56.152,-832.520,-82.031,-36.133,0.000
1673144827.965,57.129,-9.766,-78.125,90.820,0.000
1673144827.969,41.992,-81.055,-86.914,84.961,0.000
1673144827.973,-78.613,-806.152,-87.891,-42.969,0.000
1673144827.976,-89.355,-795.898,-77.637,-72.266,0.000
1673144827.980,24.902,-136.230,-79.102,82.520,0.000
1673144827.984,55.176,31.250,-86.426,116.211,0.000
1673144827.988,-63.477,-517.090,-92.285,-49.805,0.000
1673144827.992,-132.812,-1000.000,-91.309,-125.000,0.000
1673144827.996,-10.254,-583.008,-87.402,-6.348,0.000
1673144828.000,76.172,-189.941,-92.773,88.379,0.000
1673144828.004,-23.438,-454.102,-94.727,-20.996,0.000
1673144828.008,-122.559,-541.504,-97.656,-124.512,0.000
1673144828.012,-33.691,-342.285,-91.309,-18.066,0.000
1673144828.015,97.168,-400.879,-79.102,104.980,0.000
1673144828.019,17.578,-576.660,-86.914,27.832,0.000
1673144828.023,-121.094,-423.340,-97.168,-97.656,0.000
1673144828.027,-77.148,-553.223,-95.703,-83.984,0.000
1673144828.031,47.363,-221.191,-86.914,39.551,0.000
1673144828.035,48.340,178.223,-85.938,52.734,0.000
1673144828.039,-81.543,-399.414,-93.262,-61.035,0.000
1673144828.043,-107.910,-1000.000,-92.285,-80.078,0.000
1673144828.047,9.277,-664.062,-83.496,46.387,0.000
1673144828.051,58.105,-168.457,-81.543,97.168,0.000
1673144828.055,-42.969,-213.867,-87.402,-17.090,0.000
1673144828.058,-113.281,-711.914,-87.402,-80.078,0.000
1673144828.062,-12.207,-784.180,-79.102,17.090,0.000
1673144828.066,78.613,50.781,-77.637,91.309,0.000
1673144828.070,-1.465,264.648,-84.473,-1.953,0.000
1673144828.074,-110.352,-602.051,-86.914,-125.488,0.000
1673144828.078,-46.387,-792.969,-79.590,-60.059,0.000
1673144828.082,62.988,71.289,-70.312,66.406,0.000
1673144828.086,10.742,-48.340,-79.102,23.926,0.000
1673144828.090,-105.469,-853.516,-86.426,-106.934,0.000
1673144828.094,-78.125,-847.168,-81.055,-93.262,0.000
1673144828.097,34.668,-286.133,-79.590,39.062,0.000
1673144828.101,42.969,95.703,-84.473,60.547,0.000
1673144828.105,-72.754,-437.988,-88.379,-64.941,0.000
1673144828.109,-128.418,-968.262,-83.984,-93.750,0.000
1673144828.113,-12.695,-266.602,-78.125,25.879,0.000
1673144828.117,57.129,261.719,-79.590,80.566,0.000
1673144828.121,-52.734,-166.016,-85.449,-30.762,0.000
1673144828.125,-137.207,-637.695,-85.938,-134.766,0.000
1673144828.129,-45.898,-389.160,-83.496,-36.133,0.000
1673144828.133,63.477,-141.113,-80.566,86.914,0.000
1673144828.137,-9.277,-351.562,-84.473,20.020,0.000
1673144828.140,-190.430,-858.887,-88.379,-138.672,0.000
1673144828.144,-48.828,-833.984,-79.102,-38.086,0.000
1673144828.148,191.406,117.676,-74.707,180.176,0.000
1673144828.152,4.883,-209.473,-86.914,60.059,0.000
1673144828.156,-239.258,-1000.000,-88.867,-177.246,0.000
1673144828.160,-96.680,-769.531,-73.242,-93.262,0.000
1673144828.164,185.547,149.414,-64.941,147.949,0.000
1673144828.168,109.863,454.102,-75.684,105.469,0.000
1673144828.172,-192.383,-429.688,-83.984,-132.812,0.000
1673144828.176,-174.805,-963.867,-78.125,-141.113,0.000
1673144828.180,114.258,-524.902,-74.219,95.703,0.000
1673144828.183,155.762,26.367,-78.125,170.898,0.000
1673144828.187,-108.398,-204.102,-84.961,-53.223,0.000
1673144828.191,-211.914,-864.258,-86.914,-193.848,0.000
1673144828.195,42.480,-891.602,-79.590,13.672,0.000
1673144828.199,202.148,-38.086,-70.312,186.523,0.000
1673144828.203,-40.039,350.098,-77.148,-15.137,0.000
1673144828.207,-252.930,-782.227,-88.867,-213.379,0.000
1673144828.211,-55.664,-938.965,-79.590,-61.035,0.000
1673144828.215,182.617,338.867,-71.777,142.578,0.000
1673144828.219,26.855,652.832,-80.078,49.805,0.000
1673144828.222,-242.188,-544.922,-88.867,-167.969,0.000
1673144828.226,-132.324,-1000.000,-82.031,-101.562,0.000
1673144828.230,147.949,-88.867,-68.848,144.043,0.000
1673144828.234,105.469,663.574,-75.195,154.785,0.000
1673144828.238,-172.363,-393.066,-90.332,-73.242,0.000
1673144828.242,-192.383,-1000.000,-84.961,-135.254,0.000
1673144828.246,91.797,-205.078,-67.871,72.754,0.000
1673144828.250,175.781,855.469,-74.707,161.133,0.000
1673144828.254,-90.332,12.695,-89.355,-58.105,0.000
1673144828.258,-214.844,-1000.000,-88.379,-185.547,0.000
1673144828.262,40.039,-459.473,-77.148,29.297,0.000
1673144828.265,214.355,518.066,-77.148,191.895,0.000
1673144828.269,-5.371,-45.898,-90.332,25.391,0.000
1673144828.273,-230.469,-1000.000,-93.262,-162.598,0.000
1673144828.277,-44.922,-781.250,-78.125,-45.898,0.000
1673144828.281,186.523,518.066,-72.754,158.691,0.000
1673144828.285,48.828,211.426,-89.355,77.148,0.000
1673144828.289,-137.207,-946.289,-89.355,-105.957,0.000
1673144828.293,-117.676,-705.078,-77.148,-123.535,0.000
1673144828.297,7.324,-211.914,-77.148,8.789,0.000
1673144828.301,66.895,27.832,-77.148,83.984,0.000
1673144828.304,-33.691,-167.480,-80.566,-29.785,0.000
1673144828.308,-117.676,-489.258,-85.449,-112.305,0.000
1673144828.312,-24.902,-385.254,-80.566,-25.879,0.000
1673144828.316,75.195,-51.758,-82.031,75.684,0.000
1673144828.320,-6.348,-282.227,-82.031,30.762,0.000
1673144828.324,-108.398,-862.305,-77.637,-85.449,0.000
1673144828.328,-41.016,-832.031,-81.055,-54.199,0.000
1673144828.332,64.453,-710.938,-83.984,74.707,0.000
1673144828.336,5.859,-472.656,-85.449,42.480,0.000
1673144828.340,-102.539,-251.465,-84.473,-77.148,0.000
1673144828.344,-89.355,-650.391,-79.590,-69.336,0.000
1673144828.347,36.621,-395.508,-73.242,46.387,0.000
1673144828.351,61.523,266.113,-70.312,62.988,0.000
1673144828.355,-67.871,-11.230,-78.125,-72.266,0.000
1673144828.359,-122.070,-766.602,-82.031,-125.977,0.000
1673144828.363,-12.207,-531.250,-74.707,0.977,0.000
1673144828.367,55.664,7.324,-74.707,78.613,0.000
1673144828.371,-44.922,-229.004,-74.219,-19.043,0.000
1673144828.375,-120.117,-814.941,-78.613,-118.164,0.000
1673144828.379,-26.367,-831.055,-78.613,-53.711,0.000
1673144828.383,74.707,97.168,-64.941,76.660,0.000
1673144828.387,-5.859,228.516,-73.730,23.926,0.000
1673144828.390,-123.535,-649.902,-83.008,-92.773,0.000
1673144828.394,-61.523,-725.586,-74.219,-45.898,0.000
1673144828.398,45.410,58.105,-67.871,71.777,0.000
1673144828.402,35.156,306.641,-73.730,69.824,0.000
1673144828.406,-147.949,-572.754,-84.473,-101.562,0.000
1673144828.410,-108.887,-886.719,-79.102,-84.961,0.000
1673144828.414,172.363,15.137,-73.730,140.625,0.000
1673144828.418,116.699,237.305,-77.148,95.703,0.000
1673144828.422,-155.273,-609.863,-83.008,-125.977,0.000
1673144828.426,-166.504,-1000.000,-76.172,-142.578,0.000
1673144828.429,115.234,-178.711,-64.941,88.379,0.000
1673144828.433,150.879,558.105,-69.824,171.875,0.000
1673144828.437,-72.754,-117.676,-80.078,-26.855,0.000
1673144828.441,-146.973,-551.270,-82.031,-147.461,0.000
1673144828.445,-38.086,-324.219,-78.613,-44.922,0.000
1673144828.449,66.895,-104.004,-76.660,66.406,0.000
1673144828.453,1.465,-129.395,-82.031,2.930,0.000
1673144828.457,-116.699,-394.531,-89.355,-106.445,0.000
1673144828.461,-64.453,-815.430,-75.684,-73.242,0.000
1673144828.465,58.105,-765.137,-66.406,47.852,0.000
1673144828.469,35.645,-609.863,-79.102,37.598,0.000
1673144828.472,-90.820,-381.836,-87.891,-97.168,0.000
1673144828.476,-116.699,-546.387,-92.285,-122.070,0.000
1673144828.480,9.766,-473.633,-81.055,14.160,0.000
1673144828.484,59.082,99.609,-74.219,79.102,0.000
1673144828.488,-57.129,-125.000,-81.055,-42.480,0.000
1673144828.492,-124.023,-933.105,-82.520,-103.027,0.000
1673144828.496,-20.996,-768.555,-73.730,-7.324,0.000
1673144828.500,75.195,66.406,-71.289,88.379,0.000
1673144828.504,-15.625,71.777,-81.055,13.184,0.000
1673144828.508,-125.488,-770.020,-88.379,-113.770,0.000
1673144828.511,-50.293,-1000.000,-85.938,-31.250,0.000
1673144828.515,62.500,-306.152,-80.566,79.102,0.000
1673144828.519,18.066,81.055,-87.402,26.367,0.000
1673144828.523,-81.055,-754.883,-92.285,-86.426,0.000
1673144828.527,-60.547,-873.047,-84.961,-67.383,0.000
1673144828.531,42.480,-87.402,-75.684,68.848,0.000
1673144828.535,47.363,374.023,-76.660,98.633,0.000
1673144828.539,-71.777,-257.812,-83.008,-15.137,0.000
1673144828.543,-107.910,-962.891,-87.402,-82.031,0.000
1673144828.547,8.789,-582.031,-80.078,43.945,0.000
1673144828.551,83.984,124.512,-76.172,118.652,0.000
1673144828.554,-13.184,-326.172,-84.961,-13.184,0.000
1673144828.558,-105.469,-994.141,-82.031,-96.191,0.000
1673144828.562,-22.461,-504.395,-75.195,19.531,0.000
1673144828.566,78.613,194.824,-72.266,115.234,0.000
1673144828.570,2.930,-268.066,-74.707,24.902,0.000
1673144828.574,-104.492,-934.082,-71.289,-81.543,0.000
1673144828.578,-31.738,-486.816,-63.965,-20.020,0.000
1673144828.582,84.473,28.809,-65.430,106.445,0.000
1673144828.586,32.715,-2.441,-69.824,65.430,0.000
1673144828.590,-89.844,-446.289,-67.383,-57.617,0.000
1673144828.594,-91.797,-533.203,-69.336,-44.434,0.000
1673144828.597,16.602,-201.660,-74.219,63.477,0.000
1673144828.601,49.805,-222.656,-70.801,85.938,0.000
1673144828.605,-52.246,-669.922,-71.777,-34.668,0.000
1673144828.609,-111.328,-945.801,-73.242,-99.121,0.000
1673144828.613,-7.324,-661.133,-70.312,40.039,0.000
1673144828.617,82.031,-502.441,-69.336,123.535,0.000
1673144828.621,-11.230,-428.711,-74.707,-16.602,0.000
1673144828.625,-103.027,-460.449,-78.125,-118.164,0.000
1673144828.629,-28.320,-564.941,-72.754,-17.090,0.000
1673144828.633,69.336,-139.648,-71.289,88.379,0.000
1673144828.636,4.883,84.473,-76.172,21.484,0.000
1673144828.640,-109.375,-384.766,-80.078,-102.051,0.000
1673144828.644,-61.035,-792.480,-82.520,-85.938,0.000
1673144828.648,65.430,-666.992,-82.520,26.367,0.000
1673144828.652,47.852,-130.859,-79.102,19.043,0.000
1673144828.656,-80.566,-381.348,-82.520,-102.539,0.000
1673144828.660,-93.262,-1000.000,-87.891,-105.957,0.000
1673144828.664,45.898,-680.664,-82.031,7.812,0.000
1673144828.668,76.660,252.441,-75.684,39.062,0.000
1673144828.672,-55.664,30.273,-83.984,-67.383,0.000
1673144828.676,-126.465,-809.082,-88.867,-140.137,0.000
1673144828.679,-22.461,-476.562,-83.008,-44.922,0.000
1673144828.683,78.125,301.758,-79.102,56.152,0.000
1673144828.687,-21.973,94.727,-86.914,-42.480,0.000
1673144828.691,-125.977,-725.586,-90.820,-154.297,0.000
1673144828.695,-46.875,-894.531,-83.008,-73.242,0.000
1673144828.699,41.992,-211.426,-76.660,27.832,0.000
1673144828.703,16.113,99.609,-83.496,-28.320,0.000
1673144828.707,-163.574,-726.562,-95.215,-199.707,0.000
1673144828.711,-105.469,-891.113,-83.008,-132.324,0.000
1673144828.715,153.809,237.793,-73.730,90.332,0.000
1673144828.718,36.133,418.945,-87.402,-4.395,0.000
1673144828.722,-235.840,-744.629,-96.191,-240.234,0.000
1673144828.726,-166.016,-973.633,-87.891,-197.754,0.000
1673144828.730,129.395,153.320,-76.172,41.016,0.000
1673144828.734,118.652,587.402,-79.590,82.520,0.000
1673144828.738,-168.457,-441.895,-97.168,-170.410,0.000
1673144828.742,-213.379,-1000.000,-96.191,-273.926,0.000
1673144828.746,75.684,-341.309,-78.125,-21.973,0.000
1673144828.750,174.316,319.824,-79.590,95.703,0.000
1673144828.754,-91.309,-652.344,-88.379,-116.211,0.000
1673144828.758,-245.117,-1000.000,-82.031,-251.465,0.000
1673144828.761,-8.301,-488.281,-68.359,-49.805,0.000
1673144828.765,197.266,417.480,-69.824,140.137,0.000
1673144828.769,-18.555,131.836,-90.820,-9.277,0.000
1673144828.773,-250.488,-847.168,-95.703,-200.195,0.000
1673144828.777,-85.449,-806.641,-85.449,-81.055,0.000
1673144828.781,176.270,161.133,-80.078,136.719,0.000
1673144828.785,71.777,505.371,-89.355,69.824,0.000
1673144828.789,-208.008,-539.062,-97.168,-175.293,0.000
1673144828.793,-156.738,-1000.000,-89.355,-170.898,0.000
1673144828.797,121.582,-669.922,-77.148,84.961,0.000
1673144828.801,132.812,-72.266,-76.172,149.902,0.000
1673144828.804,-155.762,-256.836,-84.473,-103.516,0.000
1673144828.808,-236.328,-1000.000,-84.961,-203.613,0.000
1673144828.812,42.480,-517.578,-71.289,28.809,0.000
1673144828.816,175.781,772.949,-65.918,160.156,0.000
1673144828.820,-67.871,418.945,-82.520,-24.414,0.000
1673144828.824,-237.793,-874.512,-90.820,-199.219,0.000
1673144828.828,-25.879,-707.031,-77.637,-47.363,0.000
1673144828.832,201.660,610.840,-70.801,168.457,0.000
1673144828.836,30.762,319.336,-85.938,55.664,0.000
1673144828.840,-231.934,-907.715,-97.656,-175.781,0.000
1673144828.843,-101.074,-886.719,-83.496,-96.680,0.000
1673144828.847,173.828,300.781,-65.918,150.879,0.000
1673144828.851,99.609,831.055,-75.684,140.137,0.000
1673144828.855,-193.848,-369.141,-85.938,-101.074,0.000
1673144828.859,-180.176,-1000.000,-81.543,-142.090,0.000
1673144828.863,105.957,-38.574,-68.848,104.004,0.000
1673144828.867,157.715,814.941,-72.754,182.129,0.000
1673144828.871,-110.352,-163.574,-90.332,-33.691,0.000
1673144828.875,-219.727,-1000.000,-86.914,-156.250,0.000
1673144828.879,41.504,-418.945,-71.777,33.691,0.000
1673144828.883,188.965,436.523,-72.266,188.965,0.000
1673144828.886,-46.387,-270.508,-87.402,17.578,0.000
1673144828.890,-237.793,-1000.000,-91.797,-172.852,0.000
1673144828.894,-41.992,-798.340,-79.102,-22.461,0.000
1673144828.898,190.918,92.285,-75.195,180.176,0.000
1673144828.902,34.180,354.980,-85.449,54.688,0.000
1673144828.906,-218.750,-564.941,-79.102,-159.180,0.000
1673144828.910,-124.023,-828.613,-72.754,-82.520,0.000
1673144828.914,141.602,46.387,-76.660,166.992,0.000
1673144828.918,109.863,523.926,-81.055,150.879,0.000
1673144828.922,-174.805,-194.336,-88.379,-101.562,0.000
1673144828.925,-199.707,-976.562,-85.449,-142.090,0.000
1673144828.929,95.215,-703.125,-75.195,105.957,0.000
1673144828.933,179.199,-57.129,-72.266,182.617,0.000
1673144828.937,-97.656,-259.766,-79.590,-44.922,0.000
1673144828.941,-230.957,-1000.000,-78.613,-161.133,0.000
1673144828.945,13.184,-815.430,-69.336,35.645,0.000
1673144828.949,192.383,322.754,-66.895,203.613,0.000
1673144828.953,-18.555,434.082,-78.613,39.551,0.000
1673144828.957,-241.211,-777.832,-83.008,-144.043,0.000
1673144828.961,-66.895,-946.289,-71.289,-5.371,0.000
1673144828.965,187.012,252.930,-63.477,201.172,0.000
1673144828.968,66.895,684.082,-75.195,128.418,0.000
1673144828.972,-205.566,-453.613,-87.402,-111.816,0.000
1673144828.976,-139.648,-1000.000,-73.730,-82.031,0.000
1673144828.980,146.484,-194.824,-57.129,177.734,0.000
1673144828.984,155.273,749.512,-66.895,194.336,0.000
1673144828.988,-127.441,-177.246,-85.449,-67.871,0.000
1673144828.992,-196.777,-1000.000,-85.449,-133.301,0.000
1673144828.996,77.637,-428.711,-70.801,86.426,0.000
1673144829.000,172.363,772.949,-70.801,187.012,0.000
1673144829.004,-94.727,124.023,-87.891,-20.020,0.000
1673144829.008,-251.953,-1000.000,-87.891,-167.480,0.000
1673144829.011,-19.043,-610.840,-64.941,11.230,0.000
1673144829.015,199.707,672.363,-56.641,181.152,0.000
1673144829.019,22.461,277.832,-68.848,47.852,0.000
1673144829.023,-237.793,-1000.000,-82.520,-171.387,0.000
1673144829.027,-104.492,-988.281,-75.684,-85.938,0.000
1673144829.031,182.129,223.145,-66.895,167.969,0.000
1673144829.035,91.797,388.672,-76.172,137.207,0.000
1673144829.039,-207.520,-835.449,-85.449,-131.348,0.000
1673144829.043,-154.785,-946.289,-70.312,-125.000,0.000
1673144829.047,70.801,-151.367,-62.500,91.797,0.000
1673144829.050,92.285,-281.738,-71.777,142.090,0.000
1673144829.054,-25.879,-688.965,-67.383,27.832,0.000
1673144829.058,-115.723,-470.703,-66.406,-75.195,0.000
1673144829.062,-26.367,-373.535,-69.824,-7.324,0.000
1673144829.066,65.918,-71.777,-69.824,105.469,0.000
1673144829.070,4.883,-239.746,-73.730,31.250,0.000
1673144829.074,-103.516,-645.508,-78.125,-96.191,0.000
1673144829.078,-62.012,-581.543,-73.242,-46.387,0.000
1673144829.082,63.477,-514.648,-66.895,66.895,0.000
1673144829.086,39.062,-206.543,-72.266,49.805,0.000
1673144829.090,-82.520,-107.910,-77.637,-73.730,0.000
1673144829.093,-97.656,-647.949,-77.637,-92.773,0.000
1673144829.097,14.648,-709.961,-69.336,47.852,0.000
1673144829.101,57.617,89.844,-64.941,87.891,0.000
1673144829.105,-55.664,-136.230,-77.148,-56.152,0.000
1673144829.109,-129.883,-988.281,-78.613,-117.188,0.000
1673144829.113,-23.438,-614.746,-72.754,-1.953,0.000
1673144829.117,67.383,-77.637,-75.684,81.543,0.000
1673144829.121,-29.297,-185.059,-76.172,-3.418,0.000
1673144829.125,-116.211,-742.676,-72.754,-84.961,0.000
1673144829.129,-38.086,-712.402,-73.242,-31.250,0.000
1673144829.132,57.617,143.066,-77.148,71.777,0.000
1673144829.136,10.254,279.297,-82.031,35.645,0.000
1673144829.140,-96.680,-606.445,-82.520,-94.727,0.000
1673144829.144,-62.988,-877.930,-76.660,-65.918,0.000
1673144829.148,60.547,33.691,-68.359,82.520,0.000
1673144829.152,47.852,345.703,-74.707,81.055,0.000
1673144829.156,-89.355,-378.418,-82.520,-76.172,0.000
1673144829.160,-117.188,-865.723,-75.195,-108.398,0.000
1673144829.164,0.000,-543.945,-70.312,39.551,0.000
1673144829.168,55.176,-159.668,-72.754,112.793,0.000
1673144829.172,-54.688,-463.867,-79.590,-21.973,0.000
1673144829.175,-125.000,-1000.000,-80.566,-90.332,0.000
1673144829.179,-6.836,-607.422,-70.801,21.973,0.000
1673144829.183,94.727,187.988,-72.754,99.121,0.000
1673144829.187,-4.395,-378.906,-85.449,8.301,0.000
1673144829.191,-158.691,-1000.000,-81.543,-139.160,0.000
1673144829.195,-5.371,-440.918,-67.383,-4.395,0.000
1673144829.199,194.336,416.992,-65.430,181.641,0.000
1673144829.203,7.324,152.344,-77.148,27.832,0.000
1673144829.207,-223.145,-732.910,-84.473,-165.527,0.000
1673144829.211,-71.289,-924.805,-79.590,-51.270,0.000
1673144829.215,189.453,-301.270,-69.824,169.922,0.000
1673144829.218,80.566,-14.648,-68.359,113.281,0.000
1673144829.222,-199.707,-533.691,-77.148,-129.883,0.000
1673144829.226,-153.320,-772.461,-78.125,-150.879,0.000
1673144829.230,139.160,-453.125,-73.242,72.754,0.000
1673144829.234,142.090,-53.711,-68.848,113.281,0.000
1673144829.238,-153.809,-140.137,-71.777,-121.582,0.000
1673144829.242,-209.473,-1000.000,-74.219,-185.547,0.000
1673144829.246,65.430,-608.398,-62.012,47.852,0.000
1673144829.250,178.711,551.758,-60.547,161.621,0.000
1673144829.254,-60.547,188.477,-75.684,-43.457,0.000
1673144829.257,-231.934,-989.746,-83.984,-195.801,0.000
1673144829.261,-30.762,-832.520,-70.312,-19.043,0.000
1673144829.265,182.129,468.750,-59.570,185.059,0.000
1673144829.269,11.719,318.359,-78.125,51.270,0.000
1673144829.273,-232.910,-937.012,-93.262,-189.453,0.000
1673144829.277,-106.445,-978.027,-77.637,-101.074,0.000
1673144829.281,169.434,194.336,-65.918,154.785,0.000
1673144829.285,96.191,842.773,-78.613,108.887,0.000
1673144829.289,-199.707,-336.914,-89.844,-145.996,0.000
1673144829.293,-176.270,-1000.000,-83.008,-148.438,0.000
1673144829.297,111.328,40.527,-70.801,65.918,0.000
1673144829.300,168.945,797.363,-74.707,133.301,0.000
1673144829.304,-113.281,-227.051,-90.332,-80.566,0.000
1673144829.308,-283.203,-1000.000,-90.332,-234.375,0.000
1673144829.312,94.238,-151.855,-65.918,49.316,0.000
1673144829.316,322.754,-874.023,-57.617,252.441,0.000
1673144829.320,-91.797,137.207,-91.309,-59.570,0.000
1673144829.324,-364.746,-1000.000,-96.680,-295.898,0.000
1673144829.328,-3.418,-638.184,-66.895,-19.043,0.000
1673144829.332,346.680,734.375,-61.523,270.996,0.000
1673144829.336,44.922,555.176,-79.102,41.016,0.000
1673144829.339,-378.906,-859.863,-87.891,-297.363,0.000
1673144829.343,-161.133,-860.840,-66.895,-147.949,0.000
1673144829.347,276.855,541.992,-51.758,216.309,0.000
1673144829.351,143.555,659.668,-67.383,159.180,0.000
1673144829.355,-311.523,-693.848,-84.473,-218.750,0.000
1673144829.359,-266.602,-1000.000,-74.707,-230.469,0.000
1673144829.363,195.801,-98.633,-57.617,144.531,0.000
1673144829.367,246.582,594.238,-63.477,224.609,0.000
1673144829.371,-191.895,-253.418,-79.102,-108.887,0.000
1673144829.375,-326.172,-1000.000,-76.660,-250.488,0.000
1673144829.379,96.191,-391.602,-58.105,48.340,0.000
1673144829.382,317.383,865.234,-57.129,261.230,0.000
1673144829.386,-59.570,334.473,-76.172,-4.883,0.000
1673144829.390,-374.512,-984.375,-79.102,-287.109,0.000
1673144829.394,-63.965,-835.449,-66.406,-62.988,0.000
1673144829.398,323.242,456.543,-57.617,273.926,0.000
1673144829.402,87.891,691.406,-67.871,101.074,0.000
1673144829.406,-333.008,-552.246,-77.148,-267.090,0.000
1673144829.410,-162.109,-1000.000,-70.312,-154.785,0.000
1673144829.414,270.996,-208.496,-60.547,200.684,0.000
1673144829.418,199.707,986.328,-67.383,160.156,0.000
1673144829.422,-245.117,-196.777,-86.426,-189.453,0.000
1673144829.425,-283.203,-1000.000,-81.543,-229.980,0.000
1673144829.429,160.645,20.020,-61.035,119.629,0.000
1673144829.433,265.625,-845.703,-63.965,229.980,0.000
1673144829.437,-158.203,169.922,-81.543,-87.891,0.000
1673144829.441,-356.934,-1000.000,-78.613,-258.789,0.000
1673144829.445,32.227,-600.586,-61.523,17.578,0.000
1673144829.449,310.059,807.129,-59.570,235.352,0.000
1673144829.453,-31.738,524.902,-80.078,-16.113,0.000
1673144829.457,-382.812,-978.516,-90.820,-296.875,0.000
1673144829.461,-100.098,-688.965,-69.336,-98.145,0.000
1673144829.464,319.336,800.293,-51.270,240.234,0.000
1673144829.468,113.281,763.672,-61.035,127.930,0.000
1673144829.472,-333.984,-689.453,-83.984,-245.117,0.000
1673144829.476,-215.820,-987.305,-74.707,-172.363,0.000
1673144829.480,236.328,386.719,-56.641,195.801,0.000
1673144829.484,217.773,914.551,-67.383,185.547,0.000
1673144829.488,-244.629,-349.609,-84.473,-176.270,0.000
1673144829.492,-304.199,-1000.000,-80.078,-231.934,0.000
1673144829.496,142.578,-236.328,-57.617,121.094,0.000
1673144829.500,283.203,693.359,-62.012,258.789,0.000
1673144829.504,-113.281,-362.793,-81.543,-34.180,0.000
1673144829.507,-356.445,-1000.000,-78.125,-261.719,0.000
1673144829.511,20.996,-436.035,-64.453,-2.930,0.000
1673144829.515,330.078,849.121,-61.035,263.672,0.000
1673144829.519,-1.465,691.895,-82.520,40.039,0.000
1673144829.523,-381.836,-699.707,-94.727,-265.137,0.000
1673144829.527,-138.184,-802.246,-80.566,-102.051,0.000
1673144829.531,291.504,574.219,-66.895,236.816,0.000
1673144829.535,129.883,868.652,-77.637,140.137,0.000
1673144829.539,-320.801,-487.305,-96.680,-218.750,0.000
1673144829.543,-244.141,-1000.000,-82.520,-192.383,0.000
1673144829.546,218.750,-390.625,-63.477,179.199,0.000
1673144829.550,250.977,484.863,-68.848,244.141,0.000
1673144829.554,-200.195,-105.469,-86.426,-128.906,0.000
1673144829.558,-330.078,-1000.000,-83.984,-244.629,0.000
1673144829.562,103.027,-351.074,-64.453,87.402,0.000
1673144829.566,319.824,-917.480,-63.965,264.648,0.000
1673144829.570,-74.219,437.500,-87.891,-34.180,0.000
1673144829.574,-363.281,-1000.000,-94.238,-294.434,0.000
1673144829.578,-51.758,-645.508,-67.383,-72.266,0.000
1673144829.582,215.820,722.656,-56.641,161.621,0.000
1673144829.586,30.762,493.164,-73.242,48.340,0.000
1673144829.589,-217.773,-790.039,-83.984,-169.922,0.000
1673144829.593,-130.859,-928.711,-72.266,-128.418,0.000
1673144829.597,147.949,251.465,-58.594,117.676,0.000
1673144829.601,113.770,973.145,-73.242,145.020,0.000
1673144829.605,-181.152,-187.500,-90.820,-105.957,0.000
1673144829.609,-192.383,-1000.000,-77.637,-169.434,0.000
1673144829.613,92.285,-157.227,-51.758,83.008,0.000
1673144829.617,161.133,943.359,-66.895,154.785,0.000
1673144829.621,-87.402,131.348,-86.426,-66.895,0.000
1673144829.625,-217.285,-946.777,-81.055,-188.477,0.000
1673144829.629,6.348,-432.617,-72.754,-8.301,0.000
1673144829.632,182.617,460.938,-75.195,164.062,0.000
1673144829.636,-30.762,-180.176,-90.820,13.672,0.000
1673144829.640,-248.047,-1000.000,-89.355,-187.012,0.000
1673144829.644,-89.355,-813.965,-71.289,-42.969,0.000
1673144829.648,158.203,213.867,-67.871,177.246,0.000
1673144829.652,51.758,481.445,-80.566,89.844,0.000
1673144829.656,-214.844,-529.785,-88.379,-150.391,0.000
1673144829.660,-163.574,-803.223,-79.102,-153.809,0.000
1673144829.664,126.465,7.812,-68.848,96.191,0.000
1673144829.668,119.141,538.574,-73.242,139.160,0.000
1673144829.671,-172.852,-21.484,-83.984,-99.609,0.000
1673144829.675,-221.680,-739.746,-80.566,-178.711,0.000
1673144829.679,40.039,-569.336,-68.359,52.246,0.000
1673144829.683,150.391,108.887,-66.895,164.062,0.000
1673144829.687,-88.379,183.105,-78.613,-23.926,0.000
1673144829.691,-239.258,-678.223,-81.055,-199.707,0.000
1673144829.695,-16.113,-934.082,-72.266,-58.594,0.000
1673144829.699,178.223,8.301,-65.918,144.531,0.000
1673144829.703,0.488,541.504,-74.707,12.207,0.000
1673144829.707,-219.238,-577.148,-81.543,-192.871,0.000
1673144829.711,-88.379,-1000.000,-68.848,-97.168,0.000
1673144829.714,167.480,236.816,-60.547,138.672,0.000
1673144829.718,100.098,790.527,-66.406,97.656,0.000
1673144829.722,-193.848,-441.895,-77.637,-147.461,0.000
1673144829.726,-174.316,-1000.000,-71.777,-152.344,0.000
1673144829.730,120.117,-161.621,-58.105,89.844,0.000
1673144829.734,150.879,896.484,-66.895,145.508,0.000
1673144829.738,-115.723,-80.078,-87.891,-71.777,0.000
1673144829.742,-208.008,-1000.000,-81.055,-196.289,0.000
1673144829.746,39.062,-302.734,-62.500,-0.977,0.000
1673144829.750,178.223,895.508,-67.871,155.273,0.000
1673144829.753,-39.551,318.359,-78.125,-24.414,0.000
1673144829.757,-211.426,-1000.000,-74.219,-192.871,0.000
1673144829.761,-28.320,-618.652,-72.754,-56.152,0.000
1673144829.765,182.617,703.613,-72.266,128.418,0.000
1673144829.769,16.602,490.234,-81.543,23.438,0.000
1673144829.773,-243.652,-852.539,-90.820,-186.523,0.000
1673144829.777,-120.117,-1000.000,-79.102,-116.699,0.000
1673144829.781,164.062,198.730,-66.406,104.980,0.000
1673144829.785,115.234,463.379,-69.824,108.887,0.000
1673144829.789,-173.828,-856.445,-79.102,-111.328,0.000
1673144829.793,-202.148,-976.562,-75.195,-171.875,0.000
1673144829.796,79.102,30.762,-68.848,48.340,0.000
1673144829.800,152.832,672.852,-76.660,132.324,0.000
1673144829.804,-112.793,-3.418,-89.355,-94.238,0.000
1673144829.808,-243.164,-825.684,-89.355,-217.773,0.000
1673144829.812,-1.465,-401.367,-76.660,3.906,0.000
1673144829.816,172.363,459.961,-74.707,146.973,0.000
1673144829.820,-48.828,-28.320,-88.867,-19.043,0.000
1673144829.824,-242.676,-964.355,-83.984,-185.059,0.000
1673144829.828,-49.316,-676.270,-74.707,-57.129,0.000
1673144829.832,186.523,-302.246,-78.125,152.832,0.000
1673144829.836,59.082,-227.539,-84.473,67.871,0.000
1673144829.839,-204.102,-522.461,-90.820,-166.992,0.000
1673144829.843,-141.113,-947.754,-83.984,-136.230,0.000
1673144829.847,121.582,-109.375,-72.266,114.746,0.000
1673144829.851,107.422,783.691,-70.801,143.066,0.000
1673144829.855,-159.668,14.160,-79.590,-93.750,0.000
1673144829.859,-199.219,-1000.000,-75.195,-152.344,0.000
1673144829.863,75.195,-401.855,-62.012,65.430,0.000
1673144829.867,183.594,521.484,-67.871,163.086,0.000
1673144829.871,-79.102,-175.781,-77.148,-20.508,0.000
1673144829.875,-245.117,-1000.000,-78.613,-148.438,0.000
1673144829.878,1.953,-686.523,-66.406,42.480,0.000
1673144829.882,200.195,647.949,-57.129,214.844,0.000
1673144829.886,0.488,555.176,-76.660,62.012,0.000
1673144829.890,-227.051,-775.391,-81.055,-140.137,0.000
1673144829.894,-69.824,-721.680,-59.570,-41.016,0.000
1673144829.898,190.918,551.758,-49.316,174.805,0.000
1673144829.902,94.727,788.086,-64.453,99.121,0.000
1673144829.906,-169.922,-518.555,-75.195,-141.602,0.000
1673144829.910,-121.582,-981.934,-62.500,-120.117,0.000
1673144829.914,151.367,-111.816,-51.270,116.211,0.000
1673144829.918,157.715,438.477,-56.152,158.691,0.000
1673144829.921,-115.723,-369.629,-70.312,-59.570,0.000
1673144829.925,-203.125,-1000.000,-67.383,-150.391,0.000
1673144829.929,49.316,-383.789,-57.129,54.688,0.000
1673144829.933,183.105,698.730,-62.012,162.109,0.000
1673144829.937,-55.664,158.203,-75.684,-38.574,0.000
1673144829.941,-232.910,-804.688,-83.496,-186.523,0.000
1673144829.945,-23.926,-668.945,-80.078,-39.551,0.000
1673144829.949,194.824,202.148,-73.730,145.996,0.000
1673144829.953,22.461,328.125,-78.613,42.969,0.000
1673144829.957,-240.234,-570.801,-85.938,-162.598,0.000
1673144829.960,-111.328,-955.078,-78.125,-83.984,0.000
1673144829.964,161.133,-286.621,-64.941,152.832,0.000
1673144829.968,89.355,-35.156,-71.777,129.883,0.000
1673144829.972,-194.336,-405.762,-82.520,-133.301,0.000
1673144829.976,-193.359,-752.930,-77.637,-145.508,0.000
1673144829.980,83.984,-210.449,-71.777,85.938,0.000
1673144829.984,141.113,682.129,-71.289,134.766,0.000
1673144829.988,-119.141,246.582,-77.637,-78.125,0.000
1673144829.992,-214.844,-810.059,-77.637,-195.312,0.000
1673144829.996,45.898,-508.789,-63.965,11.719,0.000
1673144830.000,174.316,526.367,-63.477,161.621,0.000
1673144830.003,-57.617,228.027,-76.660,10.742,0.000
1673144830.007,-241.699,-829.102,-81.055,-171.875,0.000
1673144830.011,-57.129,-1000.000,-75.684,-55.176,0.000
1673144830.015,194.824,6.348,-53.223,178.223,0.000
1673144830.019,64.453,508.789,-55.664,90.820,0.000
1673144830.023,-228.516,-732.910,-82.031,-135.254,0.000
1673144830.027,-140.625,-866.699,-75.684,-85.938,0.000
1673144830.031,134.277,384.766,-66.895,125.977,0.000
1673144830.035,93.750,941.406,-74.707,130.859,0.000
1673144830.039,-172.852,-185.059,-83.984,-96.191,0.000
1673144830.043,-199.707,-996.094,-78.613,-125.977,0.000
1673144830.046,63.965,4.395,-63.965,108.398,0.000
1673144830.050,150.391,940.918,-67.871,183.105,0.000
1673144830.054,-106.934,-50.781,-82.031,-28.809,0.000
1673144830.058,-238.770,-1000.000,-81.055,-157.715,0.000
1673144830.062,17.578,-473.145,-64.941,37.598,0.000
1673144830.066,200.195,868.652,-62.012,208.984,0.000
1673144830.070,-9.277,369.629,-78.613,49.316,0.000
1673144830.074,-229.004,-1000.000,-84.961,-158.691,0.000
1673144830.078,-65.430,-689.941,-68.848,-35.156,0.000
1673144830.082,185.547,596.191,-63.965,182.129,0.000
1673144830.085,63.477,650.391,-76.172,97.656,0.000
1673144830.089,-195.312,-487.305,-84.473,-142.090,0.000
1673144830.093,-111.328,-804.688,-75.684,-110.352,0.000
1673144830.097,166.504,250.488,-63.965,145.996,0.000
1673144830.101,158.691,512.207,-73.242,145.508,0.000
1673144830.105,-140.625,-416.504,-81.055,-101.074,0.000
1673144830.109,-225.098,-905.762,-71.289,-155.273,0.000
1673144830.113,47.363,-396.973,-60.547,60.059,0.000
1673144830.117,163.086,290.039,-64.941,169.922,0.000
1673144830.121,-77.148,44.922,-72.754,-19.531,0.000
1673144830.125,-231.445,-636.230,-78.125,-166.992,0.000
1673144830.128,-16.602,-581.055,-73.730,6.348,0.000
1673144830.132,184.082,253.418,-67.871,171.875,0.000
1673144830.136,12.207,558.105,-71.777,31.250,0.000
1673144830.140,-222.168,-425.293,-78.613,-174.316,0.000
1673144830.144,-80.078,-762.207,-68.848,-72.266,0.000
1673144830.148,200.684,89.844,-56.641,160.645,0.000
1673144830.152,113.770,493.652,-53.223,110.352,0.000
1673144830.156,-175.293,-166.992,-62.500,-131.836,0.000
1673144830.160,-166.504,-1000.000,-71.289,-162.109,0.000
1673144830.164,115.723,-169.922,-59.570,78.125,0.000
1673144830.167,159.668,889.648,-60.059,136.230,0.000
1673144830.171,-119.629,-101.074,-77.148,-99.121,0.000
1673144830.175,-203.613,-1000.000,-79.590,-195.801,0.000
1673144830.179,52.734,-421.875,-62.012,41.504,0.000
1673144830.183,177.734,897.949,-55.176,188.477,0.000
1673144830.187,-52.246,522.461,-72.266,-42.969,0.000
1673144830.191,-244.141,-766.113,-76.660,-250.000,0.000
1673144830.195,-44.434,-792.969,-65.918,-91.797,0.000
1673144830.199,179.199,507.324,-61.035,109.375,0.000
1673144830.203,15.625,720.215,-74.707,4.395,0.000
1673144830.207,-228.516,-681.152,-89.844,-213.867,0.000
1673144830.210,-107.910,-849.121,-78.613,-154.785,0.000
1673144830.214,160.156,527.832,-64.453,96.191,0.000
1673144830.218,108.398,870.605,-71.289,89.355,0.000
1673144830.222,-173.828,-484.375,-79.102,-146.484,0.000
1673144830.226,-184.570,-1000.000,-70.312,-167.969,0.000
1673144830.230,99.609,122.070,-62.988,73.242,0.000
1673144830.234,157.715,900.391,-71.289,142.578,0.000
1673144830.238,-89.355,-6.348,-83.496,-79.102,0.000
1673144830.242,-191.406,-1000.000,-81.055,-181.641,0.000
1673144830.246,31.250,-489.258,-65.918,5.859,0.000
1673144830.249,193.848,427.734,-61.523,158.691,0.000
1673144830.253,-16.602,189.941,-74.707,-9.766,0.000
1673144830.257,-217.773,-548.828,-81.055,-200.684,0.000
1673144830.261,-47.852,-343.262,-68.848,-60.547,0.000
1673144830.265,174.316,268.555,-61.523,168.945,0.000
1673144830.269,40.527,211.426,-67.871,80.566,0.000
1673144830.273,-218.262,-195.312,-73.730,-169.922,0.000
1673144830.277,-122.070,-651.367,-59.570,-108.398,0.000
1673144830.281,155.273,33.691,-50.781,139.648,0.000
1673144830.285,118.164,835.938,-70.312,113.770,0.000
1673144830.289,-157.715,-66.406,-82.031,-140.625,0.000
1673144830.292,-191.895,-1000.000,-70.801,-188.965,0.000
1673144830.296,86.914,-350.586,-56.152,45.898,0.000
1673144830.300,179.688,591.797,-56.152,153.809,0.000
1673144830.304,-77.148,311.523,-68.848,-34.668,0.000
1673144830.308,-218.750,-636.230,-80.078,-197.754,0.000
1673144830.312,10.742,-715.820,-65.430,-22.949,0.000
1673144830.316,197.754,551.758,-47.852,177.246,0.000
1673144830.320,-0.488,842.773,-62.012,10.742,0.000
1673144830.324,-224.121,-514.160,-75.684,-215.820,0.000
1673144830.328,-57.617,-728.027,-62.988,-92.773,0.000
1673144830.332,174.805,537.598,-55.664,116.211,0.000
1673144830.335,53.223,619.141,-71.777,53.223,0.000
1673144830.339,-200.684,-559.570,-80.566,-144.531,0.000
1673144830.343,-144.043,-865.723,-69.824,-143.066,0.000
1673144830.347,138.184,341.797,-57.129,97.656,0.000
1673144830.351,148.926,-931.641,-65.918,149.414,0.000
1673144830.355,-132.324,-96.680,-69.824,-81.055,0.000
1673144830.359,-201.172,-1000.000,-57.129,-157.715,0.000
1673144830.363,58.105,37.109,-53.223,50.293,0.000
1673144830.367,177.246,-975.586,-58.594,174.805,0.000
1673144830.371,-58.594,307.617,-73.730,-15.625,0.000
1673144830.374,-238.281,-769.531,-78.613,-179.688,0.000
1673144830.378,-21.973,-372.559,-63.477,-23.438,0.000
1673144830.382,195.801,482.422,-60.059,179.688,0.000
1673144830.386,20.020,209.961,-71.289,68.848,0.000
1673144830.390,-218.750,-716.309,-71.289,-159.180,0.000
1673144830.394,-88.867,-876.465,-60.059,-93.262,0.000
1673144830.398,173.828,138.672,-54.199,137.207,0.000
1673144830.402,109.863,328.125,-62.500,116.211,0.000
1673144830.406,-173.340,-453.613,-69.336,-122.070,0.000
1673144830.410,-177.246,-556.641,-63.965,-143.555,0.000
1673144830.414,96.680,217.773,-55.176,96.191,0.000
1673144830.417,136.719,935.059,-60.059,160.156,0.000
1673144830.421,-133.789,402.344,-72.266,-76.172,0.000
1673144830.425,-234.375,-560.547,-73.730,-160.645,0.000
1673144830.429,21.973,-513.672,-63.965,49.805,0.000
1673144830.433,171.387,435.059,-59.082,159.180,0.000
1673144830.437,-56.152,591.309,-69.824,-5.371,0.000
1673144830.441,-237.793,-328.125,-73.242,-176.758,0.000
1673144830.445,-25.391,-724.121,-57.617,-25.879,0.000
1673144830.449,179.199,-40.039,-53.223,186.035,0.000
1673144830.453,19.043,778.320,-69.336,74.219,0.000
1673144830.456,-225.586,-127.930,-82.520,-154.785,0.000
1673144830.460,-133.301,-760.254,-68.848,-102.539,0.000
1673144830.464,144.531,330.566,-58.105,135.742,0.000
1673144830.468,108.398,-933.105,-71.777,119.141,0.000
1673144830.472,-170.410,131.836,-86.426,-114.258,0.000
1673144830.476,-187.500,-980.957,-81.055,-156.738,0.000
1673144830.480,87.402,-179.199,-65.918,55.664,0.000
1673144830.484,170.410,-912.598,-66.406,163.574,0.000
1673144830.488,-98.145,265.625,-77.637,-53.711,0.000
1673144830.492,-229.492,-952.148,-72.754,-208.008,0.000
1673144830.496,19.531,-267.090,-49.805,-4.395,0.000
1673144830.499,207.031,943.359,-45.898,169.434,0.000
1673144830.503,-18.066,567.383,-66.406,15.625,0.000
1673144830.507,-249.023,-671.875,-72.754,-176.270,0.000
1673144830.511,-68.359,-380.859,-59.570,-53.223,0.000
1673144830.515,176.270,822.754,-56.152,171.875,0.000
1673144830.519,62.012,711.914,-71.777,85.449,0.000
1673144830.523,-193.359,-636.230,-81.055,-154.785,0.000
1673144830.527,-145.508,-849.121,-66.895,-120.117,0.000
1673144830.531,128.906,539.551,-57.129,114.746,0.000
1673144830.535,129.883,734.375,-72.266,133.301,0.000
1673144830.539,-170.410,-626.953,-79.590,-110.840,0.000
1673144830.542,-216.309,-790.039,-65.430,-175.781,0.000
1673144830.546,70.312,289.062,-52.734,56.641,0.000
1673144830.550,173.340,987.305,-54.199,178.711,0.000
1673144830.554,-77.148,571.777,-67.383,-20.996,0.000
1673144830.558,-216.309,-336.426,-70.801,-176.270,0.000
1673144830.562,3.418,-275.391,-50.293,-10.742,0.000
1673144830.566,180.176,785.156,-42.969,174.805,0.000
1673144830.570,3.906,639.160,-58.105,35.156,0.000
1673144830.574,-217.773,-386.719,-64.941,-197.266,0.000
1673144830.578,-87.891,-215.820,-63.965,-100.586,0.000
1673144830.581,152.832,242.676,-57.129,135.742,0.000
1673144830.585,59.570,674.316,-54.199,89.355,0.000
1673144830.589,-209.961,457.031,-70.312,-151.855,0.000
1673144830.593,-171.875,-321.777,-68.359,-144.043,0.000
1673144830.597,119.141,301.270,-51.270,109.375,0.000
1673144830.601,148.926,-919.434,-56.152,155.273,0.000
1673144830.605,-133.789,675.293,-64.941,-91.797,0.000
1673144830.609,-218.262,-304.688,-58.594,-184.082,0.000
1673144830.613,51.758,87.891,-52.734,34.180,0.000
1673144830.617,174.316,-932.129,-57.617,179.688,0.000
1673144830.621,-65.430,676.270,-68.848,-9.766,0.000
1673144830.624,-236.328,-592.285,-75.195,-190.430,0.000
1673144830.628,-20.996,-510.742,-60.547,-32.715,0.000
1673144830.632,202.637,874.512,-50.293,159.180,0.000
1673144830.636,25.391,-961.426,-63.477,43.945,0.000
1673144830.640,-212.402,45.898,-72.266,-166.992,0.000
1673144830.644,-86.426,-17.578,-61.035,-98.145,0.000
1673144830.648,157.715,920.898,-49.805,125.000,0.000
1673144830.652,95.215,-950.684,-59.082,107.910,0.000
1673144830.656,-181.641,248.535,-70.801,-134.277,0.000
1673144830.660,-189.941,-199.219,-62.500,-157.715,0.000
1673144830.663,88.379,579.102,-47.363,97.168,0.000
1673144830.667,146.484,-848.633,-47.852,157.715,0.000
1673144830.671,-117.188,102.051,-62.988,-67.871,0.000
1673144830.675,-231.445,-921.387,-64.941,-183.594,0.000
1673144830.679,27.832,250.977,-47.852,11.230,0.000
1673144830.683,213.379,-924.805,-42.480,178.223,0.000
1673144830.687,-21.973,786.133,-69.336,-4.883,0.000
1673144830.691,-244.141,241.699,-80.566,-196.289,0.000
1673144830.695,-46.387,486.328,-66.406,-57.129,0.000
1673144830.699,193.359,991.211,-61.035,148.926,0.000
1673144830.703,51.270,-974.609,-66.406,73.730,0.000
1673144830.706,-223.145,413.574,-74.707,-132.812,0.000
1673144830.710,-141.602,-27.344,-68.848,-110.840,0.000
1673144830.714,158.203,623.535,-60.059,103.516,0.000
1673144830.718,129.883,928.711,-60.547,121.094,0.000
1673144830.722,-162.598,726.562,-61.035,-129.395,0.000
1673144830.726,-189.941,321.777,-64.941,-200.684,0.000
1673144830.730,80.078,608.887,-59.570,34.668,0.000
1673144830.734,165.039,-979.980,-60.547,139.160,0.000
1673144830.738,-86.914,871.582,-75.195,-73.242,0.000
1673144830.742,-229.980,349.609,-73.242,-196.289,0.000
1673144830.746,-9.766,478.027,-57.129,-3.418,0.000
1673144830.749,165.039,-999.023,-52.246,154.297,0.000
1673144830.753,-33.203,935.547,-65.918,-7.324,0.000
1673144830.757,-246.582,201.660,-71.777,-214.844,0.000
1673144830.761,-79.102,-384.277,-62.012,-100.586,0.000
1673144830.765,180.664,396.973,-52.246,122.559,0.000
1673144830.769,89.844,-842.773,-57.617,82.031,0.000
1673144830.773,-262.695,183.105,-77.637,-199.219,0.000
1673144830.777,-217.285,-221.191,-68.359,-193.359,0.000
1673144830.781,242.188,837.891,-46.387,174.805,0.000
1673144830.785,210.938,-856.934,-56.641,184.082,0.000
1673144830.788,-252.441,268.066,-78.613,-180.664,0.000
1673144830.792,-305.176,-393.555,-70.801,-250.488,0.000
1673144830.796,143.066,591.797,-48.828,109.863,0.000
1673144830.800,285.156,-809.570,-52.734,249.023,0.000
1673144830.804,-121.094,416.504,-82.031,-91.309,0.000
1673144830.808,-343.262,-713.867,-82.520,-306.641,0.000
1673144830.812,31.250,224.609,-52.246,-22.461,0.000
1673144830.816,329.590,-852.051,-52.246,253.906,0.000
1673144830.820,-5.859,672.852,-76.660,21.973,0.000
1673144830.824,-374.512,-190.430,-83.496,-287.109,0.000
1673144830.828,-111.816,230.469,-61.035,-99.121,0.000
1673144830.831,302.734,-991.211,-47.852,255.859,0.000
1673144830.835,131.836,-979.004,-63.477,151.367,0.000
1673144830.839,-306.641,114.746,-76.172,-222.656,0.000
1673144830.843,-227.051,-269.531,-63.477,-202.637,0.000
1673144830.847,244.141,812.988,-46.387,171.387,0.000
1673144830.851,245.605,-886.230,-54.199,225.098,0.000
1673144830.855,-220.703,471.191,-72.266,-150.879,0.000
1673144830.859,-304.199,-149.902,-69.824,-270.996,0.000
1673144830.863,119.629,541.992,-58.105,70.801,0.000
1673144830.867,291.016,-920.898,-62.500,247.070,0.000
1673144830.870,-103.516,790.039,-78.613,-42.969,0.000
1673144830.874,-379.395,-69.336,-80.566,-275.879,0.000
1673144830.878,-27.344,266.602,-62.012,-28.320,0.000
1673144830.882,318.359,-943.848,-58.105,263.184,0.000
1673144830.886,33.203,955.078,-70.801,72.266,0.000
1673144830.890,-356.934,181.152,-76.660,-262.207,0.000
1673144830.894,-142.090,-72.266,-66.406,-146.484,0.000
1673144830.898,282.227,804.199,-55.176,198.242,0.000
1673144830.902,139.160,-973.145,-64.941,125.977,0.000
1673144830.906,-313.965,356.445,-82.520,-233.398,0.000
1673144830.910,-275.879,-483.398,-81.055,-242.188,0.000
1673144830.913,174.805,115.234,-60.059,130.371,0.000
1673144830.917,235.352,-881.836,-61.523,203.125,0.000
1673144830.921,-205.078,667.480,-86.914,-145.996,0.000
1673144830.925,-330.566,-303.711,-80.566,-255.859,0.000
1673144830.929,42.480,322.266,-60.547,20.996,0.000
1673144830.933,226.074,-909.180,-65.430,167.969,0.000
1673144830.937,-12.207,916.016,-80.078,0.488,0.000
1673144830.941,-223.145,183.594,-81.055,-193.848,0.000
1673144830.945,-65.430,132.812,-67.383,-72.754,0.000
1673144830.949,166.504,930.664,-63.477,148.438,0.000
1673144830.953,48.828,-928.223,-78.613,65.430,0.000
1673144830.956,-222.168,-162.109,-84.961,-156.738,0.000
1673144830.960,-141.602,-361.328,-64.453,-135.742,0.000
1673144830.964,142.090,950.684,-52.734,99.609,0.000
1673144830.968,132.324,-960.938,-67.383,120.605,0.000
1673144830.972,-143.555,543.457,-79.102,-115.723,0.000
1673144830.976,-186.035,284.180,-71.289,-183.594,0.000
1673144830.980,84.961,779.297,-62.500,50.293,0.000
1673144830.984,167.969,-961.426,-65.430,165.527,0.000
1673144830.988,-94.238,834.961,-74.219,-44.922,0.000
1673144830.992,-251.953,46.387,-76.172,-197.266,0.000
1673144830.995,-25.391,332.520,-67.383,-4.395,0.000
1673144830.999,178.223,978.027,-66.406,187.500,0.000
1673144831.003,-17.578,664.062,-80.078,30.762,0.000
1673144831.007,-250.977,157.715,-76.660,-189.453,0.000
1673144831.011,-98.633,282.227,-70.312,-91.309,0.000
1673144831.015,185.547,959.961,-60.547,156.738,0.000
1673144831.019,94.727,-951.172,-60.059,114.746,0.000
1673144831.023,-203.613,606.934,-79.590,-150.391,0.000
1673144831.027,-159.668,287.598,-78.613,-150.391,0.000
1673144831.031,121.094,790.039,-66.895,86.426,0.000
1673144831.035,132.324,-927.246,-69.824,127.441,0.000
1673144831.038,-140.625,503.418,-82.520,-108.887,0.000
1673144831.042,-221.191,-176.270,-85.449,-185.547,0.000
1673144831.046,51.270,119.629,-71.777,41.992,0.000
1673144831.050,189.941,795.898,-65.918,155.273,0.000
1673144831.054,-51.758,929.199,-80.566,-40.527,0.000
1673144831.058,-226.562,175.293,-88.379,-215.332,0.000
1673144831.062,-31.250,252.441,-72.266,-53.223,0.000
1673144831.066,180.176,975.586,-62.500,146.973,0.000
1673144831.070,30.762,-956.055,-75.195,31.738,0.000
1673144831.074,-217.773,289.551,-91.797,-186.523,0.000
1673144831.077,-100.098,52.246,-84.961,-93.750,0.000
1673144831.081,172.363,893.066,-72.266,119.141,0.000
1673144831.085,95.215,-911.133,-77.148,64.453,0.000
1673144831.089,-202.148,115.723,-89.844,-155.762,0.000
1673144831.093,-200.684,-636.230,-82.031,-176.270,0.000
1673144831.097,93.750,528.809,-65.430,61.035,0.000
1673144831.101,149.902,-854.980,-76.172,146.484,0.000
1673144831.105,-133.789,504.883,-89.355,-87.891,0.000
1673144831.109,-251.465,-26.367,-88.867,-233.887,0.000
1673144831.113,8.789,569.824,-79.102,-13.184,0.000
1673144831.117,166.016,-922.363,-79.590,158.691,0.000
1673144831.120,-43.945,673.340,-92.285,-31.250,0.000
1673144831.124,-240.723,12.207,-89.844,-218.262,0.000
1673144831.128,-64.941,353.027,-75.684,-67.871,0.000
1673144831.132,160.645,-905.762,-78.125,142.578,0.000
1673144831.136,32.227,459.473,-96.680,34.668,0.000
1673144831.140,-244.141,-337.891,-103.516,-210.938,0.000
1673144831.144,-157.715,6.348,-94.727,-159.668,0.000
1673144831.148,154.297,677.246,-85.449,95.703,0.000
1673144831.152,107.910,-940.918,-86.914,104.980,0.000
1673144831.156,-179.199,610.840,-97.656,-129.395,0.000
1673144831.160,-217.285,202.148,-94.238,-207.520,0.000
1673144831.163,59.570,713.867,-78.613,14.648,0.000
1673144831.167,164.062,-940.430,-80.566,139.160,0.000
1673144831.171,-131.836,766.113,-94.238,-81.055,0.000
1673144831.175,-265.137,44.434,-92.773,-213.379,0.000
1673144831.179,0.000,40.039,-84.961,-16.113,0.000
1673144831.183,154.785,711.426,-87.891,132.324,0.000
1673144831.187,-54.199,952.637,-98.145,-14.160,0.000
1673144831.191,-255.859,308.594,-104.980,-233.887,0.000
1673144831.195,-107.910,-61.523,-92.773,-122.070,0.000
1673144831.199,136.230,633.789,-85.449,138.672,0.000
1673144831.202,21.484,-922.852,-90.820,64.453,0.000
1673144831.206,-271.484,429.688,-97.168,-187.500,0.000
1673144831.210,-185.059,-230.469,-87.891,-170.410,0.000
1673144831.214,112.305,487.305,-76.660,63.477,0.000
1673144831.218,104.004,-871.582,-83.496,120.605,0.000
1673144831.222,-176.270,635.742,-95.703,-109.863,0.000
1673144831.226,-253.418,-381.836,-96.680,-203.125,0.000
1673144831.230,31.250,136.719,-79.102,19.043,0.000
1673144831.234,163.086,-859.375,-81.055,135.742,0.000
1673144831.238,-105.957,631.836,-93.262,-68.359,0.000
1673144831.242,-282.227,-382.812,-92.773,-208.984,0.000
1673144831.245,-47.852,166.992,-82.520,-23.926,0.000
1673144831.249,185.547,-895.996,-79.102,162.598,0.000
1673144831.253,-6.348,815.430,-88.379,31.250,0.000
1673144831.257,-267.578,-240.234,-92.285,-210.449,0.000
1673144831.261,-120.117,-7.324,-74.707,-111.816,0.000
1673144831.265,159.180,-985.352,-62.988,146.484,0.000
1673144831.269,64.941,888.672,-81.055,95.215,0.000
1673144831.273,-144.531,221.191,-85.938,-110.840,0.000
1673144831.277,-135.742,0.488,-76.172,-132.324,0.000
1673144831.281,-21.973,670.898,-71.289,-11.719,0.000
1673144831.284,69.336,827.637,-69.336,62.988,0.000
1673144831.288,-30.762,351.074,-72.754,-16.602,0.000
1673144831.292,-133.789,250.977,-73.242,-115.234,0.000
1673144831.296,-37.109,703.125,-65.430,-31.250,0.000
1673144831.300,62.988,676.758,-65.918,93.750,0.000
1673144831.304,-4.395,390.137,-68.848,17.578,0.000
1673144831.308,-122.070,530.762,-68.359,-109.375,0.000
1673144831.312,-69.336,495.605,-60.547,-63.477,0.000
1673144831.316,62.500,764.160,-55.176,66.895,0.000
1673144831.320,43.457,778.320,-60.547,72.266,0.000
1673144831.324,-66.895,425.781,-64.453,-52.246,0.000
1673144831.327,-82.520,295.410,-65.918,-97.168,0.000
1673144831.331,14.160,319.336,-62.012,46.387,0.000
1673144831.335,73.242,807.617,-58.594,103.516,0.000
1673144831.339,-82.031,778.809,-71.289,-78.613,0.000
1673144831.343,-189.941,-205.566,-71.289,-163.574,0.000
1673144831.347,76.172,65.918,-54.688,56.641,0.000
1673144831.351,177.734,-994.629,-55.176,152.344,0.000
1673144831.355,-104.492,791.992,-66.895,-62.012,0.000
1673144831.359,-223.145,-215.332,-70.312,-179.688,0.000
1673144831.363,34.668,79.102,-63.477,9.766,0.000
1673144831.367,199.707,-965.332,-56.152,191.406,0.000
1673144831.370,-28.320,871.094,-69.336,31.738,0.000
1673144831.374,-238.281,-297.852,-83.496,-193.359,0.000
1673144831.378,-56.641,-356.445,-71.777,-62.988,0.000
1673144831.382,176.270,906.250,-59.570,153.320,0.000
1673144831.386,49.316,-911.133,-71.289,57.617,0.000
1673144831.390,-220.215,-146.973,-86.914,-175.293,0.000
1673144831.394,-148.438,-650.391,-67.383,-120.117,0.000
1673144831.398,135.742,702.148,-46.875,119.141,0.000
1673144831.402,110.840,-936.523,-66.406,109.863,0.000
1673144831.406,-176.270,291.016,-75.684,-117.188,0.000
1673144831.409,-217.773,-289.062,-69.336,-166.504,0.000
1673144831.413,69.336,328.613,-61.523,42.480,0.000
1673144831.417,182.617,-951.660,-61.523,146.484,0.000
1673144831.421,-78.125,523.926,-70.312,-36.621,0.000
1673144831.425,-245.117,-572.754,-69.824,-169.434,0.000
1673144831.429,-7.812,21.484,-61.523,-21.973,0.000
1673144831.433,187.988,-917.969,-63.965,142.090,0.000
1673144831.437,-5.859,517.090,-72.266,10.742,0.000
1673144831.441,-233.887,-208.496,-70.801,-191.406,0.000
1673144831.445,-81.055,201.172,-57.617,-81.055,0.000
1673144831.449,187.012,922.852,-50.293,158.691,0.000
1673144831.452,92.285,-976.562,-61.035,90.820,0.000
1673144831.456,-180.176,205.566,-65.918,-155.762,0.000
1673144831.460,-125.000,-437.988,-58.105,-125.000,0.000
1673144831.464,137.207,368.164,-49.805,120.605,0.000
1673144831.468,130.371,-966.797,-53.223,139.160,0.000
1673144831.472,-137.695,608.398,-61.035,-101.074,0.000
1673144831.476,-206.543,58.105,-62.012,-174.316,0.000
1673144831.480,67.383,265.137,-55.664,49.316,0.000
1673144831.484,187.988,741.211,-49.316,158.203,0.000
1673144831.488,-56.641,838.867,-55.176,-33.691,0.000
1673144831.491,-207.031,32.715,-57.617,-189.941,0.000
1673144831.495,-2.441,102.539,-53.223,-35.156,0.000
1673144831.499,187.500,937.012,-53.223,154.785,0.000
1673144831.503,10.254,980.469,-61.035,47.852,0.000
1673144831.507,-242.676,-25.391,-69.336,-177.246,0.000
1673144831.511,-98.145,-573.730,-56.152,-113.281,0.000
1673144831.515,179.688,489.746,-46.387,129.883,0.000
1673144831.519,95.703,-941.895,-55.664,112.305,0.000
1673144831.523,-190.918,234.863,-71.289,-123.535,0.000
1673144831.527,-187.012,-626.465,-66.895,-166.016,0.000
1673144831.531,100.586,259.766,-43.945,66.895,0.000
1673144831.534,155.273,-816.895,-48.340,145.020,0.000
1673144831.538,-119.141,533.691,-68.359,-81.055,0.000
1673144831.542,-219.238,-222.168,-67.383,-193.359,0.000
1673144831.546,38.086,441.406,-48.340,24.414,0.000
1673144831.550,190.430,-852.051,-50.293,154.785,0.000
1673144831.554,-32.715,550.781,-74.219,-36.621,0.000
1673144831.558,-228.516,-569.336,-77.148,-199.219,0.000
1673144831.562,-41.504,80.566,-56.641,-58.105,0.000
1673144831.566,185.059,-861.328,-51.758,151.855,0.000
1673144831.570,44.434,636.719,-61.523,64.453,0.000
1673144831.574,-219.727,-394.043,-66.406,-162.598,0.000
1673144831.577,-125.000,51.758,-60.059,-121.582,0.000
1673144831.581,157.715,918.457,-55.664,112.793,0.000
1673144831.585,119.629,-999.512,-62.500,117.676,0.000
1673144831.589,-173.340,528.809,-70.312,-111.328,0.000
1673144831.593,-192.383,100.586,-66.895,-167.480,0.000
1673144831.597,96.680,680.176,-58.105,58.105,0.000
1673144831.601,167.969,-982.910,-60.059,152.344,0.000
1673144831.605,-98.145,603.516,-63.477,-66.406,0.000
1673144831.609,-223.633,105.957,-61.523,-192.871,0.000
1673144831.613,15.137,402.344,-53.711,6.836,0.000
1673144831.616,193.359,907.715,-50.781,166.992,0.000
1673144831.620,-14.160,914.062,-60.547,-3.906,0.000
1673144831.624,-228.027,125.488,-70.312,-188.477,0.000
1673144831.628,-70.312,-83.984,-61.035,-61.035,0.000
1673144831.632,98.145,734.375,-52.246,94.238,0.000
1673144831.636,53.223,994.141,-53.223,61.035,0.000
1673144831.640,-54.199,846.191,-48.828,-42.480,0.000
1673144831.644,-76.660,381.348,-55.176,-83.008,0.000
1673144831.648,26.855,365.723,-61.035,27.344,0.000
1673144831.652,73.730,879.883,-58.594,99.121,0.000
1673144831.656,-26.855,-955.566,-62.012,-7.324,0.000
1673144831.659,-101.074,232.910,-65.918,-94.238,0.000
1673144831.663,-14.160,-126.465,-53.223,-1.465,0.000
1673144831.667,81.543,892.578,-43.945,101.562,0.000
1673144831.671,-2.441,-975.586,-59.082,17.578,0.000
1673144831.675,-114.746,446.777,-62.012,-91.797,0.000
1673144831.679,-47.363,303.711,-54.688,-44.922,0.000
1673144831.683,63.965,796.875,-56.641,59.082,0.000
1673144831.687,26.855,-995.605,-64.941,49.805,0.000
1673144831.691,-91.797,540.039,-68.359,-70.312,0.000
1673144831.695,-87.402,75.195,-64.941,-92.285,0.000
1673144831.698,33.203,537.109,-59.570,40.039,0.000
1673144831.702,68.848,-860.840,-53.711,80.566,0.000
1673144831.706,-49.316,188.477,-61.523,-46.875,0.000
1673144831.710,-111.816,-208.984,-60.059,-108.887,0.000
1673144831.714,3.906,793.945,-50.781,13.672,0.000
1673144831.718,78.125,-993.652,-56.641,85.938,0.000
1673144831.722,-32.227,814.453,-66.895,-33.691,0.000
1673144831.726,-121.094,575.195,-64.941,-125.488,0.000
1673144831.730,-33.203,733.887,-58.105,-26.367,0.000
1673144831.734,68.359,957.520,-56.152,93.750,0.000
1673144831.738,17.578,797.852,-56.641,35.156,0.000
1673144831.741,-95.215,296.387,-61.523,-101.074,0.000
1673144831.745,-63.965,203.613,-61.035,-65.918,0.000
1673144831.749,48.340,541.992,-57.617,74.707,0.000
1673144831.753,25.879,439.453,-56.152,61.523,0.000
1673144831.757,-90.332,633.789,-58.105,-89.844,0.000
1673144831.761,-83.984,583.008,-59.570,-103.516,0.000
1673144831.765,36.621,610.352,-51.758,43.457,0.000
1673144831.769,67.871,959.961,-53.223,76.172,0.000
1673144831.773,-50.293,890.625,-62.500,-58.105,0.000
1673144831.777,-108.887,539.551,-66.406,-125.000,0.000
1673144831.781,0.977,566.895,-57.617,-12.207,0.000
1673144831.784,92.285,987.793,-52.734,95.703,0.000
1673144831.788,1.465,745.605,-57.129,19.043,0.000
1673144831.792,-105.469,184.082,-58.105,-93.262,0.000
1673144831.796,-24.414,-201.172,-62.500,-36.621,0.000
1673144831.800,74.219,201.172,-58.594,85.449,0.000
1673144831.804,8.301,-976.562,-61.035,36.133,0.000
1673144831.808,-99.609,611.816,-72.266,-103.027,0.000
1673144831.812,-64.941,296.875,-70.312,-73.730,0.000
1673144831.816,52.734,828.125,-62.988,66.406,0.000
1673144831.820,49.316,-918.457,-63.965,60.547,0.000
1673144831.823,-64.941,637.695,-71.777,-79.102,0.000
1673144831.827,-90.820,180.176,-69.824,-98.145,0.000
1673144831.831,14.648,664.551,-59.570,29.785,0.000
1673144831.835,71.289,-928.711,-55.664,93.750,0.000
1673144831.839,-17.578,506.348,-63.965,-20.508,0.000
1673144831.843,-100.098,-368.164,-68.848,-103.027,0.000
1673144831.847,-12.207,246.582,-58.594,-7.812,0.000
1673144831.851,73.730,-999.023,-62.500,72.266,0.000
1673144831.855,-19.043,743.652,-74.219,-10.742,0.000
1673144831.859,-116.211,438.965,-75.684,-97.168,0.000
1673144831.863,-40.527,658.691,-68.848,-14.648,0.000
1673144831.866,74.707,952.637,-64.453,85.449,0.000
1673144831.870,27.344,890.625,-66.895,21.973,0.000
1673144831.874,-89.355,615.234,-67.871,-92.773,0.000
1673144831.878,-57.617,471.680,-67.383,-63.965,0.000
1673144831.882,54.199,714.355,-64.453,66.406,0.000
1673144831.886,59.570,427.734,-62.500,86.914,0.000
1673144831.890,-52.246,112.793,-64.941,-39.551,0.000
1673144831.894,-104.004,197.754,-65.918,-94.238,0.000
1673144831.898,2.441,370.117,-59.082,20.020,0.000
1673144831.902,72.266,914.062,-60.547,92.773,0.000
1673144831.905,-29.785,771.973,-64.453,-20.508,0.000
1673144831.909,-110.352,499.023,-62.500,-111.816,0.000
1673144831.913,-10.254,613.770,-64.941,6.348,0.000
1673144831.917,84.473,826.660,-65.430,94.238,0.000
1673144831.921,-2.930,958.008,-69.336,-11.719,0.000
1673144831.925,-111.816,696.289,-71.289,-118.652,0.000
1673144831.929,-43.945,159.180,-65.430,-58.105,0.000
1673144831.933,54.199,175.781,-61.035,63.477,0.000
1673144831.937,29.785,951.172,-61.035,56.641,0.000
1673144831.941,-149.414,616.699,-73.242,-127.930,0.000
1673144831.945,-113.281,38.086,-66.406,-118.652,0.000
1673144831.948,156.738,696.289,-52.734,127.441,0.000
1673144831.952,94.238,-907.715,-62.012,103.516,0.000
1673144831.956,-177.246,447.266,-68.848,-135.254,0.000
1673144831.960,-165.039,-327.637,-67.383,-155.762,0.000
1673144831.964,112.305,377.441,-58.105,86.914,0.000
1673144831.968,162.109,-872.070,-58.594,147.949,0.000
1673144831.972,-111.816,661.621,-71.777,-87.402,0.000
1673144831.976,-223.633,-454.590,-70.801,-209.473,0.000
1673144831.980,42.480,-38.574,-59.082,-1.953,0.000
1673144831.984,199.707,-911.133,-57.617,154.297,0.000
1673144831.988,-42.480,693.848,-71.777,-27.344,0.000
1673144831.991,-247.070,-531.250,-73.730,-195.312,0.000
1673144831.995,-37.598,-104.492,-54.199,-43.945,0.000
1673144831.999,208.984,-935.059,-49.316,156.250,0.000
1673144832.003,42.969,853.027,-63.477,41.992,0.000
1673144832.007,-228.516,-43.945,-74.219,-178.711,0.000
1673144832.011,-114.258,-22.949,-62.500,-99.609,0.000
1673144832.015,163.086,848.633,-50.781,141.113,0.000
1673144832.019,109.375,980.957,-55.176,119.141,0.000
1673144832.023,-162.109,29.297,-67.383,-138.184,0.000
1673144832.027,-172.852,-426.758,-65.918,-172.852,0.000
1673144832.030,99.609,637.695,-55.176,58.594,0.000
1673144832.034,161.621,920.410,-61.523,145.508,0.000
1673144832.038,-103.516,11.719,-70.801,-72.266,0.000
1673144832.042,-216.797,-263.672,-62.988,-203.125,0.000
1673144832.046,40.039,463.867,-52.246,17.578,0.000
1673144832.050,208.008,-974.609,-52.246,180.176,0.000
1673144832.054,-13.184,854.980,-59.570,-1.465,0.000
1673144832.058,-223.633,152.344,-62.012,-190.918,0.000
1673144832.062,-59.570,199.219,-51.758,-60.547,0.000
1673144832.066,180.664,944.336,-44.434,160.645,0.000
1673144832.070,55.664,876.953,-57.129,85.938,0.000
1673144832.073,-220.703,-38.086,-72.754,-151.367,0.000
1673144832.077,-149.414,-345.703,-65.430,-139.648,0.000
1673144832.081,135.742,225.586,-50.293,112.793,0.000
1673144832.085,112.305,755.859,-55.176,127.930,0.000
1673144832.089,-102.539,847.656,-65.430,-63.965,0.000
1673144832.093,-123.047,304.688,-63.965,-116.699,0.000
1673144832.097,-5.371,362.305,-62.988,-19.531,0.000
1673144832.101,64.453,950.195,-65.430,75.195,0.000
1673144832.105,-24.902,942.871,-71.777,-11.230,0.000
1673144832.109,-123.047,280.273,-75.195,-119.629,0.000
1673144832.112,-48.828,110.840,-71.289,-48.828,0.000
1673144832.116,64.941,597.168,-67.871,66.406,0.000
1673144832.120,22.949,955.566,-68.359,38.574,0.000
1673144832.124,-91.309,360.352,-77.637,-73.730,0.000
1673144832.128,-77.148,-569.336,-74.219,-72.266,0.000
1673144832.132,45.898,390.137,-62.988,61.035,0.000
1673144832.136,67.871,-866.699,-69.336,83.496,0.000
1673144832.140,-44.922,501.465,-78.125,-41.504,0.000
1673144832.144,-97.656,71.777,-77.637,-81.543,0.000
1673144832.148,8.301,600.098,-71.777,21.484,0.000
1673144832.152,86.426,-956.055,-69.336,106.445,0.000
1673144832.155,-26.855,646.973,-76.172,-7.324,0.000
1673144832.159,-109.863,187.988,-76.660,-91.797,0.000
1673144832.163,-3.906,185.547,-73.730,15.137,0.000
1673144832.167,87.402,727.539,-70.312,103.516,0.000
1673144832.171,21.484,338.379,-75.684,31.738,0.000
1673144832.175,-91.797,-493.652,-76.660,-96.191,0.000
1673144832.179,-39.062,211.914,-69.336,-42.969,0.000
1673144832.183,69.824,863.281,-73.730,83.496,0.000
1673144832.187,38.574,781.738,-76.660,54.688,0.000
1673144832.191,-68.359,554.199,-76.660,-72.266,0.000
1673144832.195,-82.031,532.227,-72.266,-77.637,0.000
1673144832.198,31.738,681.152,-66.406,55.176,0.000
1673144832.202,74.707,866.699,-69.336,75.195,0.000
1673144832.206,-44.922,772.949,-78.613,-55.176,0.000
1673144832.210,-104.492,179.688,-80.566,-109.375,0.000
1673144832.214,3.906,66.406,-72.754,12.695,0.000
1673144832.218,79.102,312.012,-69.824,82.520,0.000
1673144832.222,-9.277,690.430,-70.801,-28.320,0.000
1673144832.226,-103.516,557.129,-76.172,-130.371,0.000
1673144832.230,-10.742,309.082,-72.266,-41.504,0.000
1673144832.234,90.332,739.746,-62.988,84.473,0.000
1673144832.237,18.066,-958.008,-69.336,40.527,0.000
1673144832.241,-159.668,139.648,-81.055,-121.094,0.000
1673144832.245,-65.430,-87.891,-69.824,-26.367,0.000
1673144832.249,179.688,916.992,-57.617,187.500,0.000
1673144832.253,46.387,931.152,-72.266,66.406,0.000
1673144832.257,-289.551,-320.801,-85.938,-201.172,0.000
1673144832.261,-158.203,-1000.000,-75.195,-117.188,0.000
1673144832.265,285.645,199.707,-55.664,209.473,0.000
1673144832.269,189.941,-862.793,-59.082,166.992,0.000
1673144832.273,-248.535,-114.258,-74.219,-181.152,0.000
1673144832.277,-238.770,-724.609,-76.172,-215.332,0.000
1673144832.280,199.707,518.555,-61.035,141.602,0.000
1673144832.284,258.789,-823.730,-66.406,234.863,0.000
1673144832.288,-177.246,397.949,-90.332,-107.422,0.000
1673144832.292,-330.566,-803.223,-83.984,-243.164,0.000
1673144832.296,72.754,37.109,-60.547,51.270,0.000
1673144832.300,322.266,-811.035,-58.105,239.746,0.000
1673144832.304,-36.133,493.164,-81.055,-15.137,0.000
1673144832.308,-362.793,-915.039,-87.891,-287.598,0.000
1673144832.312,-61.035,-187.500,-62.988,-75.195,0.000
1673144832.316,316.895,-922.363,-55.664,244.629,0.000
1673144832.319,84.961,810.059,-72.266,95.215,0.000
1673144832.323,-341.797,-269.043,-84.961,-249.023,0.000
1673144832.327,-180.664,-318.359,-72.266,-152.344,0.000
1673144832.331,261.719,793.457,-57.129,209.473,0.000
1673144832.335,190.430,-931.641,-68.848,203.125,0.000
1673144832.339,-258.301,265.625,-84.473,-171.875,0.000
1673144832.343,-290.039,-437.500,-73.242,-246.094,0.000
1673144832.347,139.160,444.824,-51.758,113.281,0.000
1673144832.351,254.883,-836.426,-54.199,249.023,0.000
1673144832.355,-142.578,396.973,-74.707,-63.965,0.000
1673144832.359,-355.469,-824.219,-76.660,-272.461,0.000
1673144832.362,22.461,-94.238,-62.012,14.160,0.000
1673144832.366,312.012,-949.707,-56.641,266.602,0.000
1673144832.370,-2.930,854.004,-70.312,20.020,0.000
1673144832.374,-363.281,-256.836,-84.473,-291.016,0.000
1673144832.378,-96.191,-249.512,-71.777,-101.562,0.000
1673144832.382,312.988,846.680,-61.035,238.281,0.000
1673144832.386,121.582,995.117,-75.684,120.117,0.000
1673144832.390,-310.059,92.285,-88.867,-242.188,0.000
1673144832.394,-207.031,-550.781,-76.660,-194.336,0.000
1673144832.398,235.352,375.977,-62.500,172.363,0.000
1673144832.402,212.402,-855.469,-64.941,187.988,0.000
1673144832.405,-232.910,429.688,-80.078,-166.016,0.000
1673144832.409,-310.059,-914.551,-75.684,-254.395,0.000
1673144832.413,132.812,-106.445,-48.828,91.309,0.000
1673144832.417,312.012,-842.285,-47.363,259.277,0.000
1673144832.421,-96.191,687.012,-76.172,-50.293,0.000
1673144832.425,-360.840,-723.633,-89.355,-283.691,0.000
1673144832.429,-2.441,-336.914,-63.477,-26.367,0.000
1673144832.433,326.660,-926.758,-50.293,252.930,0.000
1673144832.437,32.715,923.340,-75.684,43.457,0.000
1673144832.441,-353.516,-430.664,-87.891,-271.484,0.000
1673144832.444,-137.695,-682.617,-67.871,-113.281,0.000
1673144832.448,289.551,753.418,-54.199,232.422,0.000
1673144832.452,152.344,-926.270,-65.918,153.320,0.000
1673144832.456,-307.129,-276.367,-80.566,-207.520,0.000
1673144832.460,-249.023,-804.688,-68.359,-207.031,0.000
1673144832.464,216.309,569.824,-46.875,158.203,0.000
1673144832.468,253.906,-829.102,-52.246,217.773,0.000
1673144832.472,-192.871,20.508,-70.801,-118.652,0.000
1673144832.476,-329.102,-836.426,-65.918,-253.418,0.000
1673144832.480,89.355,307.617,-54.688,42.480,0.000
1673144832.484,313.965,-883.301,-59.570,250.000,0.000
1673144832.487,-51.758,692.383,-76.172,-27.344,0.000
1673144832.491,-358.887,-690.430,-78.125,-269.531,0.000
1673144832.495,-33.203,-293.457,-54.199,-24.902,0.000
1673144832.499,331.543,-959.473,-48.340,277.832,0.000
1673144832.503,70.312,966.797,-68.359,94.727,0.000
1673144832.507,-339.355,-53.223,-79.590,-268.066,0.000
1673144832.511,-163.086,-241.699,-67.871,-152.832,0.000
1673144832.515,274.902,843.262,-62.500,212.891,0.000
1673144832.519,180.176,-995.117,-73.730,177.246,0.000
1673144832.523,-257.324,107.910,-82.031,-187.012,0.000
1673144832.526,-245.605,-490.234,-72.754,-224.609,0.000
1673144832.530,205.078,436.523,-47.852,141.602,0.000
1673144832.534,287.109,-866.211,-56.641,269.043,0.000
1673144832.538,-164.551,360.840,-90.332,-80.078,0.000
1673144832.542,-342.285,-897.949,-87.891,-258.789,0.000
1673144832.546,17.090,-211.426,-65.918,26.855,0.000
1673144832.550,220.703,968.262,-62.500,200.195,0.000
1673144832.554,14.648,982.422,-70.312,39.062,0.000
1673144832.558,-280.762,-138.672,-83.984,-209.961,0.000
1673144832.562,-83.496,-606.445,-75.684,-63.477,0.000
1673144832.566,317.871,712.891,-60.059,262.695,0.000
1673144832.569,101.074,-874.023,-75.684,116.699,0.000
1673144832.573,-336.914,-155.273,-88.867,-235.840,0.000
1673144832.577,-193.848,-632.324,-69.824,-154.297,0.000
1673144832.581,274.414,713.379,-50.293,223.145,0.000
1673144832.585,222.168,-859.375,-59.570,211.426,0.000
1673144832.589,-239.746,-31.738,-76.660,-158.203,0.000
1673144832.593,-281.738,-826.660,-68.848,-205.566,0.000
1673144832.597,152.832,381.348,-50.293,141.602,0.000
1673144832.601,295.898,-788.086,-58.105,249.512,0.000
1673144832.605,-117.188,279.297,-85.449,-66.406,0.000
1673144832.609,-352.539,-1000.000,-84.473,-273.438,0.000
1673144832.612,25.391,32.227,-57.617,-3.906,0.000
1673144832.616,337.891,-870.605,-53.711,267.090,0.000
1673144832.620,18.066,680.664,-68.359,43.945,0.000
1673144832.624,-356.445,-419.434,-72.754,-261.719,0.000
1673144832.628,-110.352,-290.039,-62.500,-91.309,0.000
1673144832.632,302.246,903.320,-52.246,240.234,0.000
1673144832.636,136.719,828.613,-63.965,137.207,0.000
1673144832.640,-302.734,-232.910,-77.637,-227.539,0.000
1673144832.644,-226.562,-651.367,-61.035,-190.918,0.000
1673144832.648,220.703,415.039,-45.898,174.805,0.000
1673144832.651,238.281,-970.703,-59.570,210.938,0.000
1673144832.655,-217.773,273.926,-73.242,-126.465,0.000
1673144832.659,-323.730,-488.281,-69.336,-231.445,0.000
1673144832.663,111.816,323.242,-48.340,86.914,0.000
1673144832.667,301.270,-881.836,-44.922,263.184,0.000
1673144832.671,-94.238,679.199,-62.012,-30.762,0.000
1673144832.675,-369.629,-395.508,-68.359,-282.715,0.000
1673144832.679,-22.461,-276.367,-58.105,-16.602,0.000
1673144832.683,322.266,847.168,-53.223,281.250,0.000
1673144832.687,36.621,827.637,-70.312,42.969,0.000
1673144832.691,-358.887,-268.066,-78.613,-296.875,0.000
1673144832.694,-130.859,-592.773,-65.918,-148.438,0.000
1673144832.698,305.664,397.461,-51.758,215.332,0.000
1673144832.702,167.480,-917.480,-56.152,166.016,0.000
1673144832.706,-293.457,188.965,-71.777,-195.801,0.000
1673144832.710,-266.602,-686.035,-62.500,-211.914,0.000
1673144832.714,196.777,356.445,-43.945,142.090,0.000
1673144832.718,262.207,-820.312,-51.758,218.750,0.000
1673144832.722,-174.805,491.211,-70.312,-118.652,0.000
1673144832.726,-325.684,-781.738,-63.965,-261.719,0.000
1673144832.730,83.496,-72.266,-44.434,49.805,0.000
1673144832.733,319.824,-837.891,-45.898,252.930,0.000
1673144832.737,-54.199,620.117,-68.359,-21.484,0.000
1673144832.741,-366.699,-771.484,-76.172,-290.527,0.000
1673144832.745,-48.828,-291.992,-52.734,-62.012,0.000
1673144832.749,325.684,-928.223,-42.480,245.605,0.000
1673144832.753,91.797,905.762,-60.547,69.336,0.000
1673144832.757,-338.867,-208.008,-70.312,-249.512,0.000
1673144832.761,-187.012,-212.402,-56.152,-145.996,0.000
1673144832.765,265.137,920.898,-43.945,168.457,0.000
1673144832.769,195.312,-962.402,-52.734,136.719,0.000
1673144832.773,-261.230,-18.066,-68.359,-213.867,0.000
1673144832.776,-283.691,-623.535,-58.594,-254.395,0.000
1673144832.780,166.016,574.219,-34.668,108.887,0.000
1673144832.784,278.809,-978.516,-38.574,230.957,0.000
1673144832.788,-148.438,112.305,-60.547,-90.332,0.000
1673144832.792,-344.727,-439.453,-54.199,-270.996,0.000
1673144832.796,33.691,357.910,-32.715,29.785,0.000
1673144832.800,301.270,-937.988,-34.180,272.949,0.000
1673144832.804,-30.762,885.742,-57.617,11.230,0.000
1673144832.808,-378.906,24.902,-65.918,-282.715,0.000
1673144832.812,-100.098,172.363,-50.293,-83.008,0.000
1673144832.816,320.801,-968.262,-39.062,242.676,0.000
1673144832.819,124.512,985.352,-54.199,123.047,0.000
1673144832.823,-327.637,-62.988,-67.871,-226.562,0.000
1673144832.827,-216.309,-325.684,-55.664,-185.547,0.000
1673144832.831,239.258,752.441,-44.922,183.105,0.000
1673144832.835,233.887,-922.363,-43.457,207.031,0.000
1673144832.839,-213.379,588.379,-60.547,-159.180,0.000
1673144832.843,-294.434,-166.992,-70.312,-259.277,0.000
1673144832.847,137.695,384.766,-51.758,83.496,0.000
1673144832.851,288.086,-889.160,-51.758,251.465,0.000
1673144832.855,-115.723,668.457,-71.777,-53.223,0.000
1673144832.858,-364.746,-508.301,-72.754,-297.852,0.000
1673144832.862,8.789,-1.953,-47.852,-26.367,0.000
1673144832.866,334.473,-950.684,-38.086,255.859,0.000
1673144832.870,23.926,-999.023,-50.781,42.480,0.000
1673144832.874,-348.145,-156.738,-58.105,-266.602,0.000
1673144832.878,-113.281,-482.910,-46.387,-109.863,0.000
1673144832.882,306.641,867.676,-34.668,221.191,0.000
1673144832.886,148.438,-819.824,-56.152,135.254,0.000
1673144832.890,-306.152,61.035,-78.613,-218.750,0.000
1673144832.894,-240.723,-374.512,-68.848,-227.051,0.000
1673144832.898,217.285,834.473,-49.805,132.324,0.000
1673144832.901,250.488,-885.254,-57.617,198.730,0.000
1673144832.905,-192.871,447.266,-78.125,-153.320,0.000
1673144832.909,-311.035,-359.863,-73.730,-280.762,0.000
1673144832.913,112.305,307.617,-49.805,70.801,0.000
1673144832.917,320.801,-813.477,-51.270,261.230,0.000
1673144832.921,-58.105,315.430,-68.359,-37.598,0.000
1673144832.925,-356.934,-1000.000,-62.012,-273.438,0.000
1673144832.929,-31.250,-103.027,-44.922,-27.832,0.000
1673144832.933,326.172,-937.012,-46.875,252.441,0.000
1673144832.937,62.988,964.844,-65.430,62.012,0.000
1673144832.940,-343.750,174.805,-74.219,-264.648,0.000
1673144832.944,-157.227,105.469,-60.059,-154.785,0.000
1673144832.948,280.273,937.988,-47.363,206.543,0.000
1673144832.952,173.828,-907.227,-59.570,155.273,0.000
1673144832.956,-270.996,443.848,-76.172,-204.590,0.000
1673144832.960,-267.578,-410.645,-69.824,-216.309,0.000
1673144832.964,177.246,443.848,-53.223,132.812,0.000
1673144832.968,254.395,-906.738,-53.711,219.238,0.000
1673144832.972,-126.465,782.715,-62.012,-75.684,0.000
1673144832.976,-243.164,367.676,-61.035,-205.566,0.000
1673144832.980,12.695,568.848,-45.898,3.906,0.000
1673144832.983,182.617,981.934,-41.992,188.477,0.000
1673144832.987,-19.531,968.750,-52.734,18.066,0.000
1673144832.991,-244.141,443.848,-59.570,-198.730,0.000
1673144832.995,-83.984,295.898,-56.641,-82.031,0.000
1673144832.999,181.152,903.320,-41.504,152.344,0.000
1673144833.003,83.496,-993.652,-42.969,92.285,0.000
1673144833.007,-200.684,326.172,-63.477,-161.621,0.000
1673144833.011,-148.438,-537.598,-59.082,-141.113,0.000
1673144833.015,140.625,161.621,-43.457,102.051,0.000
1673144833.019,142.090,-852.051,-50.293,130.859,0.000
1673144833.022,-149.902,508.789,-66.895,-94.727,0.000
1673144833.026,-207.031,-125.488,-61.035,-172.852,0.000
1673144833.030,75.684,509.766,-44.922,50.781,0.000
1673144833.034,185.547,-896.484,-45.410,177.734,0.000
1673144833.038,-53.711,705.078,-60.059,-39.062,0.000
1673144833.042,-226.074,33.203,-65.430,-204.590,0.000
1673144833.046,-35.156,496.582,-57.617,-32.227,0.000
1673144833.050,176.758,-901.367,-55.664,146.973,0.000
1673144833.054,3.906,795.410,-69.824,17.578,0.000
1673144833.058,-237.305,-389.160,-72.754,-188.965,0.000
1673144833.062,-96.680,7.812,-55.176,-104.004,0.000
1673144833.065,176.758,-942.383,-50.293,147.949,0.000
1673144833.069,87.891,905.273,-61.523,106.445,0.000
1673144833.073,-192.871,477.539,-64.941,-161.621,0.000
1673144833.077,-153.809,270.996,-57.129,-158.691,0.000
1673144833.081,63.965,723.145,-54.688,41.992,0.000
1673144833.085,95.215,982.422,-51.270,102.051,0.000
1673144833.089,-20.020,930.664,-52.246,-4.395,0.000
1673144833.093,-108.887,745.605,-58.105,-98.633,0.000
1673144833.097,-27.344,786.621,-51.270,-18.066,0.000
1673144833.101,71.289,896.973,-48.340,78.613,0.000
1673144833.105,3.906,903.809,-54.199,11.230,0.000
1673144833.108,-112.305,846.191,-57.617,-101.562,0.000
1673144833.112,-69.824,543.945,-57.617,-56.152,0.000
1673144833.116,42.969,470.215,-51.758,69.336,0.000
1673144833.120,25.879,847.168,-50.293,75.195,0.000
1673144833.124,-85.938,923.828,-59.570,-47.852,0.000
1673144833.128,-94.238,587.402,-58.105,-80.078,0.000
1673144833.132,29.297,680.176,-44.922,59.570,0.000
1673144833.136,84.961,960.938,-49.805,95.215,0.000
1673144833.140,-30.762,916.992,-60.547,-55.176,0.000
1673144833.144,-104.004,438.477,-63.965,-111.816,0.000
1673144833.147,0.000,330.078,-62.012,-6.348,0.000
1673144833.151,78.125,856.445,-57.617,61.523,0.000
1673144833.155,-10.742,-944.824,-62.500,-28.320,0.000
1673144833.159,-108.398,387.207,-68.359,-134.766,0.000
1673144833.163,-26.855,-67.871,-67.383,-60.059,0.000
1673144833.167,84.473,812.988,-49.805,67.383,0.000
1673144833.171,20.996,-912.598,-55.664,14.648,0.000
1673144833.175,-101.074,495.605,-72.754,-118.652,0.000
1673144833.179,-65.918,394.043,-64.941,-84.961,0.000
1673144833.183,49.805,923.340,-57.129,32.715,0.000
1673144833.187,45.410,-973.633,-60.059,47.363,0.000
1673144833.190,-75.195,511.230,-64.453,-60.059,0.000
1673144833.194,-104.980,8.301,-60.547,-111.328,0.000
1673144833.198,15.137,458.496,-53.223,1.465,0.000
1673144833.202,75.195,-877.441,-55.664,66.895,0.000
1673144833.206,-51.758,267.578,-64.941,-37.598,0.000
1673144833.210,-147.949,-268.066,-62.500,-127.930,0.000
1673144833.214,-41.016,727.051,-53.711,-21.484,0.000
1673144833.218,62.012,-994.629,-56.641,91.797,0.000
1673144833.222,-34.180,885.742,-63.477,0.977,0.000
1673144833.226,-130.859,625.488,-68.848,-117.676,0.000
1673144833.230,-50.781,685.059,-59.082,-32.227,0.000
1673144833.233,54.688,978.027,-51.270,90.820,0.000
1673144833.237,8.789,944.824,-57.129,20.996,0.000
1673144833.241,-111.816,502.441,-62.012,-106.445,0.000
1673144833.245,-83.496,248.535,-57.617,-92.773,0.000
1673144833.249,39.062,525.879,-58.594,48.828,0.000
1673144833.253,39.551,613.281,-62.012,69.336,0.000
1673144833.257,-71.777,821.289,-60.059,-75.195,0.000
1673144833.261,-108.398,767.090,-64.941,-129.395,0.000
1673144833.265,13.672,763.672,-60.547,-7.324,0.000
1673144833.269,92.285,964.355,-57.617,78.125,0.000
1673144833.272,-13.672,945.801,-68.848,-38.086,0.000
1673144833.276,-117.188,692.871,-74.707,-133.789,0.000
1673144833.280,-26.367,589.844,-68.848,-34.668,0.000
1673144833.284,73.242,928.223,-66.406,85.449,0.000
1673144833.288,2.930,881.836,-69.336,12.207,0.000
1673144833.292,-105.469,474.609,-64.941,-124.512,0.000
1673144833.296,-66.406,-61.035,-63.477,-71.289,0.000
1673144833.300,55.176,164.062,-62.012,44.434,0.000
1673144833.304,25.879,977.051,-61.523,16.113,0.000
1673144833.308,-103.027,715.332,-71.289,-99.121,0.000
1673144833.312,-99.609,420.898,-69.824,-90.332,0.000
1673144833.315,27.832,812.012,-53.711,28.320,0.000
1673144833.319,68.359,-930.664,-49.316,67.871,0.000
1673144833.323,-67.383,716.797,-62.012,-35.156,0.000
1673144833.327,-125.000,317.871,-58.105,-93.262,0.000
1673144833.331,2.930,697.266,-41.992,28.320,0.000
1673144833.335,66.895,-925.293,-49.805,106.934,0.000
1673144833.339,-34.180,661.133,-63.477,-9.277,0.000
1673144833.343,-124.023,-187.500,-64.941,-116.699,0.000
1673144833.347,-27.344,379.395,-52.734,-15.137,0.000
1673144833.351,83.008,-925.781,-50.781,91.797,0.000
1673144833.354,9.277,814.941,-62.500,4.883,0.000
1673144833.358,-109.863,333.008,-69.336,-109.863,0.000
1673144833.362,-63.965,427.734,-68.359,-66.895,0.000
1673144833.366,60.547,938.477,-66.406,62.012,0.000
1673144833.370,42.969,932.129,-68.359,44.434,0.000
1673144833.374,-87.891,643.555,-71.289,-81.055,0.000
1673144833.378,-104.492,391.113,-76.172,-108.887,0.000
1673144833.382,20.020,652.344,-73.242,14.160,0.000
1673144833.386,70.312,477.539,-72.754,76.660,0.000
1673144833.390,-41.504,180.176,-72.754,-41.504,0.000
1673144833.394,-131.836,206.543,-64.941,-103.516,0.000
1673144833.397,-23.926,297.852,-63.477,7.324,0.000
1673144833.401,82.031,859.375,-66.406,75.684,0.000
1673144833.405,-10.742,939.453,-71.777,-12.207,0.000
1673144833.409,-121.582,653.809,-72.266,-118.164,0.000
1673144833.413,-48.340,462.891,-62.500,-41.992,0.000
1673144833.417,66.406,688.477,-55.176,80.566,0.000
1673144833.421,16.113,983.398,-62.012,21.484,0.000
1673144833.425,-94.727,716.797,-70.312,-81.543,0.000
1673144833.429,-77.148,71.289,-71.289,-72.266,0.000
1673144833.433,32.715,0.488,-64.453,24.414,0.000
1673144833.436,44.922,815.918,-59.082,61.035,0.000
1673144833.440,-74.219,885.742,-66.895,-61.035,0.000
1673144833.444,-106.934,204.590,-69.336,-127.930,0.000
1673144833.448,-1.465,425.293,-63.477,-8.301,0.000
1673144833.452,56.641,-986.816,-55.664,67.871,0.000
1673144833.456,-44.434,860.352,-59.082,-41.016,0.000
1673144833.460,-129.883,221.680,-63.965,-124.023,0.000
1673144833.464,-26.855,371.094,-57.129,-22.949,0.000
1673144833.468,83.008,-972.168,-56.641,76.660,0.000
1673144833.472,1.465,822.754,-62.500,2.441,0.000
1673144833.476,-103.027,-145.020,-62.012,-114.746,0.000
1673144833.479,-32.715,-116.699,-55.664,-56.641,0.000
1673144833.483,85.938,912.598,-51.270,77.637,0.000
1673144833.487,49.316,872.070,-59.082,41.016,0.000
1673144833.491,-65.430,187.988,-66.895,-85.938,0.000
1673144833.495,-64.453,219.238,-62.012,-87.891,0.000
1673144833.499,45.898,858.398,-55.664,29.297,0.000
1673144833.503,66.406,958.008,-62.012,73.730,0.000
1673144833.507,-51.758,429.688,-67.383,-44.434,0.000
1673144833.511,-106.445,286.133,-55.664,-99.609,0.000
1673144833.515,4.395,735.352,-49.316,19.531,0.000
1673144833.519,77.148,970.703,-52.246,88.379,0.000
1673144833.522,-38.574,500.488,-58.105,-15.625,0.000
1673144833.526,-129.395,-77.148,-64.453,-102.539,0.000
1673144833.530,-21.973,373.047,-58.594,-31.250,0.000
1673144833.534,72.754,812.012,-53.711,62.500,0.000
1673144833.538,-9.277,629.395,-59.570,20.020,0.000
1673144833.542,-110.352,462.891,-63.965,-102.051,0.000
1673144833.546,-55.176,528.809,-59.082,-84.961,0.000
1673144833.550,60.547,523.926,-60.547,51.270,0.000
1673144833.554,29.785,486.328,-65.430,41.992,0.000
1673144833.558,-86.426,695.312,-64.453,-97.168,0.000
1673144833.561,-83.496,373.047,-64.453,-106.934,0.000
1673144833.565,18.555,532.227,-62.988,31.738,0.000
1673144833.569,64.941,797.852,-63.477,91.797,0.000
1673144833.573,-43.457,591.309,-62.500,-30.762,0.000
1673144833.577,-132.324,291.016,-64.941,-125.488,0.000
1673144833.581,-18.555,142.090,-57.617,-4.883,0.000
1673144833.585,73.730,546.875,-50.781,97.168,0.000
1673144833.589,-18.555,833.984,-62.500,-20.508,0.000
1673144833.593,-111.816,435.547,-71.777,-125.000,0.000
1673144833.597,-25.391,-38.086,-67.383,-41.504,0.000
1673144833.601,72.266,538.086,-57.617,71.777,0.000
1673144833.604,11.719,-923.340,-62.500,20.508,0.000
1673144833.608,-100.098,496.094,-72.754,-93.750,0.000
1673144833.612,-59.082,200.195,-66.895,-56.152,0.000
1673144833.616,53.223,569.824,-57.617,54.688,0.000
1673144833.620,36.133,955.566,-58.105,50.781,0.000
1673144833.624,-75.684,534.668,-70.312,-68.848,0.000
1673144833.628,-96.191,-16.602,-72.266,-101.562,0.000
1673144833.632,23.438,654.785,-59.082,19.531,0.000
1673144833.636,84.961,-847.168,-47.852,86.914,0.000
1673144833.640,-36.621,368.164,-62.012,-28.320,0.000
1673144833.644,-147.461,-373.047,-74.707,-111.816,0.000
1673144833.647,-41.016,562.988,-62.500,3.906,0.000
1673144833.651,72.754,-940.918,-63.965,90.332,0.000
1673144833.655,-17.578,715.332,-68.848,-15.137,0.000
1673144833.659,-124.512,335.938,-66.895,-116.211,0.000
1673144833.663,-48.340,248.047,-60.547,-49.316,0.000
1673144833.667,60.547,677.246,-51.758,63.965,0.000
1673144833.671,8.301,787.598,-53.711,25.879,0.000
1673144833.675,-108.887,190.918,-60.059,-94.727,0.000
1673144833.679,-88.867,242.188,-60.547,-82.520,0.000
1673144833.683,33.203,879.883,-55.664,52.734,0.000
1673144833.686,48.340,718.262,-54.688,84.961,0.000
1673144833.690,-53.711,509.277,-55.664,-56.641,0.000
1673144833.694,-103.027,346.191,-58.594,-123.535,0.000
1673144833.698,9.277,456.543,-47.363,7.812,0.000
1673144833.702,81.055,950.195,-41.504,83.984,0.000
1673144833.706,-42.480,869.141,-60.059,-32.715,0.000
1673144833.710,-129.395,272.461,-60.059,-121.094,0.000
1673144833.714,-34.180,134.766,-47.363,-14.648,0.000
1673144833.718,60.547,680.664,-46.875,96.191,0.000
1673144833.722,-3.418,942.383,-50.293,34.180,0.000
1673144833.726,-108.398,786.621,-56.152,-106.445,0.000
1673144833.729,-51.758,256.348,-59.082,-62.988,0.000
1673144833.733,75.195,284.180,-49.316,78.125,0.000
1673144833.737,39.551,-966.797,-45.410,41.504,0.000
1673144833.741,-91.797,799.805,-56.641,-80.078,0.000
1673144833.745,-87.402,217.285,-55.176,-80.566,0.000
1673144833.749,40.039,569.824,-49.316,43.945,0.000
1673144833.753,54.688,-929.199,-56.152,69.824,0.000
1673144833.757,-75.195,651.367,-61.523,-52.246,0.000
1673144833.761,-121.582,52.246,-53.711,-90.820,0.000
1673144833.765,-9.277,498.047,-43.457,19.043,0.000
1673144833.768,71.289,-952.148,-43.457,88.379,0.000
1673144833.772,-34.668,822.754,-52.734,-2.930,0.000
1673144833.776,-133.789,-8.789,-55.176,-89.355,0.000
1673144833.780,-35.156,222.168,-44.922,-1.465,0.000
1673144833.784,61.523,-934.082,-44.434,93.262,0.000
1673144833.788,-6.836,878.418,-53.711,26.855,0.000
1673144833.792,-110.352,433.105,-62.500,-88.867,0.000
1673144833.796,-68.359,553.223,-58.105,-50.781,0.000
1673144833.800,41.504,-996.582,-51.758,76.660,0.000
1673144833.804,33.203,857.910,-55.176,84.473,0.000
1673144833.808,-82.031,154.297,-58.594,-53.223,0.000
1673144833.811,-86.914,135.742,-55.176,-90.332,0.000
1673144833.815,39.062,852.051,-54.199,47.363,0.000
1673144833.819,69.336,854.980,-61.523,100.586,0.000
1673144833.823,-49.316,289.062,-62.988,-35.645,0.000
1673144833.827,-101.562,420.410,-53.711,-117.676,0.000
1673144833.831,9.766,796.387,-55.176,9.277,0.000
1673144833.835,85.449,946.777,-54.688,105.469,0.000
1673144833.839,-16.602,906.250,-46.875,5.859,0.000
1673144833.843,-116.699,631.836,-51.270,-86.914,0.000
1673144833.847,-24.902,689.453,-54.199,-13.672,0.000
1673144833.850,88.867,749.023,-51.270,81.543,0.000
1673144833.854,13.184,773.926,-57.617,25.391,0.000
1673144833.858,-107.422,710.938,-64.941,-84.473,0.000
1673144833.862,-64.941,352.051,-64.453,-59.082,0.000
1673144833.866,56.641,295.410,-66.406,47.363,0.000
1673144833.870,44.434,648.926,-67.871,58.105,0.000
1673144833.874,-82.520,784.668,-73.242,-68.848,0.000
1673144833.878,-115.234,373.047,-77.637,-105.957,0.000
1673144833.882,3.906,524.902,-67.383,18.555,0.000
1673144833.886,58.105,984.863,-62.012,65.918,0.000
1673144833.890,-56.152,922.852,-70.801,-33.691,0.000
1673144833.893,-145.020,385.742,-82.520,-114.746,0.000
1673144833.897,-50.781,180.176,-78.613,-49.316,0.000
1673144833.901,56.641,793.457,-72.754,49.805,0.000
1673144833.905,-16.113,-918.945,-73.730,-9.766,0.000
1673144833.909,-134.277,358.887,-75.195,-127.930,0.000
1673144833.913,-68.359,-72.754,-69.336,-76.660,0.000
1673144833.917,47.852,831.055,-59.570,58.105,0.000
1673144833.921,13.184,-978.516,-69.824,27.832,0.000
1673144833.925,-89.355,420.898,-76.660,-86.914,0.000
1673144833.929,-89.355,372.559,-69.336,-68.848,0.000
1673144833.933,27.832,887.207,-64.941,37.598,0.000
1673144833.936,60.059,-962.402,-72.266,60.547,0.000
1673144833.940,-68.359,639.160,-83.008,-64.941,0.000
1673144833.944,-131.836,83.008,-83.008,-137.695,0.000
1673144833.948,-12.207,469.238,-67.383,-6.348,0.000
1673144833.952,63.477,-863.281,-61.035,80.078,0.000
1673144833.956,-40.039,270.996,-72.754,-23.438,0.000
1673144833.960,-133.789,-297.363,-71.777,-100.586,0.000
1673144833.964,-41.992,677.246,-66.406,-30.762,0.000
1673144833.968,61.523,-994.141,-71.777,52.246,0.000
1673144833.972,-10.742,854.980,-78.125,0.977,0.000
1673144833.975,-122.070,412.598,-81.055,-120.117,0.000
1673144833.979,-57.617,486.328,-69.824,-76.660,0.000
1673144833.983,59.570,935.547,-63.965,54.199,0.000
1673144833.987,8.789,967.285,-76.660,17.578,0.000
1673144833.991,-105.957,494.141,-83.008,-118.164,0.000
1673144833.995,-111.816,149.414,-76.172,-117.188,0.000
1673144833.999,-13.672,482.910,-72.754,15.137,0.000
1673144834.003,47.852,673.340,-70.312,75.684,0.000
1673144834.007,-118.652,610.840,-71.289,-63.477,0.000
1673144834.011,-192.871,280.762,-73.242,-159.180,0.000
1673144834.015,89.355,669.434,-61.523,50.293,0.000
1673144834.018,155.273,-946.289,-59.570,139.160,0.000
1673144834.022,-119.141,763.184,-68.359,-90.332,0.000
1673144834.026,-219.727,121.094,-66.406,-188.965,0.000
1673144834.030,29.297,279.785,-55.664,12.207,0.000
1673144834.034,183.594,992.188,-53.223,153.320,0.000
1673144834.038,-47.363,744.141,-66.895,-7.324,0.000
1673144834.042,-250.488,-98.145,-71.289,-185.059,0.000
1673144834.046,-56.152,-437.988,-61.035,-30.762,0.000
1673144834.050,186.035,316.895,-52.246,185.547,0.000
1673144834.054,41.016,-892.090,-56.152,80.078,0.000
1673144834.057,-228.027,350.586,-65.430,-168.945,0.000
1673144834.061,-139.648,-30.762,-61.035,-135.254,0.000
1673144834.065,148.438,789.062,-49.805,115.723,0.000
1673144834.069,120.117,-867.188,-56.152,119.141,0.000
1673144834.073,-167.480,470.215,-70.801,-131.348,0.000
1673144834.077,-196.777,-215.820,-65.430,-181.152,0.000
1673144834.081,72.266,539.551,-47.852,65.430,0.000
1673144834.085,166.992,-836.914,-45.898,166.016,0.000
1673144834.089,-100.586,469.727,-60.059,-66.895,0.000
1673144834.093,-246.094,-697.754,-57.129,-207.031,0.000
1673144834.097,2.441,160.156,-34.668,13.184,0.000
1673144834.100,189.941,-858.887,-35.156,183.594,0.000
1673144834.104,-15.625,671.875,-51.270,12.207,0.000
1673144834.108,-237.793,-37.598,-54.199,-186.523,0.000
1673144834.112,-66.406,304.688,-47.363,-74.707,0.000
1673144834.116,196.777,-993.652,-45.898,151.855,0.000
1673144834.120,77.148,854.004,-50.781,83.984,0.000
1673144834.124,-212.402,229.492,-59.082,-150.391,0.000
1673144834.128,-154.785,-17.578,-57.617,-138.672,0.000
1673144834.132,135.254,694.824,-48.340,99.121,0.000
1673144834.136,162.109,751.953,-49.316,174.316,0.000
1673144834.140,-145.996,-39.551,-57.129,-99.609,0.000
1673144834.143,-252.441,-525.391,-51.270,-239.746,0.000
1673144834.147,154.297,216.797,-35.645,91.797,0.000
1673144834.151,308.105,-866.699,-35.156,242.676,0.000
1673144834.155,-128.418,626.953,-50.781,-77.637,0.000
1673144834.159,-347.168,-401.855,-56.641,-271.484,0.000
1673144834.163,44.922,152.344,-40.039,9.766,0.000
1673144834.167,341.309,-914.551,-33.203,262.695,0.000
1673144834.171,7.324,854.980,-53.711,16.602,0.000
1673144834.175,-325.684,-205.078,-65.918,-267.578,0.000
1673144834.179,-62.988,-502.441,-54.688,-55.176,0.000
1673144834.182,302.246,565.918,-39.551,272.949,0.000
1673144834.186,116.211,-946.777,-45.410,146.973,0.000
1673144834.190,-316.406,202.637,-64.453,-235.352,0.000
1673144834.194,-202.148,-472.656,-56.152,-192.871,0.000
1673144834.198,250.977,468.262,-38.086,191.895,0.000
1673144834.202,235.840,-834.473,-45.898,220.215,0.000
1673144834.206,-209.961,458.496,-64.941,-146.484,0.000
1673144834.210,-297.852,-675.293,-59.082,-250.977,0.000
1673144834.214,134.766,139.648,-38.574,84.961,0.000
1673144834.218,314.941,-838.379,-41.992,263.184,0.000
1673144834.222,-80.078,648.926,-63.477,-29.297,0.000
1673144834.225,-339.355,-695.312,-65.918,-274.902,0.000
1673144834.229,1.953,-280.273,-43.945,-13.672,0.000
1673144834.233,325.195,-911.621,-35.645,283.203,0.000
1673144834.237,38.086,777.344,-55.664,64.453,0.000
1673144834.241,-346.680,-609.863,-66.895,-264.160,0.000
1673144834.245,-127.441,-415.527,-48.828,-118.164,0.000
1673144834.249,266.602,957.031,-41.992,208.496,0.000
1673144834.253,124.023,980.957,-60.059,124.023,0.000
1673144834.257,-300.293,-153.809,-75.684,-218.750,0.000
1673144834.261,-261.719,-600.098,-63.477,-218.262,0.000
1673144834.264,206.055,662.109,-42.480,150.879,0.000
1673144834.268,213.379,985.840,-50.293,201.172,0.000
1673144834.272,-247.559,-169.922,-68.359,-153.809,0.000
1673144834.276,-310.059,-934.570,-60.059,-251.953,0.000
1673144834.280,107.422,181.641,-40.039,64.941,0.000
1673144834.284,292.480,-918.945,-45.410,281.250,0.000
1673144834.288,-82.031,234.375,-57.129,-1.953,0.000
1673144834.292,-373.535,-828.613,-57.129,-291.016,0.000
1673144834.296,-53.223,-191.406,-42.969,-50.781,0.000
1673144834.300,315.430,-987.793,-29.297,263.184,0.000
1673144834.304,68.848,972.168,-48.340,90.332,0.000
1673144834.307,-348.145,-140.137,-62.988,-250.488,0.000
1673144834.311,-173.340,-648.438,-45.410,-142.578,0.000
1673144834.315,285.645,616.699,-29.785,234.863,0.000
1673144834.319,188.477,-937.500,-41.992,190.918,0.000
1673144834.323,-280.273,15.625,-58.594,-198.730,0.000
1673144834.327,-276.855,-633.789,-50.781,-205.566,0.000
1673144834.331,179.688,128.906,-36.621,153.320,0.000
1673144834.335,271.973,946.289,-35.645,229.980,0.000
1673144834.339,-155.273,642.578,-52.246,-107.910,0.000
1673144834.343,-331.543,-559.082,-56.152,-274.902,0.000
1673144834.347,84.961,-70.312,-28.809,50.781,0.000
1673144834.350,357.910,-932.617,-25.391,275.879,0.000
1673144834.354,-11.230,861.816,-52.246,-2.930,0.000
1673144834.358,-364.258,-461.914,-64.453,-290.527,0.000
1673144834.362,-66.406,-472.656,-49.805,-74.219,0.000
1673144834.366,323.242,949.219,-32.715,262.695,0.000
1673144834.370,100.586,947.754,-48.828,110.352,0.000
1673144834.374,-325.684,-387.695,-67.383,-237.305,0.000
1673144834.378,-197.266,-780.762,-44.922,-176.270,0.000
1673144834.382,251.465,597.656,-21.973,168.457,0.000
1673144834.386,204.590,-798.828,-38.574,172.363,0.000
1673144834.389,-243.652,138.672,-55.664,-185.059,0.000
1673144834.393,-289.551,-765.625,-44.922,-252.930,0.000
1673144834.397,132.812,372.070,-31.250,86.914,0.000
1673144834.401,280.273,-846.680,-39.062,230.469,0.000
1673144834.405,-116.211,415.039,-55.664,-62.012,0.000
1673144834.409,-357.910,-755.859,-57.129,-272.949,0.000
1673144834.413,18.066,-204.590,-41.504,5.371,0.000
1673144834.417,330.566,-874.512,-34.668,252.441,0.000
1673144834.421,-0.977,357.422,-54.199,5.859,0.000
1673144834.425,-361.328,-1000.000,-61.523,-269.531,0.000
1673144834.429,-97.656,-461.914,-46.875,-117.676,0.000
1673144834.432,302.246,889.160,-39.551,207.031,0.000
1673144834.436,133.301,-975.586,-50.293,120.117,0.000
1673144834.440,-307.617,34.668,-65.918,-238.281,0.000
1673144834.444,-233.887,-375.977,-59.570,-213.867,0.000
1673144834.448,221.680,677.734,-40.527,143.066,0.000
1673144834.452,240.234,-854.004,-41.992,180.664,0.000
1673144834.456,-199.707,425.293,-60.547,-181.152,0.000
1673144834.460,-307.129,-796.387,-57.617,-290.527,0.000
1673144834.464,115.723,6.348,-39.062,46.875,0.000
1673144834.468,319.336,-883.789,-37.109,226.562,0.000
1673144834.471,-59.570,721.680,-43.945,-56.152,0.000
1673144834.475,-358.887,-395.996,-51.270,-289.551,0.000
1673144834.479,-22.461,-224.121,-39.062,-44.922,0.000
1673144834.483,325.195,934.082,-30.273,257.812,0.000
1673144834.487,37.598,969.238,-46.387,77.637,0.000
1673144834.491,-359.863,-127.441,-55.176,-259.277,0.000
1673144834.495,-146.484,-498.047,-42.969,-146.484,0.000
1673144834.499,298.340,708.984,-36.133,243.652,0.000
1673144834.503,184.570,-904.297,-47.363,190.430,0.000
1673144834.507,-271.973,-52.246,-59.082,-220.703,0.000
1673144834.511,-257.324,-1000.000,-56.641,-205.078,0.000
1673144834.514,203.613,-101.074,-36.133,151.367,0.000
1673144834.518,290.039,-804.199,-30.273,249.023,0.000
1673144834.522,-157.227,330.078,-62.988,-97.168,0.000
1673144834.526,-335.938,-795.410,-70.801,-299.805,0.000
1673144834.530,71.777,153.320,-54.199,21.484,0.000
1673144834.534,308.594,-840.820,-55.664,250.000,0.000
1673144834.538,-55.176,617.676,-73.242,-16.113,0.000
1673144834.542,-363.281,-674.805,-72.754,-275.391,0.000
1673144834.546,-64.453,-191.406,-53.711,-34.180,0.000
1673144834.550,304.199,-891.113,-45.898,285.156,0.000
1673144834.554,89.355,760.254,-60.059,89.844,0.000
1673144834.557,-333.984,-709.473,-70.312,-267.090,0.000
1673144834.561,-198.730,-541.992,-47.852,-163.574,0.000
1673144834.565,250.488,874.512,-31.738,217.285,0.000
1673144834.569,201.172,969.727,-44.434,191.406,0.000
1673144834.573,-251.465,37.598,-63.477,-206.055,0.000
1673144834.577,-284.668,-539.062,-57.129,-252.930,0.000
1673144834.581,175.781,451.172,-39.062,114.258,0.000
1673144834.585,261.719,-924.805,-42.969,225.586,0.000
1673144834.589,-181.641,313.965,-58.594,-124.512,0.000
1673144834.593,-319.336,-762.207,-52.246,-273.926,0.000
1673144834.596,19.043,33.691,-34.668,29.297,0.000
1673144834.600,209.473,956.055,-38.574,210.449,0.000
1673144834.604,8.301,707.031,-50.781,12.695,0.000
1673144834.608,-214.844,133.301,-51.270,-180.176,0.000
1673144834.612,-82.031,-118.164,-42.969,-90.820,0.000
1673144834.616,175.293,636.230,-38.086,130.859,0.000
1673144834.620,77.148,-984.863,-42.969,88.867,0.000
1673144834.624,-120.117,701.172,-45.410,-78.125,0.000
1673144834.628,-106.934,194.336,-48.340,-94.238,0.000
1673144834.632,16.113,295.898,-41.016,45.898,0.000
1673144834.636,91.797,926.758,-36.621,108.398,0.000
1673144834.639,-25.879,895.996,-47.363,-26.855,0.000
1673144834.643,-126.953,183.105,-46.875,-114.258,0.000
1673144834.647,-26.855,-117.188,-44.434,-34.668,0.000
1673144834.651,75.684,493.164,-39.062,94.727,0.000
1673144834.655,9.277,861.816,-42.480,20.020,0.000
1673144834.659,-109.375,197.754,-59.082,-117.676,0.000
1673144834.663,-62.988,-164.551,-61.523,-58.594,0.000
1673144834.667,48.828,708.984,-46.387,62.500,0.000
1673144834.671,22.949,-890.625,-45.410,42.969,0.000
1673144834.675,-98.633,253.418,-52.246,-46.387,0.000
1673144834.678,-104.492,-245.605,-45.410,-71.289,0.000
1673144834.682,15.137,647.949,-40.039,15.137,0.000
1673144834.686,53.711,-936.523,-42.969,84.961,0.000
1673144834.690,-42.969,556.641,-50.293,-50.781,0.000
1673144834.694,-120.117,-155.273,-53.711,-126.953,0.000
1673144834.698,-14.160,203.613,-51.758,2.930,0.000
1673144834.702,89.844,909.668,-54.199,80.566,0.000
1673144834.706,-15.625,386.719,-54.199,-20.020,0.000
1673144834.710,-126.465,-55.176,-58.105,-125.000,0.000
1673144834.714,-39.551,420.410,-54.688,-42.480,0.000
1673144834.718,78.125,761.719,-45.898,101.562,0.000
1673144834.721,32.715,390.137,-51.270,41.504,0.000
1673144834.725,-91.797,126.953,-51.758,-108.887,0.000
1673144834.729,-59.570,447.266,-46.387,-71.777,0.000
1673144834.733,62.500,766.113,-46.387,71.289,0.000
1673144834.737,37.109,880.371,-46.875,68.359,0.000
1673144834.741,-84.473,353.516,-50.781,-63.477,0.000
1673144834.745,-107.422,7.812,-48.340,-93.262,0.000
1673144834.749,16.113,369.141,-43.457,37.598,0.000
1673144834.753,77.148,695.801,-45.410,87.402,0.000
1673144834.757,-41.016,624.023,-48.828,-43.457,0.000
1673144834.761,-113.770,254.395,-49.805,-110.352,0.000
1673144834.764,-4.395,159.180,-44.922,8.301,0.000
1673144834.768,84.961,411.621,-44.922,116.699,0.000
1673144834.772,-21.484,900.879,-48.340,16.113,0.000
1673144834.776,-124.512,545.410,-51.758,-90.332,0.000
1673144834.780,-42.480,262.695,-44.434,4.883,0.000
1673144834.784,59.570,755.859,-38.086,102.051,0.000
1673144834.788,3.418,801.758,-44.434,21.484,0.000
1673144834.792,-106.934,140.137,-43.457,-95.215,0.000
1673144834.796,-76.660,-171.387,-41.992,-90.820,0.000
1673144834.800,56.641,289.551,-34.180,46.875,0.000
1673144834.803,65.430,925.293,-26.855,88.867,0.000
1673144834.807,-70.801,762.695,-45.410,-58.594,0.000
1673144834.811,-117.676,-264.648,-50.781,-81.543,0.000
1673144834.815,-11.230,0.000,-38.086,58.594,0.000
1673144834.819,58.594,-948.242,-39.551,80.566,0.000
1673144834.823,-39.062,725.098,-46.387,-24.414,0.000
1673144834.827,-121.582,142.090,-47.852,-115.234,0.000
1673144834.831,-25.391,474.121,-41.016,-33.203,0.000
1673144834.835,62.500,868.652,-43.457,82.520,0.000
1673144834.839,-10.742,580.078,-50.781,17.090,0.000
1673144834.843,-171.387,-106.445,-52.734,-144.531,0.000
1673144834.846,-41.016,276.855,-44.922,-62.500,0.000
1673144834.850,184.082,-867.676,-42.480,160.156,0.000
1673144834.854,-15.137,592.773,-58.105,50.781,0.000
1673144834.858,-255.371,-562.988,-59.082,-195.312,0.000
1673144834.862,-121.094,-55.176,-43.945,-124.512,0.000
1673144834.866,60.059,882.812,-40.039,66.895,0.000
1673144834.870,70.801,844.727,-41.504,78.613,0.000
1673144834.874,-97.656,380.859,-47.363,-83.496,0.000
1673144834.878,-169.922,97.656,-47.363,-149.902,0.000
1673144834.882,104.980,617.676,-40.527,75.684,0.000
1673144834.885,153.809,930.664,-43.945,138.184,0.000
1673144834.889,-119.141,574.219,-50.781,-72.266,0.000
1673144834.893,-210.938,-194.336,-49.805,-144.531,0.000
1673144834.897,40.039,155.762,-42.969,17.578,0.000
1673144834.901,182.617,875.488,-45.410,140.625,0.000
1673144834.905,-41.504,642.578,-50.781,-13.672,0.000
1673144834.909,-227.051,91.797,-50.293,-193.359,0.000
1673144834.913,-34.180,180.664,-46.875,-52.246,0.000
1673144834.917,195.312,892.090,-42.969,154.785,0.000
1673144834.921,36.133,923.828,-50.293,38.086,0.000
1673144834.925,-223.633,82.520,-62.012,-207.520,0.000
1673144834.928,-105.469,-431.152,-54.199,-122.070,0.000
1673144834.932,175.293,377.441,-40.039,142.090,0.000
1673144834.936,123.047,-936.523,-37.598,118.164,0.000
1673144834.940,-178.223,608.887,-48.340,-134.277,0.000
1673144834.944,-181.641,-372.070,-56.641,-169.922,0.000
1673144834.948,41.992,-136.719,-48.340,31.250,0.000
1673144834.952,88.867,941.895,-47.852,90.332,0.000
1673144834.956,-21.973,961.914,-56.641,-20.508,0.000
1673144834.960,-130.371,233.398,-59.082,-125.488,0.000
1673144834.964,-58.105,292.480,-52.246,-53.223,0.000
