timestamp,TP9,AF7,AF8,TP10,Right AUX
1673144862.702,183.105,-43.457,-16.113,164.062,0.000
1673144862.706,30.762,-110.840,-48.828,51.758,0.000
1673144862.709,-225.098,-977.539,-61.523,-150.879,0.000
1673144862.713,-118.164,-1000.000,-41.504,-99.121,0.000
1673144862.717,151.367,-328.613,-23.926,131.348,0.000
1673144862.721,92.773,-338.867,-43.457,107.910,0.000
1673144862.725,-187.012,-961.426,-56.641,-134.277,0.000
1673144862.729,-165.039,-1000.000,-36.621,-146.973,0.000
1673144862.733,105.957,-742.676,-20.020,104.492,0.000
1673144862.737,141.113,-362.305,-25.391,161.621,0.000
1673144862.741,-108.398,-830.566,-47.852,-67.383,0.000
1673144862.745,-201.660,-1000.000,-51.270,-180.176,0.000
1673144862.748,37.109,-748.535,-25.391,12.695,0.000
1673144862.752,193.848,-218.750,-25.391,191.895,0.000
1673144862.756,-13.672,-454.102,-42.969,25.391,0.000
1673144862.760,-231.445,-990.234,-49.805,-185.059,0.000
1673144862.764,-63.477,-965.820,-39.551,-56.152,0.000
1673144862.768,177.734,-673.340,-38.574,165.039,0.000
1673144862.772,40.527,-676.270,-53.223,78.125,0.000
1673144862.776,-217.285,-932.129,-61.523,-198.730,0.000
1673144862.780,-126.465,-1000.000,-52.246,-152.832,0.000
1673144862.784,156.738,-799.316,-36.621,105.469,0.000
1673144862.788,136.230,-166.016,-42.969,86.914,0.000
1673144862.791,-167.969,-691.406,-62.012,-149.414,0.000
1673144862.795,-190.430,-1000.000,-59.082,-195.801,0.000
1673144862.799,87.891,-839.844,-37.109,45.898,0.000
1673144862.803,151.367,-107.422,-33.691,154.297,0.000
1673144862.807,-109.375,-458.984,-60.547,-76.172,0.000
1673144862.811,-233.887,-1000.000,-63.965,-226.074,0.000
1673144862.815,6.836,-976.074,-37.598,-44.434,0.000
1673144862.819,184.570,-353.516,-26.855,133.789,0.000
1673144862.823,-6.836,-342.285,-55.664,6.836,0.000
1673144862.827,-220.215,-1000.000,-67.871,-200.195,0.000
1673144862.830,-83.008,-1000.000,-36.621,-107.910,0.000
1673144862.834,150.391,-250.977,-23.926,109.863,0.000
1673144862.838,53.711,-40.039,-43.945,42.969,0.000
1673144862.842,-219.238,-868.164,-61.523,-182.617,0.000
1673144862.846,-173.828,-1000.000,-39.551,-150.879,0.000
1673144862.850,112.793,-337.402,-16.602,83.984,0.000
1673144862.854,119.629,-56.152,-41.992,100.586,0.000
1673144862.858,-147.949,-816.406,-68.359,-131.348,0.000
1673144862.862,-188.965,-1000.000,-54.199,-199.219,0.000
1673144862.866,84.961,-780.273,-26.367,45.898,0.000
1673144862.870,194.824,-105.469,-34.180,151.855,0.000
1673144862.873,-70.312,-652.344,-60.547,-67.871,0.000
1673144862.877,-239.258,-1000.000,-51.758,-224.609,0.000
1673144862.881,-11.719,-785.156,-27.832,-52.734,0.000
1673144862.885,180.664,-169.434,-31.250,133.301,0.000
1673144862.889,-6.836,-677.734,-56.641,0.488,0.000
1673144862.893,-214.355,-1000.000,-47.363,-192.871,0.000
1673144862.897,-79.102,-934.570,-23.926,-81.543,0.000
1673144862.901,160.645,-359.863,-21.484,151.855,0.000
1673144862.905,86.914,-246.582,-32.715,113.770,0.000
1673144862.909,-191.406,-895.508,-48.828,-114.746,0.000
1673144862.913,-177.734,-1000.000,-43.945,-134.766,0.000
1673144862.916,113.770,-822.266,-22.949,88.867,0.000
1673144862.920,145.508,-549.805,-19.531,138.184,0.000
1673144862.924,-146.484,-776.855,-41.992,-93.262,0.000
1673144862.928,-226.562,-1000.000,-47.852,-196.777,0.000
1673144862.932,36.621,-964.844,-28.809,16.113,0.000
1673144862.936,179.688,-532.227,-23.926,160.156,0.000
1673144862.940,-47.363,-435.059,-44.922,-15.137,0.000
1673144862.944,-234.863,-1000.000,-52.734,-189.453,0.000
1673144862.948,-52.734,-996.094,-31.250,-41.504,0.000
1673144862.952,156.738,-208.008,-21.973,188.477,0.000
1673144862.955,12.695,-384.766,-40.039,68.848,0.000
1673144862.959,-228.516,-1000.000,-52.734,-190.918,0.000
1673144862.963,-122.559,-1000.000,-36.621,-103.516,0.000
1673144862.967,144.531,-526.855,-15.137,145.020,0.000
1673144862.971,96.191,-58.594,-28.320,113.281,0.000
1673144862.975,-182.129,-747.070,-57.129,-138.672,0.000
1673144862.979,-188.965,-1000.000,-49.805,-162.598,0.000
1673144862.983,81.543,-554.199,-17.090,68.359,0.000
1673144862.987,142.090,76.172,-25.391,140.625,0.000
1673144862.991,-110.840,-541.016,-57.129,-72.754,0.000
1673144862.995,-212.402,-1000.000,-45.410,-186.523,0.000
1673144862.998,33.203,-772.461,-21.973,12.695,0.000
1673144863.002,183.594,-374.023,-27.832,184.082,0.000
1673144863.006,-28.809,-680.664,-42.969,29.785,0.000
1673144863.010,-220.703,-1000.000,-48.828,-177.734,0.000
1673144863.014,-61.035,-979.492,-31.738,-67.383,0.000
1673144863.018,154.297,-178.223,-14.648,150.391,0.000
1673144863.022,30.273,-231.934,-41.016,55.176,0.000
1673144863.026,-229.004,-1000.000,-54.199,-179.199,0.000
1673144863.030,-132.812,-1000.000,-24.902,-116.211,0.000
1673144863.034,141.602,-336.914,-21.484,143.066,0.000
1673144863.038,104.492,-227.539,-45.410,123.535,0.000
1673144863.041,-177.734,-929.688,-58.105,-152.832,0.000
1673144863.045,-200.195,-1000.000,-44.434,-178.223,0.000
1673144863.049,79.590,-822.266,-24.414,64.941,0.000
1673144863.053,140.625,-585.449,-33.691,138.672,0.000
1673144863.057,-114.746,-803.711,-52.246,-75.684,0.000
1673144863.061,-240.723,-1000.000,-51.270,-208.008,0.000
1673144863.065,-8.789,-851.562,-38.086,-13.672,0.000
1673144863.069,165.527,-738.770,-38.086,167.480,0.000
1673144863.073,-23.926,-714.355,-48.340,4.883,0.000
1673144863.077,-235.840,-914.062,-52.246,-193.359,0.000
1673144863.080,-77.637,-1000.000,-33.691,-56.152,0.000
1673144863.084,171.387,-441.406,-17.578,155.273,0.000
1673144863.088,59.570,-105.957,-36.133,70.312,0.000
1673144863.092,-197.266,-823.730,-57.129,-169.434,0.000
1673144863.096,-134.277,-1000.000,-42.480,-147.949,0.000
1673144863.100,133.301,-713.379,-16.113,93.262,0.000
1673144863.104,134.766,-194.336,-26.367,108.398,0.000
1673144863.108,-150.391,-764.648,-50.293,-135.742,0.000
1673144863.112,-206.543,-1000.000,-45.898,-174.805,0.000
1673144863.116,83.984,-688.965,-19.531,58.105,0.000
1673144863.120,186.523,73.242,-20.996,151.855,0.000
1673144863.123,-64.941,-354.004,-52.734,-25.391,0.000
1673144863.127,-209.473,-1000.000,-56.152,-194.824,0.000
1673144863.131,6.348,-898.438,-34.180,-46.387,0.000
1673144863.135,184.082,-304.199,-30.273,139.648,0.000
1673144863.139,3.418,-327.637,-51.758,-9.277,0.000
1673144863.143,-223.145,-950.195,-69.824,-232.422,0.000
1673144863.147,-91.797,-1000.000,-46.875,-143.555,0.000
1673144863.151,166.992,-279.297,-29.785,98.633,0.000
1673144863.155,90.332,-2.930,-50.293,69.824,0.000
1673144863.159,-178.223,-843.262,-74.707,-175.781,0.000
1673144863.162,-150.391,-1000.000,-46.875,-189.453,0.000
1673144863.166,109.863,-405.762,-19.043,62.012,0.000
1673144863.170,124.512,-42.969,-36.133,121.582,0.000
1673144863.174,-143.555,-796.387,-53.711,-119.141,0.000
1673144863.178,-224.121,-1000.000,-47.363,-213.867,0.000
1673144863.182,43.945,-673.828,-25.879,-9.766,0.000
1673144863.186,163.086,-137.695,-27.344,131.348,0.000
1673144863.190,-83.984,-754.883,-55.664,-37.598,0.000
1673144863.194,-245.605,-1000.000,-66.406,-228.027,0.000
1673144863.198,-34.180,-926.270,-44.434,-84.961,0.000
1673144863.202,178.223,-630.371,-39.551,135.742,0.000
1673144863.205,21.973,-840.332,-59.570,33.203,0.000
1673144863.209,-193.848,-1000.000,-62.012,-210.938,0.000
1673144863.213,-90.332,-992.188,-49.316,-133.789,0.000
1673144863.217,134.766,-524.902,-36.133,108.398,0.000
1673144863.221,98.145,-117.188,-41.504,97.168,0.000
1673144863.225,-223.633,-759.766,-67.383,-160.645,0.000
1673144863.229,-246.094,-1000.000,-57.129,-191.895,0.000
1673144863.233,208.496,-458.008,-28.809,144.043,0.000
1673144863.237,263.184,86.914,-43.945,177.246,0.000
1673144863.241,-198.242,-701.172,-66.406,-185.059,0.000
1673144863.245,-312.988,-1000.000,-52.246,-277.344,0.000
1673144863.248,124.023,-948.730,-26.855,78.613,0.000
1673144863.252,324.707,0.000,-20.996,250.488,0.000
1673144863.256,-76.660,-135.742,-53.711,-41.504,0.000
1673144863.260,-356.934,-1000.000,-66.406,-272.949,0.000
1673144863.264,-13.184,-860.840,-26.855,-25.391,0.000
1673144863.268,321.777,390.625,-11.719,264.160,0.000
1673144863.272,60.059,316.406,-42.480,94.727,0.000
1673144863.276,-333.984,-917.480,-61.035,-250.000,0.000
1673144863.280,-155.762,-1000.000,-31.738,-137.695,0.000
1673144863.284,289.551,-187.500,0.000,236.328,0.000
1673144863.287,194.824,134.277,-28.320,174.805,0.000
1673144863.291,-284.668,-829.102,-65.918,-193.848,0.000
1673144863.295,-272.949,-1000.000,-46.875,-214.844,0.000
1673144863.299,191.406,-241.699,-11.230,152.832,0.000
1673144863.303,257.812,377.441,-32.227,245.117,0.000
1673144863.307,-182.617,-623.047,-70.312,-118.164,0.000
1673144863.311,-339.355,-1000.000,-61.523,-273.438,0.000
1673144863.315,75.195,-603.516,-12.695,86.426,0.000
1673144863.319,308.105,455.566,-8.789,283.203,0.000
1673144863.323,-65.430,-249.512,-58.105,-26.855,0.000
1673144863.327,-363.281,-1000.000,-64.941,-275.391,0.000
1673144863.330,-41.504,-904.297,-28.809,-41.504,0.000
1673144863.334,301.758,-107.422,-21.484,260.742,0.000
1673144863.338,70.801,-302.734,-56.641,94.238,0.000
1673144863.342,-320.312,-1000.000,-63.965,-267.090,0.000
1673144863.346,-176.270,-1000.000,-32.715,-180.176,0.000
1673144863.350,261.719,-78.613,-13.184,186.523,0.000
1673144863.354,204.590,280.273,-30.762,166.504,0.000
1673144863.358,-268.066,-765.625,-62.988,-193.848,0.000
1673144863.362,-311.035,-1000.000,-45.410,-228.027,0.000
1673144863.366,148.438,-434.082,-8.789,116.699,0.000
1673144863.369,265.625,346.680,-25.391,218.750,0.000
1673144863.373,-161.133,-408.203,-64.941,-101.562,0.000
1673144863.377,-352.051,-1000.000,-63.477,-273.438,0.000
1673144863.381,26.855,-875.488,-26.855,5.371,0.000
1673144863.385,299.805,-562.988,-25.879,243.652,0.000
1673144863.389,-24.902,-564.941,-55.664,9.766,0.000
1673144863.393,-372.559,-986.328,-68.359,-275.391,0.000
1673144863.397,-103.027,-1000.000,-40.039,-90.332,0.000
1673144863.401,296.387,81.543,-12.695,237.305,0.000
1673144863.405,107.910,487.305,-38.086,128.906,0.000
1673144863.409,-317.383,-781.738,-69.336,-221.680,0.000
1673144863.412,-206.543,-1000.000,-46.875,-179.688,0.000
1673144863.416,250.000,-238.770,-9.277,195.801,0.000
1673144863.420,224.121,515.137,-29.785,211.914,0.000
1673144863.424,-234.375,-606.445,-72.266,-188.477,0.000
1673144863.428,-311.523,-1000.000,-63.965,-286.133,0.000
1673144863.432,124.512,-496.582,-14.160,77.148,0.000
1673144863.436,284.668,618.652,-19.531,240.723,0.000
1673144863.440,-134.277,-116.699,-70.312,-73.242,0.000
1673144863.444,-366.699,-1000.000,-65.918,-287.598,0.000
1673144863.448,9.766,-776.855,-23.438,-11.719,0.000
1673144863.452,310.547,438.965,-16.113,261.719,0.000
1673144863.455,15.137,217.285,-48.828,38.086,0.000
1673144863.459,-341.309,-1000.000,-65.918,-275.391,0.000
1673144863.463,-123.047,-1000.000,-37.598,-118.164,0.000
1673144863.467,278.809,54.199,-12.695,235.352,0.000
1673144863.471,137.207,123.535,-50.781,142.578,0.000
1673144863.475,-293.945,-914.062,-78.613,-219.727,0.000
1673144863.479,-225.586,-1000.000,-38.574,-193.359,0.000
1673144863.483,162.109,-639.160,-15.625,121.094,0.000
1673144863.487,172.363,-299.316,-35.645,160.645,0.000
1673144863.491,-106.934,-742.676,-54.688,-72.754,0.000
1673144863.494,-206.055,-1000.000,-47.852,-173.828,0.000
1673144863.498,24.902,-731.445,-24.414,37.598,0.000
1673144863.502,178.711,-177.246,-22.461,211.426,0.000
1673144863.506,-45.410,-468.750,-42.969,23.926,0.000
1673144863.510,-309.570,-1000.000,-59.570,-240.234,0.000
1673144863.514,-49.805,-851.562,-37.598,-54.199,0.000
1673144863.518,300.293,-103.516,-25.391,237.305,0.000
1673144863.522,40.527,-249.512,-49.316,57.129,0.000
1673144863.526,-348.633,-935.059,-66.406,-264.648,0.000
1673144863.530,-169.922,-1000.000,-40.039,-159.180,0.000
1673144863.534,261.230,-618.164,-20.020,184.082,0.000
1673144863.537,168.945,-32.227,-39.551,148.438,0.000
1673144863.541,-291.992,-676.270,-68.848,-198.242,0.000
1673144863.545,-279.785,-1000.000,-57.129,-235.352,0.000
1673144863.549,190.430,-432.617,-16.602,135.742,0.000
1673144863.553,261.719,520.996,-27.344,227.051,0.000
1673144863.557,-192.383,-432.129,-73.242,-137.695,0.000
1673144863.561,-344.238,-1000.000,-72.266,-285.645,0.000
1673144863.565,69.824,-792.969,-29.785,35.645,0.000
1673144863.569,303.223,160.156,-20.508,243.652,0.000
1673144863.573,-57.617,-132.324,-61.035,-19.043,0.000
1673144863.576,-363.281,-1000.000,-70.801,-269.043,0.000
1673144863.580,-53.711,-998.047,-33.691,-40.039,0.000
1673144863.584,287.109,14.648,-11.230,245.605,0.000
1673144863.588,50.293,272.461,-44.922,85.938,0.000
1673144863.592,-349.609,-859.375,-71.289,-233.887,0.000
1673144863.596,-205.566,-1000.000,-39.551,-157.715,0.000
1673144863.600,231.934,34.180,-19.043,188.477,0.000
1673144863.604,169.922,578.125,-47.363,157.227,0.000
1673144863.608,-281.738,-669.434,-80.078,-208.008,0.000
1673144863.612,-300.293,-1000.000,-60.059,-263.184,0.000
1673144863.616,171.875,-543.945,-22.949,114.258,0.000
1673144863.619,282.715,383.301,-37.109,244.141,0.000
1673144863.623,-164.062,-487.305,-79.102,-122.559,0.000
1673144863.627,-359.863,-1000.000,-59.082,-298.828,0.000
1673144863.631,38.574,-606.934,-20.508,36.133,0.000
1673144863.635,317.383,391.602,-28.809,254.883,0.000
1673144863.639,-20.020,-269.043,-61.035,-6.348,0.000
1673144863.643,-368.164,-1000.000,-74.219,-285.156,0.000
1673144863.647,-90.820,-905.273,-39.062,-116.699,0.000
1673144863.651,305.176,70.312,-16.113,216.309,0.000
1673144863.655,119.629,110.352,-41.992,100.098,0.000
1673144863.659,-312.012,-924.805,-65.918,-260.254,0.000
1673144863.662,-206.055,-1000.000,-42.969,-193.848,0.000
1673144863.666,246.582,-378.418,-19.043,179.688,0.000
1673144863.670,215.332,-515.625,-41.992,191.895,0.000
1673144863.674,-251.465,-954.102,-67.871,-144.043,0.000
1673144863.678,-316.406,-1000.000,-57.129,-256.348,0.000
1673144863.682,142.578,-677.734,-21.484,56.641,0.000
1673144863.686,283.203,386.719,-19.043,226.562,0.000
1673144863.690,-143.555,-202.148,-56.152,-83.496,0.000
1673144863.694,-371.582,-1000.000,-62.500,-295.898,0.000
1673144863.698,1.465,-906.250,-21.973,-12.695,0.000
1673144863.701,306.152,236.328,-15.137,244.141,0.000
1673144863.705,0.000,-67.871,-56.641,48.340,0.000
1673144863.709,-363.770,-1000.000,-76.172,-257.324,0.000
1673144863.713,-127.930,-1000.000,-46.875,-142.090,0.000
1673144863.717,282.715,-114.746,-12.207,193.359,0.000
1673144863.721,138.184,415.039,-37.109,103.516,0.000
1673144863.725,-294.434,-764.648,-76.660,-253.418,0.000
1673144863.729,-228.516,-1000.000,-54.688,-216.797,0.000
1673144863.733,231.934,-102.539,-4.395,165.039,0.000
1673144863.737,239.258,649.902,-23.438,194.824,0.000
1673144863.741,-167.969,-482.910,-72.754,-123.047,0.000
1673144863.744,-251.465,-1000.000,-60.547,-220.703,0.000
1673144863.748,20.508,-774.902,-30.762,2.930,0.000
1673144863.752,169.922,-385.254,-32.227,176.758,0.000
1673144863.756,-53.711,-717.773,-55.176,-33.203,0.000
1673144863.760,-248.047,-1000.000,-65.918,-240.234,0.000
1673144863.764,-52.734,-985.840,-30.273,-87.891,0.000
1673144863.768,180.176,-219.238,-16.113,143.066,0.000
1673144863.772,42.480,-212.891,-43.457,51.270,0.000
1673144863.776,-216.309,-1000.000,-55.176,-190.918,0.000
1673144863.780,-136.230,-1000.000,-34.180,-138.672,0.000
1673144863.783,142.578,-354.980,-16.602,113.281,0.000
1673144863.787,110.352,-254.395,-37.109,110.352,0.000
1673144863.791,-170.898,-928.223,-55.664,-135.742,0.000
1673144863.795,-174.805,-1000.000,-43.457,-165.527,0.000
1673144863.799,117.188,-801.270,-21.484,56.641,0.000
1673144863.803,177.246,-718.262,-33.691,129.883,0.000
1673144863.807,-109.863,-978.516,-52.734,-75.195,0.000
1673144863.811,-236.328,-1000.000,-51.270,-201.660,0.000
1673144863.815,15.625,-852.539,-36.133,-23.438,0.000
1673144863.819,203.125,-356.934,-29.297,155.273,0.000
1673144863.823,6.348,-532.715,-46.875,7.324,0.000
1673144863.826,-204.590,-989.746,-56.641,-192.871,0.000
1673144863.830,-44.922,-1000.000,-35.156,-57.617,0.000
1673144863.834,191.406,-495.117,-13.184,174.316,0.000
1673144863.838,85.449,-127.930,-28.809,76.660,0.000
1673144863.842,-195.801,-829.590,-52.246,-200.195,0.000
1673144863.846,-149.902,-1000.000,-37.598,-143.555,0.000
1673144863.850,137.695,-857.422,-16.113,152.832,0.000
1673144863.854,125.977,-341.797,-19.043,132.324,0.000
1673144863.858,-156.738,-767.090,-46.387,-141.113,0.000
1673144863.862,-191.406,-1000.000,-45.898,-207.031,0.000
1673144863.866,83.496,-625.488,-17.578,45.898,0.000
1673144863.869,169.922,94.727,-19.531,152.832,0.000
1673144863.873,-85.938,-391.602,-46.875,-67.871,0.000
1673144863.877,-236.328,-1000.000,-51.758,-210.938,0.000
1673144863.881,-12.695,-848.633,-24.414,-44.434,0.000
1673144863.885,181.152,-76.660,-17.090,134.766,0.000
1673144863.889,4.395,-254.883,-44.922,0.000,0.000
1673144863.893,-232.910,-989.746,-62.012,-200.684,0.000
1673144863.897,-104.004,-1000.000,-27.344,-85.449,0.000
1673144863.901,172.852,-289.551,-5.371,173.828,0.000
1673144863.905,70.801,-65.918,-42.480,97.656,0.000
1673144863.908,-221.191,-882.812,-68.848,-196.289,0.000
1673144863.912,-176.758,-1000.000,-41.992,-165.039,0.000
1673144863.916,107.910,-594.727,-22.461,85.449,0.000
1673144863.920,126.465,-403.320,-45.410,85.449,0.000
1673144863.924,-148.438,-871.094,-64.941,-146.973,0.000
1673144863.928,-214.844,-1000.000,-47.363,-215.820,0.000
1673144863.932,53.711,-719.727,-26.855,6.836,0.000
1673144863.936,170.898,-206.055,-36.621,136.230,0.000
1673144863.940,-66.406,-768.555,-59.570,-40.039,0.000
1673144863.944,-237.305,-1000.000,-54.199,-218.262,0.000
1673144863.948,-39.062,-916.992,-31.738,-55.176,0.000
1673144863.951,179.199,-577.637,-29.785,157.227,0.000
1673144863.955,18.555,-657.715,-44.434,19.043,0.000
1673144863.959,-227.051,-1000.000,-59.570,-196.289,0.000
1673144863.963,-118.164,-973.633,-41.992,-118.164,0.000
1673144863.967,156.250,-666.504,-25.879,103.027,0.000
1673144863.971,106.934,-714.844,-32.227,64.941,0.000
1673144863.975,-180.664,-929.199,-47.852,-239.746,0.000
1673144863.979,-181.152,-1000.000,-36.621,-313.477,0.000
1673144863.983,116.211,-824.707,-16.602,-39.551,0.000
1673144863.987,166.992,-364.746,-28.320,50.781,0.000
1673144863.990,-127.441,-772.949,-49.805,-153.320,0.000
1673144863.994,-234.375,-1000.000,-49.805,-234.863,0.000
1673144863.998,34.180,-921.875,-30.273,-4.395,0.000
1673144864.002,181.152,-77.148,-19.043,153.320,0.000
1673144864.006,-45.898,-179.199,-41.016,-47.363,0.000
1673144864.010,-229.004,-1000.000,-56.152,-228.516,0.000
1673144864.014,-35.156,-1000.000,-33.691,-63.477,0.000
1673144864.018,177.734,-125.977,-8.789,176.758,0.000
1673144864.022,33.203,11.719,-20.996,78.613,0.000
1673144864.026,-231.934,-882.812,-39.551,-166.016,0.000
1673144864.030,-145.996,-1000.000,-28.809,-114.746,0.000
1673144864.033,151.855,-586.914,-12.207,121.094,0.000
1673144864.037,125.488,-329.590,-25.879,119.629,0.000
1673144864.041,-173.340,-864.258,-49.316,-119.141,0.000
1673144864.045,-191.895,-1000.000,-32.227,-136.230,0.000
1673144864.049,111.816,-471.191,-3.418,92.773,0.000
1673144864.053,196.777,226.562,-19.531,150.879,0.000
1673144864.057,-93.262,-548.828,-49.805,-64.453,0.000
1673144864.061,-223.145,-1000.000,-37.109,-166.992,0.000
1673144864.065,-3.906,-878.906,-13.184,-5.371,0.000
1673144864.069,100.586,-440.918,-14.160,121.094,0.000
1673144864.073,20.508,-614.746,-29.785,68.359,0.000
1673144864.076,-96.191,-1000.000,-45.410,-82.031,0.000
1673144864.080,-78.613,-998.535,-40.039,-65.430,0.000
1673144864.084,44.434,-942.871,-26.367,91.309,0.000
1673144864.088,45.410,-928.223,-31.250,74.707,0.000
1673144864.092,-87.402,-991.699,-38.086,-63.477,0.000
1673144864.096,-114.258,-982.910,-34.180,-89.844,0.000
1673144864.100,24.414,-780.762,-31.250,43.945,0.000
1673144864.104,66.895,-846.191,-38.086,104.980,0.000
1673144864.108,-39.062,-878.906,-39.062,-38.574,0.000
1673144864.112,-107.910,-939.453,-38.086,-86.426,0.000
1673144864.115,-35.156,-996.094,-25.879,14.160,0.000
1673144864.119,68.848,-700.684,-15.137,90.820,0.000
1673144864.123,12.207,-578.613,-26.367,41.992,0.000
1673144864.127,-104.492,-943.359,-40.039,-71.777,0.000
1673144864.131,-49.316,-1000.000,-33.203,-44.922,0.000
1673144864.135,68.359,-791.504,-20.996,83.008,0.000
1673144864.139,41.016,-787.598,-32.227,68.359,0.000
1673144864.143,-102.051,-978.027,-41.016,-70.312,0.000
1673144864.147,-103.027,-1000.000,-33.691,-64.941,0.000
1673144864.151,38.086,-745.117,-21.973,60.547,0.000
1673144864.155,61.035,-298.828,-23.438,62.988,0.000
1673144864.158,-65.430,-669.434,-39.551,-48.828,0.000
1673144864.162,-96.680,-1000.000,-43.945,-104.980,0.000
1673144864.166,4.395,-761.230,-25.879,10.742,0.000
1673144864.170,45.410,-366.699,-21.973,98.633,0.000
1673144864.174,-34.668,-782.227,-42.969,-11.230,0.000
1673144864.178,-103.027,-1000.000,-46.875,-113.281,0.000
1673144864.182,-30.762,-892.578,-29.785,-41.504,0.000
1673144864.186,68.359,-411.621,-25.391,73.242,0.000
1673144864.190,16.602,-396.484,-37.109,9.766,0.000
1673144864.194,-102.051,-929.199,-48.828,-126.465,0.000
1673144864.197,-79.102,-1000.000,-37.109,-92.773,0.000
1673144864.201,45.898,-672.852,-19.043,56.641,0.000
1673144864.205,49.805,-442.871,-25.391,50.781,0.000
1673144864.209,-106.445,-918.457,-42.969,-105.957,0.000
1673144864.213,-123.535,-1000.000,-41.016,-99.609,0.000
1673144864.217,20.508,-643.555,-35.645,43.945,0.000
1673144864.221,47.363,-659.668,-41.016,56.641,0.000
1673144864.225,-66.406,-972.168,-37.598,-36.133,0.000
1673144864.229,-97.656,-1000.000,-32.227,-113.281,0.000
1673144864.233,8.301,-976.562,-20.020,-23.438,0.000
1673144864.237,66.406,-846.191,-13.184,64.941,0.000
1673144864.240,-32.227,-915.527,-24.414,-29.785,0.000
1673144864.244,-130.859,-1000.000,-27.832,-137.695,0.000
1673144864.248,-48.828,-921.387,-24.902,-63.965,0.000
1673144864.252,55.176,-819.336,-26.855,67.871,0.000
1673144864.256,9.277,-845.215,-35.156,23.926,0.000
1673144864.260,-103.027,-945.312,-41.992,-96.680,0.000
1673144864.264,-82.031,-1000.000,-35.156,-64.941,0.000
1673144864.268,48.340,-1000.000,-26.855,75.684,0.000
1673144864.272,41.504,-833.496,-33.203,46.875,0.000
1673144864.276,-95.703,-834.473,-45.898,-107.910,0.000
1673144864.280,-101.074,-1000.000,-42.480,-102.051,0.000
1673144864.283,41.992,-982.422,-35.156,44.434,0.000
1673144864.287,64.453,-577.148,-28.809,76.172,0.000
1673144864.291,-54.199,-660.156,-37.109,-28.809,0.000
1673144864.295,-109.375,-1000.000,-45.898,-101.074,0.000
1673144864.299,-27.344,-875.977,-35.156,-16.602,0.000
1673144864.303,56.641,-408.691,-30.273,101.562,0.000
1673144864.307,-11.230,-566.895,-41.992,2.441,0.000
1673144864.311,-111.328,-981.934,-45.410,-129.395,0.000
1673144864.315,-59.570,-1000.000,-32.227,-55.664,0.000
1673144864.319,46.875,-747.559,-20.020,63.477,0.000
1673144864.322,25.391,-507.812,-31.250,41.504,0.000
1673144864.326,-87.402,-919.434,-52.246,-85.449,0.000
1673144864.330,-90.332,-1000.000,-45.410,-84.473,0.000
1673144864.334,39.062,-559.082,-24.902,48.340,0.000
1673144864.338,48.340,-332.031,-34.668,55.176,0.000
1673144864.342,-87.402,-844.238,-55.664,-71.777,0.000
1673144864.346,-113.770,-1000.000,-49.316,-79.590,0.000
1673144864.350,16.113,-689.453,-32.715,32.715,0.000
1673144864.354,61.523,-358.887,-41.992,67.871,0.000
1673144864.358,-54.688,-786.621,-60.059,-33.691,0.000
1673144864.362,-103.516,-1000.000,-52.246,-126.465,0.000
1673144864.365,-5.859,-974.609,-36.621,-46.875,0.000
1673144864.369,77.148,-846.680,-34.180,58.594,0.000
1673144864.373,-1.953,-884.277,-50.293,13.184,0.000
1673144864.377,-119.629,-1000.000,-49.316,-126.465,0.000
1673144864.381,-64.453,-961.914,-35.645,-86.914,0.000
1673144864.385,62.012,-605.957,-37.109,54.199,0.000
1673144864.389,33.691,-681.641,-46.875,33.691,0.000
1673144864.393,-104.004,-979.980,-53.223,-64.941,0.000
1673144864.397,-100.098,-986.816,-50.781,-96.680,0.000
1673144864.401,41.504,-813.477,-36.133,16.602,0.000
1673144864.404,53.711,-740.234,-39.062,51.270,0.000
1673144864.408,-95.703,-923.828,-63.477,-76.172,0.000
1673144864.412,-129.395,-1000.000,-56.152,-122.070,0.000
1673144864.416,-11.719,-959.961,-47.852,1.465,0.000
1673144864.420,37.598,-986.328,-57.617,71.777,0.000
1673144864.424,-56.641,-978.027,-55.664,-35.156,0.000
1673144864.428,-131.836,-1000.000,-58.105,-121.094,0.000
1673144864.432,-46.875,-995.605,-55.664,-41.016,0.000
1673144864.436,57.129,-530.762,-42.969,101.074,0.000
1673144864.440,-25.391,-439.941,-48.828,18.555,0.000
1673144864.444,-212.891,-980.957,-55.664,-182.617,0.000
1673144864.447,-44.434,-999.023,-35.156,-33.203,0.000
1673144864.451,195.801,-181.152,-24.902,163.574,0.000
1673144864.455,10.254,-396.484,-44.922,33.691,0.000
1673144864.459,-237.305,-1000.000,-58.105,-175.293,0.000
1673144864.463,-115.723,-1000.000,-40.527,-114.258,0.000
1673144864.467,153.809,-451.660,-18.066,123.535,0.000
1673144864.471,95.703,26.367,-38.574,86.914,0.000
1673144864.475,-190.918,-771.973,-68.359,-160.156,0.000
1673144864.479,-168.457,-1000.000,-56.641,-184.570,0.000
1673144864.483,119.629,-444.824,-29.785,73.730,0.000
1673144864.487,143.555,158.691,-36.133,142.090,0.000
1673144864.490,-139.648,-558.594,-58.105,-87.891,0.000
1673144864.494,-240.234,-1000.000,-48.828,-209.961,0.000
1673144864.498,30.762,-746.094,-22.949,-9.277,0.000
1673144864.502,193.848,-342.773,-20.508,158.203,0.000
1673144864.506,-28.809,-700.684,-43.457,-16.113,0.000
1673144864.510,-211.914,-1000.000,-58.594,-216.309,0.000
1673144864.514,-48.340,-934.082,-31.738,-83.496,0.000
1673144864.518,161.133,-50.781,-20.996,146.973,0.000
1673144864.522,30.273,-113.281,-45.898,45.898,0.000
1673144864.526,-229.004,-993.652,-59.570,-208.008,0.000
1673144864.529,-139.160,-1000.000,-44.922,-155.273,0.000
1673144864.533,147.949,-424.805,-30.762,96.680,0.000
1673144864.537,112.305,-319.336,-46.875,86.914,0.000
1673144864.541,-170.410,-911.621,-66.406,-172.363,0.000
1673144864.545,-176.270,-1000.000,-56.152,-206.543,0.000
1673144864.549,99.121,-811.523,-38.086,38.086,0.000
1673144864.553,161.621,-630.371,-46.875,128.418,0.000
1673144864.557,-104.004,-949.707,-61.523,-92.773,0.000
1673144864.561,-229.980,-1000.000,-54.688,-200.684,0.000
1673144864.565,11.230,-856.445,-36.133,-18.066,0.000
1673144864.569,186.523,-387.207,-32.715,128.418,0.000
1673144864.572,-11.719,-368.164,-49.805,-21.484,0.000
1673144864.576,-236.816,-927.246,-62.500,-208.008,0.000
1673144864.580,-70.801,-1000.000,-43.457,-87.891,0.000
1673144864.584,173.828,-453.613,-30.762,122.559,0.000
1673144864.588,49.316,-235.840,-48.340,45.410,0.000
1673144864.592,-142.578,-900.391,-60.059,-136.230,0.000
1673144864.596,-112.305,-1000.000,-52.734,-122.070,0.000
1673144864.600,14.648,-933.105,-42.480,8.301,0.000
1673144864.604,47.852,-652.832,-38.574,51.758,0.000
1673144864.608,-61.523,-858.398,-56.152,-61.523,0.000
1673144864.611,-130.371,-1000.000,-58.594,-118.652,0.000
1673144864.615,-47.852,-855.469,-44.434,-18.555,0.000
1673144864.619,34.668,-382.324,-44.434,48.340,0.000
1673144864.623,-27.344,-425.293,-54.688,-17.578,0.000
1673144864.627,-129.395,-956.055,-58.105,-120.117,0.000
1673144864.631,-81.543,-1000.000,-47.852,-71.777,0.000
1673144864.635,49.316,-518.066,-40.527,36.621,0.000
1673144864.639,36.133,-365.723,-48.340,7.812,0.000
1673144864.643,-95.215,-874.023,-63.477,-114.258,0.000
1673144864.647,-84.961,-1000.000,-54.688,-113.770,0.000
1673144864.651,28.320,-779.785,-35.156,37.598,0.000
1673144864.654,19.531,-477.539,-44.434,59.570,0.000
1673144864.658,-102.051,-845.215,-64.453,-88.379,0.000
1673144864.662,-119.629,-1000.000,-48.828,-120.605,0.000
1673144864.666,9.277,-741.211,-39.551,-8.789,0.000
1673144864.670,80.078,-400.391,-48.828,39.551,0.000
1673144864.674,-29.297,-799.316,-55.664,-58.105,0.000
1673144864.678,-174.805,-1000.000,-53.223,-168.945,0.000
1673144864.682,14.648,-683.594,-30.762,0.488,0.000
1673144864.686,172.852,-136.719,-34.180,162.109,0.000
1673144864.690,-57.129,-768.555,-59.570,-27.344,0.000
1673144864.694,-234.863,-1000.000,-59.570,-190.430,0.000
1673144864.697,-41.504,-922.363,-39.062,-17.090,0.000
1673144864.701,166.016,-581.055,-35.156,156.250,0.000
1673144864.705,1.465,-774.902,-48.828,17.090,0.000
1673144864.709,-229.492,-1000.000,-54.688,-200.684,0.000
1673144864.713,-105.957,-985.352,-40.527,-101.562,0.000
1673144864.717,161.133,-526.855,-24.414,137.207,0.000
1673144864.721,99.609,-263.672,-39.551,82.520,0.000
1673144864.725,-190.918,-838.867,-64.941,-167.969,0.000
1673144864.729,-173.828,-1000.000,-47.852,-158.203,0.000
1673144864.733,111.816,-809.570,-19.531,102.051,0.000
1673144864.736,139.648,-566.406,-37.109,124.512,0.000
1673144864.740,-144.531,-864.746,-60.059,-100.586,0.000
1673144864.744,-237.305,-1000.000,-57.129,-186.523,0.000
1673144864.748,24.902,-1000.000,-41.504,12.207,0.000
1673144864.752,167.969,-359.375,-29.297,145.508,0.000
1673144864.756,-66.895,-361.816,-52.734,-44.922,0.000
1673144864.760,-248.535,-1000.000,-69.336,-224.121,0.000
1673144864.764,-61.523,-940.918,-40.527,-95.703,0.000
1673144864.768,94.238,-378.906,-32.227,56.152,0.000
1673144864.772,31.250,-246.582,-54.688,19.531,0.000
1673144864.776,-105.469,-838.867,-62.988,-109.375,0.000
1673144864.779,-112.793,-1000.000,-44.434,-120.605,0.000
1673144864.783,21.973,-925.781,-36.133,10.742,0.000
1673144864.787,45.410,-684.570,-45.410,50.293,0.000
1673144864.791,-71.777,-777.344,-66.406,-64.941,0.000
1673144864.795,-102.539,-1000.000,-68.359,-108.887,0.000
1673144864.799,7.812,-766.602,-39.062,1.953,0.000
1673144864.803,71.777,-282.715,-40.039,78.125,0.000
1673144864.807,-16.602,-572.754,-59.082,-12.207,0.000
1673144864.811,-113.770,-1000.000,-57.129,-125.488,0.000
1673144864.815,-60.059,-984.863,-47.852,-62.012,0.000
1673144864.818,45.898,-499.023,-45.410,69.336,0.000
1673144864.822,-2.930,-595.215,-56.641,34.180,0.000
1673144864.826,-133.301,-1000.000,-63.477,-104.004,0.000
1673144864.830,-108.887,-1000.000,-56.641,-79.590,0.000
1673144864.834,27.832,-863.770,-48.828,52.246,0.000
1673144864.838,16.113,-876.953,-60.547,62.988,0.000
1673144864.842,-120.117,-1000.000,-62.988,-57.617,0.000
1673144864.846,-125.977,-990.723,-53.711,-116.211,0.000
1673144864.850,11.719,-819.824,-47.363,2.930,0.000
1673144864.854,55.176,-659.668,-49.316,55.176,0.000
1673144864.858,-67.871,-699.219,-64.453,-64.453,0.000
1673144864.861,-131.348,-953.613,-66.406,-138.672,0.000
1673144864.865,-40.039,-987.305,-58.105,-36.621,0.000
1673144864.869,27.832,-855.469,-59.082,72.266,0.000
1673144864.873,-36.133,-764.648,-63.965,-14.160,0.000
1673144864.877,-116.211,-939.453,-70.801,-139.648,0.000
1673144864.881,-60.059,-1000.000,-63.477,-66.895,0.000
1673144864.885,55.664,-975.586,-52.246,95.215,0.000
1673144864.889,24.902,-825.684,-48.828,42.969,0.000
1673144864.893,-109.375,-926.270,-59.570,-129.883,0.000
1673144864.897,-102.051,-1000.000,-58.105,-112.305,0.000
1673144864.901,35.645,-632.324,-45.898,32.715,0.000
1673144864.904,52.246,-304.199,-54.688,39.551,0.000
1673144864.908,-86.914,-686.523,-70.312,-87.402,0.000
1673144864.912,-131.348,-1000.000,-68.848,-109.375,0.000
1673144864.916,-13.672,-750.488,-54.688,11.719,0.000
1673144864.920,37.598,-381.836,-52.246,70.801,0.000
1673144864.924,-61.523,-806.641,-62.500,-32.227,0.000
1673144864.928,-131.836,-1000.000,-65.918,-104.980,0.000
1673144864.932,-46.387,-870.117,-41.504,-4.395,0.000
1673144864.936,62.012,-375.000,-31.738,81.543,0.000
1673144864.940,6.348,-392.578,-57.129,31.250,0.000
1673144864.943,-122.070,-957.031,-69.824,-78.613,0.000
1673144864.947,-93.262,-1000.000,-65.918,-85.449,0.000
1673144864.951,35.645,-478.027,-58.594,53.223,0.000
1673144864.955,21.973,-353.027,-62.988,49.805,0.000
1673144864.959,-105.469,-926.270,-74.219,-104.004,0.000
1673144864.963,-103.516,-1000.000,-62.988,-112.305,0.000
1673144864.967,30.273,-629.883,-47.852,35.156,0.000
1673144864.971,48.340,-661.621,-57.617,66.895,0.000
1673144864.975,-62.500,-981.934,-72.266,-55.664,0.000
1673144864.979,-80.566,-1000.000,-57.129,-93.750,0.000
1673144864.983,3.906,-968.262,-48.828,6.836,0.000
1673144864.986,56.152,-813.477,-56.152,67.871,0.000
1673144864.990,-15.625,-783.691,-59.082,-5.371,0.000
1673144864.994,-103.516,-990.234,-57.129,-92.285,0.000
1673144864.998,-44.434,-956.055,-48.340,-50.293,0.000
1673144865.002,59.082,-682.617,-41.504,70.312,0.000
1673144865.006,14.648,-615.234,-43.945,30.762,0.000
1673144865.010,-118.652,-901.367,-53.711,-100.098,0.000
1673144865.014,-103.516,-1000.000,-54.199,-67.383,0.000
1673144865.018,36.133,-969.238,-51.758,81.543,0.000
1673144865.022,24.414,-904.785,-55.664,61.523,0.000
1673144865.025,-90.820,-950.195,-60.059,-75.195,0.000
1673144865.029,-86.914,-1000.000,-55.176,-71.289,0.000
1673144865.033,17.090,-954.590,-52.246,58.594,0.000
1673144865.037,45.410,-750.977,-53.711,107.910,0.000
1673144865.041,-58.594,-901.367,-62.988,-61.523,0.000
1673144865.045,-101.562,-1000.000,-66.895,-135.742,0.000
1673144865.049,-1.465,-948.730,-56.641,3.906,0.000
1673144865.053,71.289,-516.602,-44.922,77.637,0.000
1673144865.057,-9.766,-538.574,-59.082,-5.859,0.000
1673144865.061,-105.469,-960.449,-73.242,-99.121,0.000
1673144865.065,-45.410,-1000.000,-60.547,-46.875,0.000
1673144865.068,74.219,-737.305,-45.410,77.148,0.000
1673144865.072,24.902,-585.449,-55.176,48.340,0.000
1673144865.076,-127.930,-966.797,-66.406,-85.938,0.000
1673144865.080,-107.422,-1000.000,-53.223,-80.078,0.000
1673144865.084,34.180,-629.395,-43.457,46.875,0.000
1673144865.088,45.410,-508.301,-50.293,62.012,0.000
1673144865.092,-91.309,-883.789,-65.430,-74.707,0.000
1673144865.096,-116.211,-1000.000,-54.688,-108.398,0.000
1673144865.100,17.090,-710.938,-31.250,23.926,0.000
1673144865.104,59.082,-364.746,-38.574,75.684,0.000
1673144865.108,-52.246,-771.484,-57.129,-41.016,0.000
1673144865.111,-103.027,-1000.000,-52.734,-109.375,0.000
1673144865.115,-7.324,-894.043,-41.504,-11.230,0.000
1673144865.119,55.176,-456.543,-42.969,85.449,0.000
1673144865.123,-32.227,-741.211,-59.082,-0.977,0.000
1673144865.127,-123.047,-1000.000,-58.105,-102.051,0.000
1673144865.131,-55.176,-916.992,-44.434,-13.184,0.000
1673144865.135,69.824,-589.844,-40.039,85.938,0.000
1673144865.139,42.480,-840.820,-54.688,27.832,0.000
1673144865.143,-83.496,-1000.000,-58.594,-104.004,0.000
1673144865.147,-82.031,-979.492,-48.828,-92.773,0.000
1673144865.150,31.738,-932.617,-38.574,52.734,0.000
1673144865.154,19.043,-808.594,-45.898,55.664,0.000
1673144865.158,-100.586,-932.617,-59.570,-69.336,0.000
1673144865.162,-115.723,-1000.000,-57.129,-99.609,0.000
1673144865.166,0.977,-984.863,-52.734,12.695,0.000
1673144865.170,53.223,-866.211,-50.781,69.824,0.000
1673144865.174,-41.016,-712.891,-53.711,-33.691,0.000
1673144865.178,-107.422,-932.129,-53.711,-111.328,0.000
1673144865.182,-20.996,-1000.000,-50.781,1.465,0.000
1673144865.186,63.965,-763.184,-41.992,68.848,0.000
1673144865.190,-0.488,-487.793,-47.852,-19.043,0.000
1673144865.193,-90.332,-916.016,-63.477,-119.629,0.000
1673144865.197,-64.453,-1000.000,-56.152,-91.309,0.000
1673144865.201,44.922,-542.480,-41.016,55.176,0.000
1673144865.205,33.203,-593.750,-40.527,54.199,0.000
1673144865.209,-101.074,-978.027,-58.105,-83.496,0.000
1673144865.213,-102.051,-1000.000,-62.012,-83.496,0.000
1673144865.217,32.715,-617.188,-40.527,50.781,0.000
1673144865.221,49.316,-310.547,-41.016,64.941,0.000
1673144865.225,-81.055,-680.664,-63.477,-60.059,0.000
1673144865.229,-111.816,-1000.000,-69.336,-91.797,0.000
1673144865.232,5.371,-799.805,-47.363,-3.906,0.000
1673144865.236,64.453,-358.398,-44.434,65.918,0.000
1673144865.240,-41.504,-636.719,-63.965,-39.062,0.000
1673144865.244,-133.301,-1000.000,-62.988,-142.578,0.000
1673144865.248,-59.570,-930.664,-51.270,-61.035,0.000
1673144865.252,46.875,-826.172,-53.223,51.270,0.000
1673144865.256,11.719,-912.598,-58.594,31.250,0.000
1673144865.260,-158.203,-1000.000,-67.383,-140.137,0.000
1673144865.264,-64.453,-1000.000,-54.199,-76.660,0.000
1673144865.268,171.387,-506.348,-37.598,146.484,0.000
1673144865.272,49.805,-442.383,-61.035,41.504,0.000
1673144865.275,-204.590,-985.352,-73.242,-190.918,0.000
1673144865.279,-120.117,-1000.000,-44.434,-136.230,0.000
1673144865.283,151.367,-284.180,-28.809,104.980,0.000
1673144865.287,102.051,-150.391,-46.875,97.168,0.000
1673144865.291,-113.770,-860.840,-54.688,-84.473,0.000
1673144865.295,-149.414,-999.512,-48.340,-107.910,0.000
1673144865.299,-32.227,-979.004,-46.387,17.578,0.000
1673144865.303,52.734,-941.895,-44.922,89.355,0.000
1673144865.307,-26.855,-789.062,-46.387,6.348,0.000
1673144865.311,-103.027,-926.758,-52.734,-104.004,0.000
1673144865.315,-36.621,-1000.000,-44.434,-36.621,0.000
1673144865.318,64.941,-939.453,-41.504,98.633,0.000
1673144865.322,25.879,-675.781,-41.992,48.340,0.000
1673144865.326,-93.262,-847.656,-47.363,-104.492,0.000
1673144865.330,-66.406,-1000.000,-45.410,-84.961,0.000
1673144865.334,57.129,-769.531,-34.180,53.223,0.000
1673144865.338,58.594,-439.453,-37.109,67.383,0.000
1673144865.342,-142.578,-804.199,-62.012,-124.023,0.000
1673144865.346,-123.535,-1000.000,-52.734,-125.488,0.000
1673144865.350,153.320,-579.590,-25.391,133.301,0.000
1673144865.354,126.465,-102.051,-40.527,136.230,0.000
1673144865.357,-153.809,-782.715,-63.965,-126.953,0.000
1673144865.361,-198.730,-1000.000,-55.664,-165.527,0.000
1673144865.365,75.195,-666.016,-22.949,81.543,0.000
1673144865.369,174.805,133.301,-22.461,185.059,0.000
1673144865.373,-93.262,-451.660,-57.129,-41.992,0.000
1673144865.377,-234.863,-1000.000,-62.012,-199.219,0.000
1673144865.381,2.930,-798.340,-35.156,-8.301,0.000
1673144865.385,193.359,42.969,-30.273,170.898,0.000
1673144865.389,0.488,-139.648,-60.547,16.602,0.000
1673144865.393,-221.191,-985.840,-70.801,-177.246,0.000
1673144865.397,-62.012,-1000.000,-42.480,-77.148,0.000
1673144865.400,187.500,-166.016,-26.367,132.324,0.000
1673144865.404,73.730,46.387,-46.387,95.703,0.000
1673144865.408,-204.590,-860.352,-71.777,-146.484,0.000
1673144865.412,-154.785,-1000.000,-43.945,-143.555,0.000
1673144865.416,120.117,-281.250,-18.555,112.793,0.000
1673144865.420,126.465,120.605,-41.992,138.184,0.000
1673144865.424,-142.090,-754.395,-63.477,-106.445,0.000
1673144865.428,-198.242,-1000.000,-50.293,-192.383,0.000
1673144865.432,75.684,-700.684,-23.438,41.992,0.000
1673144865.436,163.574,-66.406,-29.297,166.016,0.000
1673144865.439,-45.898,-734.375,-48.340,-0.977,0.000
1673144865.443,-137.207,-1000.000,-39.551,-109.375,0.000
1673144865.447,-57.129,-944.336,-35.156,-58.105,0.000
1673144865.451,59.570,-919.922,-29.297,54.199,0.000
1673144865.455,42.969,-865.234,-30.762,42.480,0.000
1673144865.459,-93.750,-936.035,-39.062,-97.656,0.000
1673144865.463,-88.867,-1000.000,-35.645,-103.516,0.000
1673144865.467,51.758,-887.207,-30.762,37.598,0.000
1673144865.471,73.730,-536.133,-37.109,57.129,0.000
1673144865.475,-32.715,-692.871,-45.898,-70.801,0.000
1673144865.479,-84.961,-1000.000,-38.574,-87.402,0.000
1673144865.482,-11.719,-981.934,-29.785,29.785,0.000
1673144865.486,45.410,-879.883,-31.738,94.727,0.000
1673144865.490,-37.598,-949.219,-41.992,24.414,0.000
1673144865.494,-108.887,-999.512,-47.852,-95.703,0.000
1673144865.498,-33.203,-1000.000,-40.039,-37.109,0.000
1673144865.502,61.523,-729.004,-26.855,75.684,0.000
1673144865.506,14.160,-430.664,-37.598,18.066,0.000
1673144865.510,-93.262,-909.668,-48.340,-102.051,0.000
1673144865.514,-57.617,-1000.000,-39.062,-69.824,0.000
1673144865.518,50.293,-517.578,-31.738,65.918,0.000
1673144865.522,31.250,-366.699,-36.133,57.129,0.000
1673144865.525,-88.379,-831.543,-51.270,-80.566,0.000
1673144865.529,-83.496,-1000.000,-46.875,-95.703,0.000
1673144865.533,30.762,-949.707,-36.133,25.879,0.000
1673144865.537,52.246,-756.348,-34.180,66.895,0.000
1673144865.541,-64.941,-818.359,-47.363,-34.668,0.000
1673144865.545,-115.234,-1000.000,-52.734,-106.934,0.000
1673144865.549,-8.301,-834.961,-26.367,-18.066,0.000
1673144865.553,70.801,-323.242,-27.832,64.941,0.000
1673144865.557,-13.672,-530.273,-50.781,-24.414,0.000
1673144865.561,-171.387,-1000.000,-57.129,-151.855,0.000
1673144865.564,-1.953,-764.160,-34.180,1.465,0.000
1673144865.568,190.918,101.074,-28.320,157.715,0.000
1673144865.572,-40.527,-402.832,-56.641,3.418,0.000
1673144865.576,-248.535,-1000.000,-57.129,-180.664,0.000
1673144865.580,-56.152,-981.445,-29.785,-73.730,0.000
1673144865.584,177.734,-495.117,-18.555,152.344,0.000
1673144865.588,45.410,-575.195,-44.922,60.059,0.000
1673144865.592,-213.379,-1000.000,-50.293,-177.734,0.000
1673144865.596,-140.625,-1000.000,-34.180,-131.836,0.000
1673144865.600,132.812,-604.492,-27.832,113.281,0.000
1673144865.604,101.074,-316.895,-42.480,114.746,0.000
1673144865.607,-180.176,-847.168,-61.523,-129.395,0.000
1673144865.611,-186.523,-1000.000,-44.434,-164.551,0.000
1673144865.615,33.203,-894.043,-24.414,32.227,0.000
1673144865.619,88.379,-626.953,-32.227,104.004,0.000
1673144865.623,-8.301,-503.418,-51.270,8.301,0.000
1673144865.627,-97.168,-926.758,-60.547,-120.117,0.000
1673144865.631,-51.758,-1000.000,-48.828,-63.965,0.000
1673144865.635,68.359,-971.680,-45.898,78.125,0.000
1673144865.639,29.785,-857.910,-45.898,37.598,0.000
1673144865.643,-105.957,-942.383,-47.363,-93.262,0.000
1673144865.646,-88.867,-1000.000,-41.992,-72.754,0.000
1673144865.650,40.527,-712.402,-31.250,64.453,0.000
1673144865.654,41.016,-638.184,-38.574,71.289,0.000
1673144865.658,-90.820,-881.348,-49.805,-73.730,0.000
1673144865.662,-112.305,-1000.000,-48.828,-98.145,0.000
1673144865.666,11.230,-732.422,-32.227,28.320,0.000
1673144865.670,87.402,-387.207,-29.785,80.078,0.000
1673144865.674,-31.250,-757.812,-50.781,-28.809,0.000
1673144865.678,-158.203,-1000.000,-60.059,-151.367,0.000
1673144865.682,70.312,-678.711,-27.832,10.254,0.000
1673144865.686,178.223,157.227,-25.391,135.742,0.000
1673144865.689,-47.363,-258.789,-56.641,-27.344,0.000
1673144865.693,-142.578,-1000.000,-62.500,-151.367,0.000
1673144865.697,-66.406,-995.117,-45.898,-84.961,0.000
1673144865.701,54.688,-490.723,-32.715,59.082,0.000
1673144865.705,46.875,-367.188,-42.969,39.062,0.000
1673144865.709,-91.797,-933.594,-54.199,-100.586,0.000
1673144865.713,-100.586,-1000.000,-46.387,-94.238,0.000
1673144865.717,34.668,-632.324,-35.645,53.223,0.000
1673144865.721,49.805,-655.273,-47.363,89.844,0.000
1673144865.725,-73.730,-981.445,-62.012,-51.758,0.000
1673144865.729,-96.191,-1000.000,-49.805,-121.094,0.000
1673144865.732,19.531,-932.129,-39.062,-2.441,0.000
1673144865.736,81.543,-737.793,-38.574,81.055,0.000
1673144865.740,-73.242,-836.426,-46.875,-52.246,0.000
1673144865.744,-185.547,-1000.000,-44.434,-167.480,0.000
1673144865.748,55.664,-695.312,-27.344,48.340,0.000
1673144865.752,190.918,-71.289,-36.621,192.871,0.000
1673144865.756,-45.898,-461.426,-59.082,-33.203,0.000
1673144865.760,-223.145,-1000.000,-62.988,-205.078,0.000
1673144865.764,-24.414,-966.797,-42.480,-26.855,0.000
1673144865.768,188.477,-537.598,-31.250,184.082,0.000
1673144865.771,32.715,-554.688,-51.758,37.598,0.000
1673144865.775,-226.074,-969.238,-58.105,-184.082,0.000
1673144865.779,-123.047,-1000.000,-38.086,-96.191,0.000
1673144865.783,166.992,-921.387,-33.203,122.559,0.000
1673144865.787,118.652,-570.801,-39.551,92.285,0.000
1673144865.791,-176.270,-769.043,-55.176,-139.648,0.000
1673144865.795,-187.988,-1000.000,-52.734,-150.879,0.000
1673144865.799,83.496,-680.664,-28.320,89.844,0.000
1673144865.803,130.371,47.852,-34.180,142.090,0.000
1673144865.807,-77.637,-428.711,-59.570,-52.734,0.000
1673144865.811,-146.484,-1000.000,-62.012,-136.230,0.000
1673144865.814,-55.176,-999.023,-51.758,-41.016,0.000
1673144865.818,47.852,-787.109,-41.504,56.641,0.000
1673144865.822,18.555,-762.695,-53.223,8.301,0.000
1673144865.826,-107.910,-1000.000,-64.453,-105.957,0.000
1673144865.830,-77.148,-1000.000,-51.758,-87.402,0.000
1673144865.834,56.152,-557.617,-38.574,49.805,0.000
1673144865.838,41.016,-351.562,-48.828,55.176,0.000
1673144865.842,-70.312,-859.375,-57.617,-96.191,0.000
1673144865.846,-83.008,-1000.000,-50.293,-108.398,0.000
1673144865.850,34.180,-677.246,-43.457,25.391,0.000
1673144865.853,68.848,-348.145,-48.828,57.617,0.000
1673144865.857,-57.129,-803.711,-62.988,-59.570,0.000
1673144865.861,-111.328,-1000.000,-58.594,-115.723,0.000
1673144865.865,-9.766,-851.074,-43.457,-2.441,0.000
1673144865.869,57.617,-491.699,-50.781,91.309,0.000
1673144865.873,-9.766,-787.598,-68.848,2.930,0.000
1673144865.877,-120.117,-1000.000,-57.617,-98.633,0.000
1673144865.881,-70.801,-931.641,-42.969,-42.969,0.000
1673144865.885,57.617,-556.641,-46.875,71.289,0.000
1673144865.889,21.484,-636.719,-55.664,41.992,0.000
1673144865.893,-108.887,-981.445,-59.082,-88.867,0.000
1673144865.896,-95.703,-980.957,-51.270,-67.383,0.000
1673144865.900,36.621,-705.078,-43.945,83.008,0.000
1673144865.904,53.223,-672.852,-47.852,90.820,0.000
1673144865.908,-69.824,-928.711,-61.523,-75.684,0.000
1673144865.912,-94.727,-1000.000,-60.547,-113.770,0.000
1673144865.916,18.066,-911.621,-47.852,9.277,0.000
1673144865.920,96.680,-922.363,-50.781,83.008,0.000
1673144865.924,-95.215,-893.555,-63.965,-89.844,0.000
1673144865.928,-248.535,-1000.000,-66.406,-215.820,0.000
1673144865.932,137.207,-703.613,-32.227,98.145,0.000
1673144865.936,288.086,277.832,-30.273,224.609,0.000
1673144865.939,-153.809,-293.945,-68.848,-118.164,0.000
1673144865.943,-354.980,-1000.000,-73.242,-297.363,0.000
1673144865.947,44.434,-860.352,-39.062,6.836,0.000
1673144865.951,315.918,276.855,-27.832,259.277,0.000
1673144865.955,-33.203,-85.449,-63.477,2.441,0.000
1673144865.959,-362.793,-1000.000,-79.590,-299.805,0.000
1673144865.963,-85.449,-1000.000,-47.363,-94.727,0.000
1673144865.967,320.312,-142.090,-15.625,241.699,0.000
1673144865.971,140.137,427.246,-41.504,99.609,0.000
1673144865.975,-300.781,-766.113,-78.125,-256.348,0.000
1673144865.978,-214.844,-1000.000,-54.199,-200.684,0.000
1673144865.982,231.445,0.488,-19.043,168.945,0.000
1673144865.986,240.234,629.883,-44.922,195.801,0.000
1673144865.990,-234.375,-638.184,-83.008,-168.945,0.000
1673144865.994,-332.031,-1000.000,-60.059,-251.465,0.000
1673144865.998,122.559,-426.270,-20.996,119.629,0.000
1673144866.002,283.691,254.395,-40.527,235.352,0.000
1673144866.006,-129.395,-557.617,-83.496,-95.215,0.000
1673144866.010,-367.676,-1000.000,-89.844,-278.320,0.000
1673144866.014,9.277,-850.098,-44.434,-8.301,0.000
1673144866.018,315.430,376.465,-31.738,229.980,0.000
1673144866.021,11.230,170.898,-74.707,15.625,0.000
1673144866.025,-346.680,-1000.000,-86.426,-283.203,0.000
1673144866.029,-132.812,-991.211,-50.781,-130.371,0.000
1673144866.033,271.973,227.051,-30.762,216.309,0.000
1673144866.037,130.859,327.637,-63.965,122.559,0.000
1673144866.041,-308.594,-886.719,-85.938,-232.910,0.000
1673144866.045,-232.422,-1000.000,-59.570,-182.617,0.000
1673144866.049,219.238,-426.758,-30.273,153.320,0.000
1673144866.053,258.789,-78.613,-47.852,188.477,0.000
1673144866.057,-204.102,-865.234,-69.824,-159.668,0.000
1673144866.060,-342.773,-1000.000,-56.152,-261.719,0.000
1673144866.064,99.609,-573.242,-27.344,91.797,0.000
1673144866.068,301.270,262.695,-27.832,250.488,0.000
1673144866.072,-93.262,-169.922,-61.035,-51.758,0.000
1673144866.076,-362.305,-1000.000,-71.777,-301.270,0.000
1673144866.080,-22.461,-962.402,-37.598,-58.594,0.000
1673144866.084,299.316,64.941,-24.902,234.863,0.000
1673144866.088,47.852,228.516,-53.711,72.266,0.000
1673144866.092,-266.113,-863.281,-64.941,-195.312,0.000
1673144866.096,-156.250,-1000.000,-54.688,-144.043,0.000
1673144866.100,124.512,-902.832,-40.527,89.355,0.000
1673144866.103,102.539,-588.867,-35.645,104.004,0.000
1673144866.107,-161.133,-843.750,-59.082,-121.582,0.000
1673144866.111,-163.574,-1000.000,-59.082,-178.223,0.000
1673144866.115,101.074,-580.078,-29.785,44.922,0.000
1673144866.119,162.598,104.004,-26.367,145.508,0.000
1673144866.123,-89.844,-398.438,-55.176,-62.500,0.000
1673144866.127,-245.117,-1000.000,-61.035,-206.543,0.000
1673144866.131,51.758,-687.012,-23.438,40.527,0.000
1673144866.135,307.129,497.070,-15.625,244.629,0.000
1673144866.139,-40.039,5.371,-56.641,-28.809,0.000
1673144866.143,-354.492,-1000.000,-83.008,-288.574,0.000
1673144866.146,-47.363,-992.676,-45.410,-63.477,0.000
1673144866.150,328.125,212.891,-18.555,223.145,0.000
1673144866.154,97.656,386.719,-58.105,65.918,0.000
1673144866.158,-324.219,-882.324,-86.914,-266.602,0.000
1673144866.162,-188.965,-1000.000,-46.875,-182.129,0.000
1673144866.166,240.234,34.180,-13.184,189.941,0.000
1673144866.170,186.523,541.504,-40.039,183.594,0.000
1673144866.174,-266.113,-711.426,-82.520,-176.270,0.000
1673144866.178,-297.852,-1000.000,-58.105,-243.164,0.000
1673144866.182,167.969,-283.203,-15.137,112.305,0.000
1673144866.185,286.621,495.605,-33.203,236.328,0.000
1673144866.189,-146.973,-604.004,-79.590,-74.707,0.000
1673144866.193,-342.285,-1000.000,-70.801,-255.371,0.000
1673144866.197,50.781,-725.586,-32.715,-2.441,0.000
1673144866.201,316.406,32.715,-27.832,227.539,0.000
1673144866.205,-17.090,-326.172,-60.059,-20.996,0.000
1673144866.209,-349.121,-1000.000,-77.637,-309.082,0.000
1673144866.213,-88.379,-986.816,-46.387,-113.281,0.000
1673144866.217,291.992,-208.984,-24.414,214.844,0.000
1673144866.221,114.746,-44.434,-49.805,95.215,0.000
1673144866.225,-302.246,-871.582,-74.707,-258.789,0.000
1673144866.228,-206.055,-1000.000,-49.805,-211.426,0.000
1673144866.232,248.047,-365.723,-21.973,166.016,0.000
1673144866.236,226.562,48.828,-37.109,205.078,0.000
1673144866.240,-255.371,-734.375,-63.477,-166.992,0.000
1673144866.244,-317.383,-1000.000,-53.223,-262.695,0.000
1673144866.248,140.625,-864.258,-23.926,81.543,0.000
1673144866.252,299.805,303.223,-21.973,227.539,0.000
1673144866.256,-116.699,-128.418,-58.594,-88.379,0.000
1673144866.260,-362.793,-1000.000,-63.965,-297.363,0.000
1673144866.264,1.465,-937.988,-32.227,-17.090,0.000
1673144866.268,311.523,132.324,-16.113,257.324,0.000
1673144866.271,10.742,-0.977,-46.387,40.039,0.000
1673144866.275,-337.891,-1000.000,-67.871,-264.648,0.000
1673144866.279,-90.820,-983.887,-30.273,-76.660,0.000
1673144866.283,287.109,-214.355,-8.301,239.746,0.000
1673144866.287,130.371,52.246,-38.574,143.555,0.000
1673144866.291,-302.246,-813.477,-69.336,-206.543,0.000
1673144866.295,-244.629,-1000.000,-49.316,-217.285,0.000
1673144866.299,212.402,-93.750,-12.695,145.996,0.000
1673144866.303,242.676,681.152,-33.691,218.750,0.000
1673144866.307,-219.727,-536.621,-76.660,-135.742,0.000
1673144866.310,-338.379,-1000.000,-61.523,-269.531,0.000
1673144866.314,96.191,-439.453,-18.066,70.312,0.000
1673144866.318,293.945,638.184,-21.484,248.047,0.000
1673144866.322,-98.633,-215.332,-58.594,-36.133,0.000
1673144866.326,-364.258,-1000.000,-68.359,-286.133,0.000
1673144866.330,-16.602,-903.320,-29.785,-59.082,0.000
1673144866.334,303.711,41.992,-18.555,250.488,0.000
1673144866.338,35.156,-160.156,-57.617,68.848,0.000
1673144866.342,-347.168,-1000.000,-71.777,-282.715,0.000
1673144866.346,-155.762,-987.793,-35.645,-159.180,0.000
1673144866.350,273.438,76.172,-12.695,202.148,0.000
1673144866.353,164.062,-48.828,-44.922,141.113,0.000
1673144866.357,-283.691,-1000.000,-72.266,-224.609,0.000
1673144866.361,-259.277,-1000.000,-56.641,-229.492,0.000
1673144866.365,196.289,-323.730,-24.902,149.414,0.000
1673144866.369,260.254,338.379,-34.668,225.098,0.000
1673144866.373,-187.012,-502.930,-74.707,-124.023,0.000
1673144866.377,-299.805,-1000.000,-66.895,-246.094,0.000
1673144866.381,103.027,-816.406,-27.344,53.223,0.000
1673144866.385,307.617,-97.168,-23.438,266.113,0.000
1673144866.389,-60.547,-417.480,-61.523,0.000,0.000
1673144866.392,-367.676,-1000.000,-72.266,-291.992,0.000
1673144866.396,-67.871,-1000.000,-39.062,-76.660,0.000
1673144866.400,285.645,-378.906,-15.137,232.422,0.000
1673144866.404,70.312,195.801,-42.480,80.078,0.000
1673144866.408,-327.637,-818.359,-73.242,-257.324,0.000
1673144866.412,-172.363,-1000.000,-46.875,-161.621,0.000
1673144866.416,266.602,-14.160,-15.625,226.074,0.000
1673144866.420,182.129,551.758,-39.062,192.383,0.000
1673144866.424,-270.020,-688.477,-78.613,-208.984,0.000
1673144866.428,-280.762,-1000.000,-66.895,-250.000,0.000
1673144866.432,171.875,-256.348,-24.414,117.676,0.000
1673144866.435,282.227,497.559,-34.180,223.633,0.000
1673144866.439,-165.527,-538.086,-76.172,-113.281,0.000
1673144866.443,-362.305,-1000.000,-79.102,-287.598,0.000
1673144866.447,44.922,-671.387,-30.762,15.625,0.000
1673144866.451,314.941,504.395,-25.391,259.277,0.000
1673144866.455,-10.254,118.164,-68.848,3.418,0.000
1673144866.459,-327.148,-1000.000,-72.266,-267.578,0.000
1673144866.463,-69.824,-921.875,-33.203,-64.941,0.000
1673144866.467,292.480,268.066,-19.531,219.727,0.000
1673144866.471,102.539,151.367,-53.223,86.914,0.000
1673144866.474,-315.918,-944.336,-72.754,-252.930,0.000
1673144866.478,-210.449,-1000.000,-45.410,-198.242,0.000
1673144866.482,242.676,-336.426,-15.625,178.711,0.000
1673144866.486,211.426,208.496,-40.039,199.219,0.000
1673144866.490,-252.441,-739.258,-78.125,-168.457,0.000
1673144866.494,-312.988,-1000.000,-61.523,-254.395,0.000
1673144866.498,125.000,-394.043,-24.414,93.262,0.000
1673144866.502,276.367,435.059,-32.715,240.234,0.000
1673144866.506,-125.977,-365.234,-69.824,-83.008,0.000
1673144866.510,-354.492,-1000.000,-67.871,-320.312,0.000
1673144866.514,16.113,-713.867,-30.273,-42.969,0.000
1673144866.517,319.336,13.672,-30.762,234.375,0.000
1673144866.521,10.742,-301.758,-63.965,20.020,0.000
1673144866.525,-344.727,-986.328,-76.172,-283.203,0.000
1673144866.529,-98.145,-983.398,-45.898,-107.422,0.000
1673144866.533,296.387,-391.113,-25.879,246.582,0.000
1673144866.537,122.559,-55.176,-48.828,143.555,0.000
1673144866.541,-307.129,-739.746,-70.801,-233.398,0.000
1673144866.545,-228.516,-1000.000,-53.223,-214.844,0.000
1673144866.549,224.121,-552.734,-27.832,140.137,0.000
1673144866.553,247.070,358.398,-41.992,194.336,0.000
1673144866.557,-224.609,-498.047,-74.219,-152.832,0.000
1673144866.560,-341.309,-1000.000,-63.477,-260.742,0.000
1673144866.564,115.723,-688.965,-24.902,93.262,0.000
1673144866.568,310.547,161.621,-22.949,256.348,0.000
1673144866.572,-85.449,-248.535,-60.547,-43.457,0.000
1673144866.576,-359.375,-1000.000,-72.754,-267.578,0.000
1673144866.580,-24.902,-938.965,-39.551,-34.668,0.000
1673144866.584,301.270,327.148,-16.113,243.652,0.000
1673144866.588,30.273,350.586,-54.199,39.551,0.000
1673144866.592,-346.191,-927.734,-82.031,-286.621,0.000
1673144866.596,-132.324,-1000.000,-47.363,-159.668,0.000
1673144866.599,312.500,124.023,-18.555,187.500,0.000
1673144866.603,181.152,480.469,-49.316,137.695,0.000
1673144866.607,-310.547,-760.254,-78.613,-230.469,0.000
1673144866.611,-283.203,-1000.000,-50.781,-239.258,0.000
1673144866.615,186.523,-353.516,-16.113,134.277,0.000
1673144866.619,238.281,576.172,-39.551,213.379,0.000
1673144866.623,-211.914,-504.395,-86.914,-108.398,0.000
1673144866.627,-339.844,-1000.000,-65.918,-259.277,0.000
1673144866.631,83.008,-546.387,-18.555,32.227,0.000
1673144866.635,287.109,500.488,-24.414,242.676,0.000
1673144866.639,-77.637,-282.227,-67.383,-38.574,0.000
1673144866.642,-361.328,-1000.000,-70.801,-291.504,0.000
1673144866.646,-51.758,-824.707,-33.691,-53.711,0.000
1673144866.650,295.898,212.402,-21.973,246.582,0.000
1673144866.654,42.969,-9.766,-58.594,68.848,0.000
1673144866.658,-331.543,-998.535,-79.102,-243.164,0.000
1673144866.662,-179.688,-995.117,-46.875,-159.180,0.000
1673144866.666,170.410,-645.020,-30.273,149.414,0.000
1673144866.670,136.230,-836.426,-48.340,148.438,0.000
1673144866.674,-145.508,-1000.000,-55.176,-112.793,0.000
1673144866.678,-178.711,-1000.000,-49.316,-172.852,0.000
1673144866.681,83.496,-844.727,-31.250,48.340,0.000
1673144866.685,181.641,-106.445,-31.250,146.973,0.000
1673144866.689,-68.848,-336.914,-54.199,-54.199,0.000
1673144866.693,-223.633,-1000.000,-60.547,-187.012,0.000
1673144866.697,17.090,-963.379,-37.109,-7.812,0.000
1673144866.701,206.055,-165.527,-25.879,158.691,0.000
1673144866.705,-3.906,-401.367,-49.805,34.180,0.000
1673144866.709,-230.469,-1000.000,-66.406,-171.387,0.000
1673144866.713,-76.172,-1000.000,-50.293,-66.895,0.000
1673144866.717,185.059,-638.184,-24.902,161.133,0.000
1673144866.721,85.938,-144.531,-35.156,90.332,0.000
1673144866.724,-195.801,-777.344,-58.594,-148.926,0.000
1673144866.728,-139.648,-1000.000,-42.480,-140.137,0.000
1673144866.732,140.137,-423.340,-13.672,102.539,0.000
1673144866.736,136.719,133.301,-28.809,146.973,0.000
1673144866.740,-147.949,-593.750,-59.082,-92.773,0.000
1673144866.744,-218.262,-1000.000,-52.734,-178.711,0.000
1673144866.748,53.711,-643.066,-27.832,27.344,0.000
1673144866.752,180.664,-245.605,-33.203,156.250,0.000
1673144866.756,-55.176,-737.793,-60.059,-18.066,0.000
1673144866.760,-224.609,-1000.000,-68.359,-181.152,0.000
1673144866.764,-18.555,-938.965,-34.180,-28.809,0.000
1673144866.767,186.523,-80.566,-20.020,142.090,0.000
1673144866.771,29.297,-200.195,-46.387,25.391,0.000
1673144866.775,-207.520,-1000.000,-59.570,-185.547,0.000
1673144866.779,-104.004,-1000.000,-40.527,-98.145,0.000
1673144866.783,162.109,-203.613,-21.973,141.602,0.000
1673144866.787,107.910,-141.113,-35.645,96.191,0.000
1673144866.791,-172.852,-937.012,-46.875,-136.230,0.000
1673144866.795,-150.391,-1000.000,-33.691,-131.348,0.000
1673144866.799,126.465,-742.676,-19.043,74.707,0.000
1673144866.803,162.109,-509.766,-28.809,129.395,0.000
1673144866.806,-138.184,-914.551,-47.363,-78.613,0.000
1673144866.810,-291.016,-1000.000,-41.504,-241.211,0.000
1673144866.814,109.375,-560.059,-12.695,36.133,0.000
1673144866.818,314.453,269.043,-19.531,240.234,0.000
1673144866.822,-89.844,-221.191,-56.641,-70.801,0.000
1673144866.826,-344.727,-1000.000,-62.500,-305.176,0.000
1673144866.830,0.000,-995.605,-29.785,-19.531,0.000
1673144866.834,308.594,38.574,-14.160,259.766,0.000
1673144866.838,25.391,197.754,-47.852,60.059,0.000
1673144866.842,-350.098,-854.980,-64.453,-268.066,0.000
1673144866.846,-154.785,-1000.000,-34.668,-140.625,0.000
1673144866.849,261.719,-755.371,-14.160,215.820,0.000
1673144866.853,140.625,-42.969,-34.180,135.254,0.000
1673144866.857,-304.688,-721.680,-63.965,-219.727,0.000
1673144866.861,-257.324,-1000.000,-42.480,-218.750,0.000
1673144866.865,137.207,-436.035,-9.766,110.352,0.000
1673144866.869,173.828,268.555,-20.020,160.645,0.000
1673144866.873,-107.422,-359.863,-46.387,-84.473,0.000
1673144866.877,-198.730,-1000.000,-48.340,-191.895,0.000
1673144866.881,46.875,-800.781,-24.414,-17.090,0.000
1673144866.885,195.312,-159.180,-16.602,128.418,0.000
1673144866.888,-6.836,-419.434,-34.668,-32.715,0.000
1673144866.892,-219.727,-1000.000,-45.898,-203.125,0.000
1673144866.896,-62.988,-970.703,-21.484,-76.660,0.000
1673144866.900,175.781,-184.570,-4.395,144.043,0.000
1673144866.904,66.895,-28.320,-24.414,79.590,0.000
1673144866.908,-198.730,-875.977,-46.387,-180.176,0.000
1673144866.912,-140.625,-1000.000,-26.855,-151.367,0.000
1673144866.916,144.043,-260.254,-2.441,100.586,0.000
1673144866.920,129.883,118.652,-21.484,100.586,0.000
1673144866.924,-156.250,-758.301,-44.434,-147.949,0.000
1673144866.928,-206.543,-1000.000,-31.738,-210.449,0.000
1673144866.931,114.746,-355.957,-5.859,50.781,0.000
1673144866.935,246.582,454.590,-14.160,213.867,0.000
1673144866.939,-172.363,-606.445,-45.898,-95.703,0.000
1673144866.943,-356.934,-1000.000,-42.480,-314.453,0.000
1673144866.947,63.477,-625.488,-9.766,-2.930,0.000
1673144866.951,308.594,86.914,-13.184,236.328,0.000
1673144866.955,-44.434,-601.562,-51.270,-18.066,0.000
1673144866.959,-378.906,-1000.000,-54.199,-300.781,0.000
1673144866.963,-100.586,-848.145,-21.973,-91.797,0.000
1673144866.967,277.344,137.207,-10.742,190.430,0.000
1673144866.971,79.102,257.812,-39.551,41.992,0.000
1673144866.974,-340.820,-843.262,-58.105,-275.391,0.000
1673144866.978,-215.332,-1000.000,-29.785,-193.848,0.000
1673144866.982,249.023,-286.621,-1.953,158.203,0.000
1673144866.986,211.426,127.930,-20.508,162.109,0.000
1673144866.990,-263.672,-758.789,-46.387,-187.500,0.000
1673144866.994,-316.895,-1000.000,-24.902,-277.344,0.000
1673144866.998,144.531,-944.336,4.883,59.082,0.000
1673144867.002,283.203,-67.871,4.883,208.496,0.000
1673144867.006,-133.789,-209.961,-32.715,-105.469,0.000
1673144867.010,-353.516,-1000.000,-41.016,-305.176,0.000
1673144867.013,17.578,-817.383,-1.953,-28.320,0.000
1673144867.017,319.336,527.344,9.766,209.961,0.000
1673144867.021,18.066,319.336,-24.902,-17.090,0.000
1673144867.025,-351.562,-960.449,-42.969,-295.898,0.000
1673144867.029,-128.906,-1000.000,-4.395,-148.926,0.000
1673144867.033,182.129,-468.262,12.207,107.910,0.000
1673144867.037,88.867,-273.926,-8.789,60.059,0.000
1673144867.041,-162.109,-848.145,-32.715,-165.527,0.000
1673144867.045,-149.414,-1000.000,-19.043,-161.133,0.000
1673144867.049,143.066,-373.047,22.461,87.402,0.000
1673144867.053,177.734,34.668,12.695,144.043,0.000
1673144867.056,-140.625,-748.047,-12.695,-63.965,0.000
1673144867.060,-243.164,-1000.000,-4.395,-200.195,0.000
1673144867.064,30.273,-685.059,20.020,-13.672,0.000
1673144867.068,184.570,85.938,12.695,145.996,0.000
1673144867.072,-43.945,-383.301,-20.020,-31.738,0.000
1673144867.076,-236.328,-1000.000,-20.508,-215.820,0.000
1673144867.080,-39.551,-982.910,3.906,-63.477,0.000
1673144867.084,188.477,-399.902,9.277,146.484,0.000
1673144867.088,35.645,-498.047,-15.625,39.062,0.000
1673144867.092,-221.680,-1000.000,-20.508,-201.172,0.000
1673144867.095,-126.953,-989.258,-1.953,-153.809,0.000
1673144867.099,152.832,-282.227,6.348,111.328,0.000
1673144867.103,105.469,-153.809,-12.695,97.168,0.000
1673144867.107,-190.430,-877.441,-33.691,-178.223,0.000
1673144867.111,-206.543,-1000.000,-18.555,-206.543,0.000
1673144867.115,83.984,-572.266,5.859,30.762,0.000
1673144867.119,155.762,-137.695,-1.953,114.258,0.000
1673144867.123,-110.352,-562.012,-22.461,-89.355,0.000
1673144867.127,-230.957,-1000.000,-20.996,-208.984,0.000
1673144867.131,17.578,-935.547,0.977,-2.441,0.000
1673144867.135,189.453,-910.156,3.906,194.336,0.000
1673144867.138,-20.996,-888.184,-15.137,23.438,0.000
1673144867.142,-225.586,-976.074,-27.344,-176.270,0.000
1673144867.146,-49.316,-1000.000,-12.207,-48.340,0.000
1673144867.150,197.266,-227.539,4.395,153.320,0.000
1673144867.154,98.633,100.586,-18.066,85.938,0.000
1673144867.158,-195.801,-814.453,-43.457,-163.574,0.000
1673144867.162,-158.203,-1000.000,-24.902,-143.555,0.000
1673144867.166,226.562,-185.059,8.301,193.359,0.000
1673144867.170,182.617,445.801,-11.719,179.688,0.000
1673144867.174,-269.043,-655.273,-48.340,-191.895,0.000
1673144867.178,-291.504,-1000.000,-33.691,-213.867,0.000
1673144867.181,173.828,-434.570,12.695,154.297,0.000
1673144867.185,279.297,647.461,5.859,245.605,0.000
1673144867.189,-163.086,-230.957,-38.086,-105.957,0.000
1673144867.193,-341.797,-1000.000,-36.133,-280.273,0.000
1673144867.197,61.035,-634.277,10.254,32.227,0.000
1673144867.201,301.758,596.191,15.625,257.812,0.000
1673144867.205,-24.414,166.016,-27.344,7.324,0.000
1673144867.209,-260.254,-1000.000,-35.645,-222.656,0.000
1673144867.213,-74.707,-986.328,-5.371,-62.500,0.000
1673144867.217,161.621,-282.227,4.883,158.691,0.000
1673144867.220,48.828,-415.039,-22.949,73.242,0.000
1673144867.224,-225.586,-991.211,-42.480,-146.484,0.000
1673144867.228,-170.410,-1000.000,-14.648,-140.625,0.000
1673144867.232,124.512,-670.410,1.953,101.562,0.000
1673144867.236,161.133,-288.086,-13.672,159.180,0.000
1673144867.240,-148.438,-811.035,-35.645,-97.168,0.000
1673144867.244,-265.137,-1000.000,-32.227,-217.285,0.000
1673144867.248,149.414,-405.762,0.000,94.238,0.000
1673144867.252,307.129,373.535,-8.789,255.859,0.000
1673144867.256,-128.906,-474.121,-43.457,-90.820,0.000
1673144867.260,-348.633,-1000.000,-42.969,-318.359,0.000
1673144867.263,31.738,-664.062,-12.695,-38.086,0.000
1673144867.267,312.012,96.680,-6.348,220.703,0.000
1673144867.271,-5.371,-348.145,-33.203,27.344,0.000
1673144867.275,-350.098,-1000.000,-48.340,-276.367,0.000
1673144867.279,-114.258,-1000.000,-23.438,-132.812,0.000
1673144867.283,299.805,-217.773,-5.859,205.566,0.000
1673144867.287,141.602,277.832,-24.902,102.539,0.000
1673144867.291,-319.336,-697.266,-48.340,-239.258,0.000
1673144867.295,-242.676,-1000.000,-31.738,-208.496,0.000
1673144867.299,227.051,-436.035,1.465,145.020,0.000
1673144867.303,231.934,497.559,-8.301,172.852,0.000
1673144867.306,-226.562,-473.145,-47.363,-166.992,0.000
1673144867.310,-303.711,-1000.000,-41.992,-247.070,0.000
1673144867.314,134.277,-690.918,-2.441,67.871,0.000
1673144867.318,281.738,291.992,-0.977,227.051,0.000
1673144867.322,-95.703,-174.316,-41.504,-54.688,0.000
1673144867.326,-290.527,-1000.000,-47.363,-237.305,0.000
1673144867.330,-58.594,-934.570,-15.137,-55.176,0.000
1673144867.334,173.828,-267.090,-8.789,110.840,0.000
1673144867.338,46.387,-82.031,-28.809,10.254,0.000
1673144867.342,-214.355,-858.398,-49.805,-198.730,0.000
1673144867.345,-138.184,-1000.000,-30.273,-139.648,0.000
1673144867.349,144.043,-273.438,-6.348,107.910,0.000
1673144867.353,107.910,158.203,-23.438,98.145,0.000
1673144867.357,-178.223,-730.957,-51.270,-134.766,0.000
1673144867.361,-177.734,-1000.000,-41.504,-187.012,0.000
1673144867.365,104.004,-600.586,-13.672,33.203,0.000
1673144867.369,156.250,85.449,-21.484,135.742,0.000
1673144867.373,-106.445,-590.332,-51.758,-74.707,0.000
1673144867.377,-222.656,-1000.000,-44.922,-211.426,0.000
1673144867.381,21.484,-700.684,-15.625,-11.230,0.000
1673144867.385,194.336,18.555,-19.043,158.691,0.000
1673144867.388,-12.695,-595.215,-51.758,2.930,0.000
1673144867.392,-229.004,-1000.000,-44.922,-202.148,0.000
1673144867.396,-57.129,-854.492,-24.902,-66.406,0.000
1673144867.400,187.988,-105.469,-20.508,157.227,0.000
1673144867.404,81.055,-231.445,-35.645,67.383,0.000
1673144867.408,-192.383,-961.914,-51.758,-132.324,0.000
1673144867.412,-136.230,-1000.000,-32.715,-95.215,0.000
1673144867.416,152.344,-644.043,-13.672,110.352,0.000
1673144867.420,126.465,-538.574,-24.414,128.906,0.000
1673144867.424,-157.227,-911.133,-42.480,-95.703,0.000
1673144867.427,-186.035,-1000.000,-35.156,-149.414,0.000
1673144867.431,87.891,-808.105,-13.184,75.195,0.000
1673144867.435,173.828,-536.133,-7.812,185.547,0.000
1673144867.439,-89.355,-578.613,-27.344,-23.926,0.000
1673144867.443,-208.496,-1000.000,-33.691,-177.734,0.000
1673144867.447,4.883,-986.328,-20.996,-13.672,0.000
1673144867.451,122.070,-478.027,-18.555,122.070,0.000
1673144867.455,41.504,-567.383,-20.996,64.453,0.000
1673144867.459,-74.219,-1000.000,-30.762,-62.500,0.000
1673144867.463,-73.242,-1000.000,-32.227,-37.109,0.000
1673144867.467,38.086,-541.992,-16.113,111.816,0.000
1673144867.470,55.664,-208.496,-21.973,109.375,0.000
1673144867.474,-51.758,-638.184,-41.504,-35.645,0.000
1673144867.478,-86.426,-1000.000,-45.410,-95.215,0.000
1673144867.482,24.902,-753.906,-22.949,13.184,0.000
1673144867.486,73.730,-309.082,-20.996,78.613,0.000
1673144867.490,-31.250,-540.039,-38.086,-14.160,0.000
1673144867.494,-111.328,-1000.000,-34.180,-113.770,0.000
1673144867.498,-21.484,-923.828,-21.484,-34.668,0.000
1673144867.502,70.312,-684.570,-20.996,73.730,0.000
1673144867.506,0.000,-794.922,-31.738,-1.465,0.000
1673144867.510,-106.445,-1000.000,-41.016,-104.980,0.000
1673144867.513,-67.383,-1000.000,-28.320,-59.082,0.000
1673144867.517,55.664,-538.086,-19.531,34.668,0.000
1673144867.521,44.922,-412.109,-35.645,6.348,0.000
1673144867.525,-85.938,-950.195,-38.574,-115.234,0.000
1673144867.529,-86.426,-1000.000,-22.949,-136.719,0.000
1673144867.533,36.133,-590.332,-18.555,-9.766,0.000
1673144867.537,62.012,-522.461,-29.297,34.668,0.000
1673144867.541,-53.711,-854.004,-37.598,-107.422,0.000
1673144867.545,-100.586,-998.047,-33.203,-161.621,0.000
1673144867.549,6.836,-956.055,-25.879,-27.344,0.000
1673144867.552,52.734,-851.074,-32.715,61.035,0.000
1673144867.556,-49.805,-903.809,-41.016,-21.973,0.000
1673144867.560,-123.047,-1000.000,-36.621,-119.141,0.000
1673144867.564,-38.086,-914.062,-29.785,-49.805,0.000
1673144867.568,64.941,-859.375,-31.250,76.172,0.000
1673144867.572,20.020,-757.324,-34.180,30.762,0.000
1673144867.576,-136.230,-904.297,-49.316,-145.020,0.000
1673144867.580,-41.504,-1000.000,-43.457,-84.961,0.000
1673144867.584,176.270,-407.227,-25.391,138.184,0.000
1673144867.588,41.016,-140.625,-35.645,45.410,0.000
1673144867.592,-194.824,-836.426,-52.734,-176.270,0.000
1673144867.595,-84.473,-1000.000,-42.480,-93.750,0.000
1673144867.599,183.594,-545.410,-18.555,143.066,0.000
1673144867.603,123.047,-84.473,-31.738,104.492,0.000
1673144867.607,-160.156,-795.410,-56.152,-132.324,0.000
1673144867.611,-167.480,-1000.000,-42.969,-146.484,0.000
1673144867.615,103.027,-750.977,-18.555,101.074,0.000
1673144867.619,160.645,-26.367,-18.066,170.898,0.000
1673144867.623,-91.309,-409.668,-41.992,-63.477,0.000
1673144867.627,-189.453,-1000.000,-42.969,-197.754,0.000
1673144867.631,45.410,-779.785,-12.207,8.301,0.000
1673144867.634,194.824,73.242,-13.184,166.992,0.000
1673144867.638,-3.418,-168.945,-44.434,4.395,0.000
1673144867.642,-245.117,-1000.000,-55.176,-207.520,0.000
1673144867.646,-49.316,-954.590,-21.973,-68.848,0.000
1673144867.650,292.969,309.570,1.465,215.332,0.000
1673144867.654,57.129,377.441,-39.062,52.734,0.000
1673144867.658,-343.750,-904.297,-71.777,-274.902,0.000
1673144867.662,-166.016,-1000.000,-25.391,-164.062,0.000
1673144867.666,266.602,4.395,7.812,207.520,0.000
1673144867.670,188.965,248.535,-24.414,179.199,0.000
1673144867.674,-201.660,-831.055,-45.898,-182.617,0.000
1673144867.677,-204.590,-1000.000,-34.180,-223.145,0.000
1673144867.681,92.773,-529.785,-17.578,33.691,0.000
1673144867.685,175.781,-19.531,-22.949,135.254,0.000
1673144867.689,-86.426,-771.973,-45.898,-76.172,0.000
1673144867.693,-215.332,-1000.000,-42.969,-209.473,0.000
1673144867.697,-22.461,-922.363,-24.902,-37.598,0.000
1673144867.701,87.402,-868.652,-23.926,99.121,0.000
1673144867.705,35.156,-884.277,-25.391,52.734,0.000
1673144867.709,-83.008,-978.027,-28.809,-53.711,0.000
1673144867.713,-80.566,-972.656,-30.762,-51.270,0.000
1673144867.717,50.293,-717.773,-22.461,72.754,0.000
1673144867.720,59.082,-543.945,-24.414,100.098,0.000
1673144867.724,-72.266,-857.422,-37.598,-34.668,0.000
1673144867.728,-103.516,-1000.000,-28.809,-81.055,0.000
1673144867.732,31.250,-938.965,-20.996,15.137,0.000
1673144867.736,74.707,-832.520,-26.855,47.363,0.000
1673144867.740,-37.109,-904.297,-37.109,-57.617,0.000
1673144867.744,-93.262,-993.652,-44.922,-115.234,0.000
1673144867.748,-5.859,-1000.000,-40.527,7.812,0.000
1673144867.752,76.660,-717.773,-25.391,118.652,0.000
1673144867.756,12.207,-390.625,-32.227,38.086,0.000
1673144867.759,-105.469,-893.555,-44.922,-104.004,0.000
1673144867.763,-64.941,-1000.000,-32.227,-65.918,0.000
1673144867.767,61.523,-478.027,-24.414,68.359,0.000
1673144867.771,46.875,-299.316,-37.109,41.016,0.000
1673144867.775,-82.520,-820.801,-47.852,-96.191,0.000
1673144867.779,-81.055,-1000.000,-46.875,-83.496,0.000
1673144867.783,40.527,-875.488,-37.598,42.969,0.000
1673144867.787,58.594,-783.691,-35.645,67.871,0.000
1673144867.791,-69.824,-936.523,-47.852,-42.969,0.000
1673144867.795,-118.652,-1000.000,-48.340,-84.473,0.000
1673144867.799,-2.441,-775.879,-26.367,44.922,0.000
1673144867.802,65.918,-291.992,-29.297,93.750,0.000
1673144867.806,-23.926,-532.227,-51.270,-14.160,0.000
1673144867.810,-105.469,-1000.000,-48.340,-92.773,0.000
1673144867.814,-33.691,-938.965,-32.715,-1.953,0.000
1673144867.818,40.039,-429.199,-29.785,118.164,0.000
1673144867.822,-8.301,-562.988,-42.480,46.875,0.000
1673144867.826,-99.121,-1000.000,-48.828,-94.727,0.000
1673144867.830,-79.102,-1000.000,-43.457,-71.289,0.000
1673144867.834,37.598,-943.359,-37.109,73.242,0.000
1673144867.838,48.828,-938.477,-41.992,88.379,0.000
1673144867.841,-74.707,-1000.000,-41.504,-54.688,0.000
1673144867.845,-87.891,-984.863,-35.645,-71.777,0.000
1673144867.849,44.434,-676.270,-29.785,64.941,0.000
1673144867.853,60.547,-669.922,-37.598,91.797,0.000
1673144867.857,-74.219,-799.805,-50.781,-36.621,0.000
1673144867.861,-117.676,-947.754,-43.945,-100.586,0.000
1673144867.865,3.906,-934.082,-31.250,22.461,0.000
1673144867.869,67.871,-722.168,-27.344,132.324,0.000
1673144867.873,-19.043,-665.039,-38.086,16.602,0.000
1673144867.877,-95.215,-946.289,-45.410,-123.535,0.000
1673144867.881,-24.414,-1000.000,-37.598,-50.293,0.000
1673144867.884,65.918,-971.680,-35.156,76.172,0.000
1673144867.888,14.648,-893.066,-33.691,28.809,0.000
1673144867.892,-94.238,-964.844,-37.598,-101.562,0.000
1673144867.896,-83.008,-1000.000,-37.109,-89.844,0.000
1673144867.900,39.062,-610.840,-27.344,49.805,0.000
1673144867.904,44.922,-305.176,-36.133,66.895,0.000
1673144867.908,-71.289,-796.875,-49.316,-79.590,0.000
1673144867.912,-85.449,-1000.000,-45.410,-107.422,0.000
1673144867.916,34.668,-699.219,-27.344,20.508,0.000
1673144867.920,75.684,-346.680,-26.855,57.617,0.000
1673144867.924,-59.570,-776.855,-51.758,-57.129,0.000
1673144867.927,-159.180,-1000.000,-54.688,-154.785,0.000
1673144867.931,51.758,-636.230,-18.555,24.902,0.000
1673144867.935,159.668,142.090,-18.555,139.648,0.000
1673144867.939,-107.910,-370.605,-52.734,-72.266,0.000
1673144867.943,-228.516,-1000.000,-49.805,-200.195,0.000
1673144867.947,11.719,-903.809,-18.066,3.906,0.000
1673144867.951,174.316,-238.281,-12.695,197.266,0.000
1673144867.955,-7.324,-223.145,-41.504,23.926,0.000
1673144867.959,-213.379,-978.027,-57.617,-195.801,0.000
1673144867.963,-52.734,-1000.000,-34.180,-75.195,0.000
1673144867.966,193.848,-215.332,-18.555,131.348,0.000
1673144867.970,76.172,-291.016,-39.551,68.359,0.000
1673144867.974,-209.961,-975.098,-61.035,-171.387,0.000
1673144867.978,-141.113,-1000.000,-36.133,-150.879,0.000
1673144867.982,132.324,-679.688,-20.020,84.473,0.000
1673144867.986,153.320,-308.105,-27.832,136.230,0.000
1673144867.990,-133.301,-807.617,-50.293,-109.375,0.000
1673144867.994,-257.324,-1000.000,-53.223,-245.117,0.000
1673144867.998,152.832,-296.875,-17.090,84.961,0.000
1673144868.002,302.734,361.816,-27.832,240.234,0.000
1673144868.006,-147.461,-649.902,-65.918,-92.773,0.000
1673144868.009,-350.098,-1000.000,-59.570,-277.832,0.000
1673144868.013,51.758,-655.762,-22.461,11.719,0.000
1673144868.017,323.242,81.055,-18.066,253.906,0.000
1673144868.021,-15.625,-454.102,-49.316,25.879,0.000
1673144868.025,-355.957,-1000.000,-60.547,-265.137,0.000
1673144868.029,-84.961,-923.340,-30.273,-83.496,0.000
1673144868.033,306.641,-324.707,-14.648,240.723,0.000
1673144868.037,123.535,-86.914,-36.133,104.492,0.000
1673144868.041,-305.176,-799.805,-57.617,-244.141,0.000
1673144868.045,-204.590,-1000.000,-37.598,-181.152,0.000
1673144868.048,173.340,-598.633,-12.695,137.695,0.000
1673144868.052,171.875,88.867,-26.367,157.227,0.000
1673144868.056,-60.059,-451.660,-42.969,-31.738,0.000
1673144868.060,-112.793,-1000.000,-43.457,-91.309,0.000
1673144868.064,-8.301,-1000.000,-34.668,-23.438,0.000
1673144868.068,69.336,-772.461,-24.902,78.125,0.000
1673144868.072,25.391,-564.941,-30.273,27.832,0.000
1673144868.076,-90.820,-938.965,-51.270,-98.145,0.000
1673144868.080,-57.617,-1000.000,-46.387,-62.012,0.000
1673144868.084,76.172,-487.793,-20.996,68.848,0.000
1673144868.088,65.918,-274.414,-33.203,68.359,0.000
1673144868.091,-47.852,-843.262,-53.711,-64.941,0.000
1673144868.095,-62.988,-1000.000,-42.480,-91.309,0.000
1673144868.099,21.484,-605.957,-27.832,44.434,0.000
1673144868.103,27.832,-319.824,-34.668,98.145,0.000
1673144868.107,-79.102,-812.988,-50.293,-37.109,0.000
1673144868.111,-104.492,-1000.000,-49.316,-117.188,0.000
1673144868.115,19.043,-909.668,-29.297,7.324,0.000
1673144868.119,85.449,-722.656,-32.715,78.125,0.000
1673144868.123,-5.371,-837.402,-55.176,-13.672,0.000
1673144868.127,-104.004,-1000.000,-44.922,-101.074,0.000
1673144868.131,-46.387,-918.457,-32.227,-79.102,0.000
1673144868.134,59.082,-499.023,-32.227,33.691,0.000
1673144868.138,8.301,-654.785,-35.645,41.016,0.000
1673144868.142,-104.980,-1000.000,-42.480,-103.516,0.000
1673144868.146,-67.871,-968.262,-36.133,-85.938,0.000
1673144868.150,51.758,-665.039,-24.902,72.266,0.000
1673144868.154,41.504,-687.012,-32.227,58.105,0.000
1673144868.158,-73.242,-969.238,-45.410,-81.543,0.000
1673144868.162,-87.891,-994.629,-35.156,-91.309,0.000
1673144868.166,14.648,-821.777,-26.367,43.945,0.000
1673144868.170,38.574,-933.105,-34.668,97.168,0.000
1673144868.173,-68.848,-1000.000,-36.133,-31.738,0.000
1673144868.177,-108.398,-991.211,-39.551,-103.516,0.000
1673144868.181,-2.441,-990.234,-38.086,24.414,0.000
1673144868.185,68.359,-584.961,-32.227,116.211,0.000
1673144868.189,-0.977,-482.910,-38.086,14.648,0.000
1673144868.193,-87.891,-955.078,-46.387,-78.613,0.000
1673144868.197,-33.691,-1000.000,-39.551,-9.766,0.000
1673144868.201,73.730,-546.387,-31.250,95.215,0.000
1673144868.205,41.504,-643.555,-44.922,35.156,0.000
1673144868.209,-83.008,-991.211,-55.664,-110.840,0.000
1673144868.213,-72.266,-1000.000,-52.246,-89.844,0.000
1673144868.216,51.270,-755.371,-33.691,66.895,0.000
1673144868.220,54.688,-304.688,-30.273,85.938,0.000
1673144868.224,-69.824,-663.574,-48.340,-51.758,0.000
1673144868.228,-96.191,-1000.000,-49.805,-101.074,0.000
1673144868.232,20.508,-697.754,-37.598,35.156,0.000
1673144868.236,64.941,-189.941,-40.039,81.543,0.000
1673144868.240,-53.223,-485.352,-59.082,-50.293,0.000
1673144868.244,-115.723,-1000.000,-60.547,-130.859,0.000
1673144868.248,-21.973,-876.953,-43.945,-28.320,0.000
1673144868.252,55.664,-680.176,-40.527,75.684,0.000
1673144868.255,-12.695,-868.164,-49.316,17.090,0.000
1673144868.259,-114.746,-1000.000,-56.152,-84.473,0.000
1673144868.263,-65.918,-999.023,-36.133,-43.945,0.000
1673144868.267,62.500,-510.254,-24.414,96.680,0.000
1673144868.271,39.551,-424.805,-39.551,56.641,0.000
1673144868.275,-107.910,-958.008,-47.852,-100.586,0.000
1673144868.279,-102.539,-1000.000,-37.598,-88.867,0.000
1673144868.283,23.438,-677.246,-26.855,62.500,0.000
1673144868.287,36.133,-612.793,-36.133,79.102,0.000
1673144868.291,-81.055,-873.535,-43.945,-47.852,0.000
1673144868.295,-108.398,-1000.000,-40.527,-73.730,0.000
1673144868.298,4.395,-949.707,-36.133,28.320,0.000
1673144868.302,55.176,-916.992,-45.898,64.453,0.000
1673144868.306,-44.922,-969.727,-48.340,-21.484,0.000
1673144868.310,-103.027,-989.746,-37.109,-72.266,0.000
1673144868.314,-29.297,-929.199,-31.250,-20.508,0.000
1673144868.318,73.730,-776.855,-27.832,62.500,0.000
1673144868.322,16.113,-573.242,-33.203,9.277,0.000
1673144868.326,-175.293,-880.371,-48.340,-172.363,0.000
1673144868.330,-20.508,-1000.000,-35.156,-52.246,0.000
1673144868.334,208.984,-344.238,-22.461,168.945,0.000
1673144868.338,41.992,-210.938,-42.969,52.734,0.000
1673144868.341,-196.289,-876.953,-53.711,-154.297,0.000
1673144868.345,-89.355,-1000.000,-31.250,-88.867,0.000
1673144868.349,183.105,-884.277,-15.625,132.812,0.000
1673144868.353,115.234,-405.762,-23.438,108.398,0.000
1673144868.357,-169.434,-789.551,-44.922,-102.539,0.000
1673144868.361,-158.691,-1000.000,-35.156,-124.023,0.000
1673144868.365,123.047,-539.551,-2.930,90.332,0.000
1673144868.369,169.434,154.785,-13.672,155.762,0.000
1673144868.373,-115.723,-466.309,-43.945,-66.406,0.000
1673144868.377,-225.098,-1000.000,-42.480,-176.758,0.000
1673144868.380,31.250,-719.727,-15.137,12.207,0.000
1673144868.384,192.383,143.066,-18.555,159.668,0.000
1673144868.388,-52.734,-182.129,-48.340,6.348,0.000
1673144868.392,-266.602,-992.676,-58.594,-190.918,0.000
1673144868.396,-61.035,-1000.000,-33.691,-61.035,0.000
1673144868.400,173.340,-278.809,-13.672,172.363,0.000
1673144868.404,34.668,-22.461,-35.645,68.359,0.000
1673144868.408,-143.066,-858.887,-57.129,-128.418,0.000
1673144868.412,-112.305,-1000.000,-42.480,-105.469,0.000
1673144868.416,4.883,-635.742,-28.809,23.926,0.000
1673144868.420,38.086,-384.766,-37.598,49.316,0.000
1673144868.423,-69.336,-833.496,-51.758,-57.617,0.000
1673144868.427,-116.211,-1000.000,-50.293,-100.098,0.000
1673144868.431,-6.836,-825.684,-36.133,20.020,0.000
1673144868.435,45.898,-516.113,-35.156,89.355,0.000
1673144868.439,-45.410,-870.117,-51.758,-14.160,0.000
1673144868.443,-114.746,-1000.000,-48.340,-123.535,0.000
1673144868.447,-45.410,-961.914,-37.109,-59.570,0.000
1673144868.451,73.242,-889.648,-36.621,76.172,0.000
1673144868.455,26.367,-893.066,-42.969,34.180,0.000
1673144868.459,-189.941,-1000.000,-55.664,-145.996,0.000
1673144868.462,-87.891,-908.691,-41.992,-87.402,0.000
1673144868.466,173.340,-381.348,-32.715,126.953,0.000
1673144868.470,55.176,-624.512,-50.781,76.660,0.000
1673144868.474,-198.242,-995.605,-62.500,-166.504,0.000
1673144868.478,-131.836,-1000.000,-45.410,-133.789,0.000
1673144868.482,131.348,-601.074,-27.344,115.723,0.000
1673144868.486,88.867,-497.070,-41.504,74.219,0.000
1673144868.490,-162.109,-901.855,-55.176,-139.160,0.000
1673144868.494,-180.664,-1000.000,-44.922,-174.805,0.000
1673144868.498,83.496,-935.059,-30.762,32.715,0.000
1673144868.502,178.711,-171.387,-25.879,145.020,0.000
1673144868.505,-82.031,-392.578,-45.898,-50.293,0.000
1673144868.509,-225.098,-1000.000,-57.617,-190.918,0.000
1673144868.513,0.977,-984.863,-40.039,-34.180,0.000
1673144868.517,184.570,-132.324,-22.461,145.020,0.000
1673144868.521,10.254,-51.758,-40.527,22.461,0.000
1673144868.525,-225.586,-935.547,-58.594,-169.434,0.000
1673144868.529,-94.727,-1000.000,-39.551,-76.172,0.000
1673144868.533,167.480,-483.887,-21.484,122.070,0.000
1673144868.537,76.660,-276.855,-35.645,71.289,0.000
1673144868.541,-190.918,-854.980,-56.641,-159.180,0.000
1673144868.545,-150.391,-1000.000,-38.574,-148.438,0.000
1673144868.548,131.348,-339.844,-9.277,93.262,0.000
1673144868.552,144.531,229.004,-24.902,128.418,0.000
1673144868.556,-131.836,-601.074,-54.688,-75.684,0.000
1673144868.560,-165.039,-1000.000,-42.480,-147.949,0.000
1673144868.564,92.285,-822.754,-14.160,21.973,0.000
1673144868.568,188.965,-40.039,-17.578,153.809,0.000
1673144868.572,-43.457,-391.602,-46.875,-20.996,0.000
1673144868.576,-220.703,-1000.000,-50.293,-200.684,0.000
1673144868.580,-18.555,-950.684,-23.438,-37.109,0.000
1673144868.584,187.500,-403.320,-16.602,152.832,0.000
1673144868.587,35.156,-478.027,-41.992,37.109,0.000
1673144868.591,-203.613,-1000.000,-51.758,-176.270,0.000
1673144868.595,-100.098,-990.723,-27.344,-88.867,0.000
1673144868.599,167.969,-298.340,-13.672,124.512,0.000
1673144868.603,104.492,-436.523,-37.598,87.402,0.000
1673144868.607,-178.711,-1000.000,-44.922,-150.879,0.000
1673144868.611,-154.297,-1000.000,-31.250,-165.527,0.000
1673144868.615,124.512,-515.625,-17.578,94.238,0.000
1673144868.619,140.625,-294.434,-24.414,141.602,0.000
1673144868.623,-142.090,-846.680,-44.434,-84.961,0.000
1673144868.627,-233.887,-1000.000,-41.992,-168.457,0.000
1673144868.630,20.996,-884.766,-19.043,21.484,0.000
1673144868.634,173.340,-473.145,-17.090,156.738,0.000
1673144868.638,-37.598,-651.367,-39.551,-10.742,0.000
1673144868.642,-232.422,-995.605,-42.969,-189.941,0.000
1673144868.646,-53.223,-1000.000,-23.926,-48.828,0.000
1673144868.650,185.547,-679.199,-12.695,163.574,0.000
1673144868.654,41.992,-171.875,-29.297,56.641,0.000
1673144868.658,-215.332,-832.520,-55.176,-168.457,0.000
1673144868.662,-109.863,-1000.000,-41.992,-100.098,0.000
1673144868.666,169.434,-206.543,-18.555,123.047,0.000
1673144868.669,111.816,164.551,-31.738,114.258,0.000
1673144868.673,-170.898,-759.277,-51.758,-130.371,0.000
1673144868.677,-167.480,-1000.000,-42.480,-187.500,0.000
1673144868.681,109.375,-750.000,-15.625,52.246,0.000
1673144868.685,159.180,34.180,-13.672,146.973,0.000
1673144868.689,-104.004,-371.094,-41.504,-56.641,0.000
1673144868.693,-218.750,-1000.000,-48.340,-178.711,0.000
1673144868.697,15.137,-781.738,-16.113,13.184,0.000
1673144868.701,188.477,111.328,-7.324,182.617,0.000
1673144868.705,-4.883,-129.883,-38.574,29.297,0.000
1673144868.709,-231.934,-1000.000,-54.688,-187.012,0.000
1673144868.712,-81.055,-942.871,-28.320,-79.590,0.000
1673144868.716,163.086,-133.789,-16.602,153.320,0.000
1673144868.720,47.363,-269.531,-45.898,79.102,0.000
1673144868.724,-223.145,-975.586,-61.523,-158.203,0.000
1673144868.728,-150.391,-1000.000,-40.527,-114.746,0.000
1673144868.732,129.395,-617.188,-20.508,142.578,0.000
1673144868.736,117.188,-341.309,-34.180,119.629,0.000
1673144868.740,-149.902,-859.375,-53.223,-127.441,0.000
1673144868.744,-203.613,-1000.000,-38.086,-173.340,0.000
1673144868.748,63.965,-577.637,-17.578,43.457,0.000
1673144868.752,177.246,6.836,-23.926,154.297,0.000
1673144868.755,-78.613,-514.648,-44.922,-33.691,0.000
1673144868.759,-230.469,-1000.000,-46.387,-175.293,0.000
1673144868.763,-0.977,-823.730,-23.438,-20.996,0.000
1673144868.767,177.734,-522.461,-24.902,155.762,0.000
1673144868.771,-5.859,-766.602,-42.480,34.180,0.000
1673144868.775,-232.422,-1000.000,-43.457,-191.406,0.000
1673144868.779,-90.332,-960.938,-26.855,-99.609,0.000
1673144868.783,164.062,-705.566,-20.508,138.672,0.000
1673144868.787,72.754,-623.535,-34.668,89.355,0.000
1673144868.791,-179.688,-885.254,-48.828,-150.391,0.000
1673144868.794,-147.949,-1000.000,-42.969,-135.254,0.000
1673144868.798,115.723,-727.539,-24.902,105.957,0.000
1673144868.802,121.094,-16.113,-31.250,145.020,0.000
1673144868.806,-91.309,-500.000,-49.316,-24.902,0.000
1673144868.810,-134.766,-1000.000,-47.852,-103.516,0.000
1673144868.814,-28.809,-1000.000,-36.133,-22.949,0.000
1673144868.818,62.012,-702.148,-28.320,54.199,0.000
1673144868.822,4.395,-566.406,-44.434,-23.438,0.000
1673144868.826,-110.840,-977.051,-56.152,-140.137,0.000
1673144868.830,-71.777,-1000.000,-40.039,-96.191,0.000
1673144868.834,53.223,-482.422,-21.484,57.617,0.000
1673144868.837,41.504,-234.375,-28.809,55.176,0.000
1673144868.841,-74.707,-837.402,-44.434,-84.473,0.000
1673144868.845,-75.684,-1000.000,-40.039,-103.027,0.000
1673144868.849,48.340,-583.984,-21.484,32.227,0.000
1673144868.853,63.965,-293.457,-25.879,83.984,0.000
1673144868.857,-54.199,-766.602,-46.387,-56.152,0.000
1673144868.861,-91.309,-1000.000,-42.480,-103.516,0.000
1673144868.865,9.766,-875.000,-25.879,25.391,0.000
1673144868.869,51.758,-487.305,-23.926,82.520,0.000
1673144868.873,-56.152,-764.160,-45.898,-19.043,0.000
1673144868.876,-142.578,-1000.000,-42.969,-117.676,0.000
1673144868.880,-62.012,-904.785,-28.809,-37.598,0.000
1673144868.884,59.570,-707.520,-33.691,98.145,0.000
1673144868.888,23.438,-797.852,-39.062,43.457,0.000
1673144868.892,-94.727,-1000.000,-37.109,-92.285,0.000
1673144868.896,-55.664,-961.426,-32.227,-34.180,0.000
1673144868.900,64.941,-791.992,-29.785,88.867,0.000
1673144868.904,52.734,-756.348,-34.180,58.594,0.000
1673144868.908,-75.195,-951.172,-45.898,-81.055,0.000
1673144868.912,-87.402,-989.746,-39.551,-97.656,0.000
1673144868.916,26.855,-827.148,-33.203,54.199,0.000
1673144868.919,54.688,-909.180,-44.434,87.891,0.000
1673144868.923,-56.152,-864.746,-45.898,-61.523,0.000
1673144868.927,-99.609,-947.754,-44.434,-121.582,0.000
1673144868.931,-0.977,-1000.000,-37.598,-4.883,0.000
1673144868.935,56.641,-644.043,-35.156,84.473,0.000
1673144868.939,-20.508,-483.887,-48.828,-14.160,0.000
1673144868.943,-108.398,-948.730,-55.664,-128.906,0.000
1673144868.947,-43.457,-1000.000,-44.922,-68.359,0.000
1673144868.951,60.059,-551.270,-34.180,74.707,0.000
1673144868.955,14.160,-699.707,-42.969,37.598,0.000
1673144868.959,-109.375,-1000.000,-58.105,-93.750,0.000
1673144868.962,-80.566,-1000.000,-55.176,-68.359,0.000
1673144868.966,68.848,-752.930,-32.715,44.434,0.000
1673144868.970,65.430,-301.758,-32.715,50.293,0.000
1673144868.974,-85.938,-672.363,-48.340,-79.590,0.000
1673144868.978,-103.516,-1000.000,-44.434,-102.539,0.000
1673144868.982,32.227,-695.801,-28.320,35.645,0.000
1673144868.986,68.359,-266.113,-31.250,83.008,0.000
1673144868.990,-47.363,-578.125,-47.852,-20.996,0.000
1673144868.994,-113.281,-1000.000,-44.922,-83.984,0.000
1673144868.998,-10.254,-884.766,-30.762,3.418,0.000
1673144869.001,84.961,-706.055,-33.203,84.961,0.000
1673144869.005,26.855,-838.867,-46.875,15.137,0.000
1673144869.009,-81.543,-982.910,-55.176,-95.703,0.000
1673144869.013,-50.781,-1000.000,-33.203,-58.594,0.000
1673144869.017,71.777,-687.988,-22.461,76.172,0.000
1673144869.021,46.387,-449.707,-30.273,42.969,0.000
1673144869.025,-83.984,-931.152,-37.109,-89.355,0.000
1673144869.029,-80.566,-1000.000,-32.715,-68.848,0.000
1673144869.033,47.363,-516.602,-24.414,62.012,0.000
1673144869.037,71.289,-457.031,-33.691,84.961,0.000
1673144869.041,-55.664,-901.855,-42.969,-60.547,0.000
1673144869.044,-104.492,-1000.000,-42.969,-117.188,0.000
1673144869.048,17.578,-896.973,-34.180,11.719,0.000
1673144869.052,70.312,-854.492,-39.551,57.129,0.000
1673144869.056,-41.504,-961.914,-41.504,-32.715,0.000
1673144869.060,-110.840,-990.234,-34.180,-99.609,0.000
1673144869.064,-30.762,-930.176,-33.203,-25.879,0.000
1673144869.068,64.453,-833.496,-35.645,70.801,0.000
1673144869.072,5.371,-651.367,-39.551,5.371,0.000
1673144869.076,-101.074,-862.305,-48.828,-121.582,0.000
1673144869.080,-52.734,-1000.000,-41.504,-82.520,0.000
1673144869.083,63.965,-828.125,-26.367,59.570,0.000
1673144869.087,40.039,-475.586,-31.738,41.016,0.000
1673144869.091,-75.684,-804.688,-41.016,-86.914,0.000
1673144869.095,-79.590,-1000.000,-37.598,-83.496,0.000
1673144869.099,25.879,-940.430,-30.762,36.133,0.000
1673144869.103,35.645,-647.949,-27.344,42.480,0.000
1673144869.107,-66.895,-838.867,-42.969,-93.262,0.000
1673144869.111,-97.656,-1000.000,-44.434,-139.160,0.000
1673144869.115,4.883,-796.387,-24.414,-18.066,0.000
1673144869.119,65.918,-290.039,-22.949,66.406,0.000
1673144869.123,-29.785,-504.395,-42.480,-16.602,0.000
1673144869.126,-109.863,-1000.000,-43.945,-106.445,0.000
1673144869.130,-36.133,-895.996,-24.414,-30.273,0.000
1673144869.134,54.199,-353.516,-15.625,100.098,0.000
1673144869.138,2.930,-357.910,-30.762,59.082,0.000
1673144869.142,-116.699,-927.246,-44.434,-91.309,0.000
1673144869.146,-86.426,-1000.000,-33.203,-83.496,0.000
1673144869.150,51.270,-510.254,-20.996,40.527,0.000
1673144869.154,60.547,-283.691,-31.738,40.039,0.000
1673144869.158,-80.078,-851.562,-51.270,-86.426,0.000
1673144869.162,-95.703,-1000.000,-37.598,-96.680,0.000
1673144869.166,29.785,-587.402,-21.484,39.062,0.000
1673144869.169,59.082,-326.172,-28.809,76.172,0.000
1673144869.173,-54.199,-818.848,-37.109,-35.156,0.000
1673144869.177,-113.281,-1000.000,-39.062,-89.355,0.000
1673144869.181,-13.184,-900.879,-29.297,-0.488,0.000
1673144869.185,86.426,-547.852,-26.367,91.797,0.000
1673144869.189,-19.531,-820.312,-43.457,1.953,0.000
1673144869.193,-191.406,-1000.000,-41.016,-133.301,0.000
1673144869.197,-3.418,-772.949,-17.090,0.977,0.000
1673144869.201,186.523,-294.922,-18.066,161.621,0.000
1673144869.205,-30.762,-754.883,-41.016,13.672,0.000
1673144869.208,-227.051,-1000.000,-45.410,-189.453,0.000
1673144869.212,-55.176,-906.250,-31.738,-61.035,0.000
1673144869.216,159.668,-246.582,-25.391,168.945,0.000
1673144869.220,46.387,-106.445,-39.551,74.707,0.000
1673144869.224,-213.867,-874.023,-47.852,-145.996,0.000
1673144869.228,-140.137,-1000.000,-30.273,-99.121,0.000
1673144869.232,126.953,-565.918,-16.113,118.164,0.000
1673144869.236,93.750,-450.684,-25.391,96.680,0.000
1673144869.240,-167.969,-902.832,-46.875,-141.602,0.000
1673144869.244,-205.566,-1000.000,-41.504,-179.199,0.000
1673144869.248,60.547,-990.234,-18.555,58.594,0.000
1673144869.251,152.832,-596.191,-21.484,166.504,0.000
1673144869.255,-105.469,-501.465,-45.898,-54.199,0.000
1673144869.259,-243.164,-1000.000,-53.711,-188.965,0.000
1673144869.263,-12.207,-918.457,-29.785,3.418,0.000
1673144869.267,169.434,16.113,-18.555,156.738,0.000
1673144869.271,-20.996,-128.418,-44.922,14.648,0.000
1673144869.275,-232.910,-979.980,-60.059,-198.242,0.000
1673144869.279,-62.988,-974.121,-31.250,-93.750,0.000
1673144869.283,179.199,-434.082,-12.207,133.301,0.000
1673144869.287,67.383,-306.641,-33.203,77.148,0.000
1673144869.290,-198.730,-859.863,-52.246,-151.855,0.000
1673144869.294,-151.855,-1000.000,-41.504,-126.953,0.000
1673144869.298,131.836,-481.934,-1.465,129.883,0.000
1673144869.302,145.020,143.555,-10.742,166.992,0.000
1673144869.306,-137.695,-686.523,-45.898,-93.262,0.000
1673144869.310,-203.125,-1000.000,-34.668,-195.801,0.000
1673144869.314,67.383,-581.543,-11.719,31.250,0.000
1673144869.318,204.590,153.320,-16.602,162.598,0.000
1673144869.322,-45.410,-441.406,-42.969,-32.715,0.000
1673144869.326,-230.469,-1000.000,-44.922,-197.754,0.000
1673144869.330,-10.254,-950.195,-21.484,-25.879,0.000
1673144869.333,206.055,-394.531,-13.184,184.570,0.000
1673144869.337,41.504,-481.445,-37.109,54.688,0.000
1673144869.341,-219.727,-1000.000,-49.805,-192.383,0.000
1673144869.345,-100.098,-1000.000,-31.738,-100.586,0.000
1673144869.349,173.340,-487.305,-15.137,158.203,0.000
1673144869.353,99.121,-327.637,-31.738,117.676,0.000
1673144869.357,-177.734,-906.738,-51.270,-145.508,0.000
1673144869.361,-160.645,-1000.000,-30.762,-145.020,0.000
1673144869.365,126.465,-499.512,-10.742,105.469,0.000
1673144869.369,154.297,-131.348,-20.508,131.836,0.000
1673144869.373,-134.277,-654.297,-44.434,-94.238,0.000
1673144869.376,-212.891,-1000.000,-45.410,-172.852,0.000
1673144869.380,58.594,-906.738,-26.367,20.508,0.000
1673144869.384,192.383,-918.457,-29.297,156.250,0.000
1673144869.388,-40.527,-932.617,-43.457,-7.324,0.000
1673144869.392,-227.051,-998.047,-46.875,-200.684,0.000
1673144869.396,-38.086,-1000.000,-27.832,-67.383,0.000
1673144869.400,178.223,-285.156,-13.184,151.855,0.000
1673144869.404,31.738,-243.164,-35.645,42.969,0.000
1673144869.408,-210.449,-976.074,-51.270,-179.199,0.000
1673144869.412,-104.492,-1000.000,-31.738,-99.121,0.000
1673144869.415,160.645,-227.051,-13.672,152.344,0.000
1673144869.419,111.328,108.398,-35.156,125.000,0.000
1673144869.423,-167.969,-790.039,-58.594,-142.578,0.000
1673144869.427,-187.012,-1000.000,-51.270,-177.246,0.000
1673144869.431,99.121,-604.004,-26.367,76.172,0.000
1673144869.435,163.574,168.457,-28.320,139.648,0.000
1673144869.439,-115.234,-435.059,-58.105,-95.215,0.000
1673144869.443,-224.609,-1000.000,-59.082,-207.520,0.000
1673144869.447,26.855,-762.207,-29.785,3.906,0.000
1673144869.451,189.453,86.914,-23.926,182.617,0.000
1673144869.455,-18.066,-176.758,-49.316,8.789,0.000
1673144869.458,-218.750,-1000.000,-57.129,-195.801,0.000
1673144869.462,-57.617,-925.781,-29.297,-68.848,0.000
1673144869.466,178.223,-56.152,-18.066,137.695,0.000
1673144869.470,59.570,-262.695,-49.805,56.641,0.000
1673144869.474,-205.078,-988.281,-68.848,-161.621,0.000
1673144869.478,-113.770,-1000.000,-39.062,-127.930,0.000
1673144869.482,160.645,-501.953,-21.484,113.281,0.000
1673144869.486,111.816,-11.719,-35.156,126.953,0.000
1673144869.490,-169.434,-777.832,-49.316,-118.164,0.000
1673144869.494,-187.988,-1000.000,-42.969,-153.809,0.000
1673144869.497,89.355,-496.094,-17.578,59.570,0.000
1673144869.501,156.738,14.648,-21.484,131.836,0.000
1673144869.505,-98.145,-599.609,-48.340,-62.500,0.000
1673144869.509,-221.191,-1000.000,-48.340,-190.918,0.000
1673144869.513,17.578,-808.105,-25.879,-5.371,0.000
1673144869.517,204.102,-323.730,-19.531,160.156,0.000
1673144869.521,-0.488,-620.117,-41.016,18.555,0.000
1673144869.525,-232.422,-1000.000,-49.805,-185.547,0.000
1673144869.529,-84.961,-963.379,-29.785,-84.473,0.000
1673144869.533,177.246,-619.629,-23.438,159.180,0.000
1673144869.537,83.496,-294.434,-37.109,92.773,0.000
1673144869.540,-190.430,-780.762,-51.270,-142.090,0.000
1673144869.544,-138.184,-1000.000,-44.922,-145.020,0.000
1673144869.548,145.996,-913.086,-33.691,97.168,0.000
1673144869.552,146.973,-323.730,-36.133,145.020,0.000
1673144869.556,-142.578,-629.883,-54.688,-114.746,0.000
1673144869.560,-178.223,-1000.000,-50.293,-185.059,0.000
1673144869.564,31.250,-970.703,-30.762,4.883,0.000
1673144869.568,100.098,-700.684,-29.785,98.633,0.000
1673144869.572,17.090,-659.668,-42.969,22.461,0.000
1673144869.576,-88.867,-1000.000,-47.852,-107.422,0.000
1673144869.580,-53.711,-989.746,-35.156,-83.984,0.000
1673144869.583,65.918,-471.680,-30.273,50.293,0.000
1673144869.587,41.992,-307.617,-38.086,36.621,0.000
1673144869.591,-98.145,-864.746,-48.340,-98.145,0.000
1673144869.595,-96.191,-1000.000,-39.062,-88.867,0.000
1673144869.599,34.180,-582.031,-26.367,47.852,0.000
1673144869.603,51.270,-317.383,-34.668,58.105,0.000
1673144869.607,-83.984,-808.105,-48.340,-68.359,0.000
1673144869.611,-118.164,-1000.000,-43.945,-111.816,0.000
1673144869.615,12.695,-822.266,-26.367,14.648,0.000
1673144869.619,67.383,-420.898,-29.297,94.727,0.000
1673144869.622,-34.180,-728.027,-51.758,-38.574,0.000
1673144869.626,-116.211,-1000.000,-48.828,-123.535,0.000
1673144869.630,-30.273,-875.977,-29.785,-24.414,0.000
1673144869.634,74.219,-462.402,-30.273,87.891,0.000
1673144869.638,11.230,-760.742,-48.340,31.250,0.000
1673144869.642,-106.934,-1000.000,-46.875,-95.703,0.000
1673144869.646,-62.500,-944.336,-30.273,-46.387,0.000
1673144869.650,60.059,-605.957,-25.879,86.914,0.000
1673144869.654,39.062,-666.992,-35.645,67.383,0.000
1673144869.658,-77.148,-991.211,-43.945,-94.238,0.000
1673144869.662,-70.801,-972.656,-32.715,-124.023,0.000
1673144869.665,55.176,-798.828,-27.832,22.461,0.000
1673144869.669,81.055,-810.547,-37.109,55.176,0.000
1673144869.673,-35.156,-810.547,-41.504,-69.824,0.000
1673144869.677,-95.215,-944.336,-43.457,-117.676,0.000
1673144869.681,3.418,-1000.000,-39.551,1.465,0.000
1673144869.685,71.289,-845.215,-31.738,80.078,0.000
1673144869.689,-15.137,-574.707,-36.621,-10.254,0.000
1673144869.693,-107.910,-925.293,-45.898,-120.605,0.000
1673144869.697,-47.363,-1000.000,-39.062,-42.480,0.000
1673144869.701,43.457,-572.266,-35.156,76.172,0.000
1673144869.704,-9.766,-649.414,-44.434,18.555,0.000
1673144869.708,-114.746,-1000.000,-52.734,-113.770,0.000
1673144869.712,-91.797,-1000.000,-44.434,-87.891,0.000
1673144869.716,26.855,-576.660,-33.691,67.383,0.000
1673144869.720,30.762,-276.367,-41.992,68.848,0.000
1673144869.724,-86.426,-697.266,-54.199,-71.777,0.000
1673144869.728,-101.562,-1000.000,-51.270,-104.004,0.000
1673144869.732,21.484,-690.430,-28.809,41.016,0.000
1673144869.736,61.523,-356.445,-28.320,92.773,0.000
1673144869.740,-45.410,-799.805,-45.410,-57.129,0.000
1673144869.744,-99.609,-1000.000,-42.969,-132.812,0.000
1673144869.747,14.648,-815.918,-30.762,-29.297,0.000
1673144869.751,95.215,-667.969,-27.832,71.289,0.000
1673144869.755,9.277,-894.043,-38.574,0.488,0.000
1673144869.759,-90.332,-1000.000,-47.852,-109.863,0.000
1673144869.763,-34.668,-990.723,-41.504,-53.223,0.000
1673144869.767,78.125,-468.750,-31.738,67.383,0.000
1673144869.771,44.922,-376.465,-45.410,36.621,0.000
1673144869.775,-162.598,-977.539,-57.617,-152.344,0.000
1673144869.779,-108.887,-978.516,-29.785,-99.121,0.000
1673144869.783,159.180,-44.922,-19.531,170.898,0.000
1673144869.787,69.336,-62.012,-41.504,83.984,0.000
1673144869.790,-184.570,-957.031,-54.688,-194.336,0.000
1673144869.794,-127.441,-1000.000,-46.875,-155.762,0.000
1673144869.798,66.895,-882.812,-33.691,46.387,0.000
1673144869.802,69.336,-788.574,-34.668,92.285,0.000
1673144869.806,-37.598,-754.883,-41.992,-20.508,0.000
1673144869.810,-104.004,-937.500,-42.480,-110.352,0.000
1673144869.814,-26.367,-858.398,-39.062,-20.020,0.000
1673144869.818,73.242,-783.203,-43.945,86.914,0.000
1673144869.822,19.531,-775.879,-41.504,28.320,0.000
1673144869.826,-85.938,-867.676,-46.875,-93.750,0.000
1673144869.829,-58.594,-1000.000,-49.805,-59.570,0.000
1673144869.833,56.152,-812.012,-37.598,56.641,0.000
1673144869.837,43.457,-397.461,-38.574,30.273,0.000
1673144869.841,-91.797,-732.910,-53.711,-102.539,0.000
1673144869.845,-89.355,-1000.000,-48.828,-103.516,0.000
1673144869.849,40.527,-825.684,-35.156,34.180,0.000
1673144869.853,54.688,-677.246,-38.574,55.664,0.000
1673144869.857,-73.730,-905.762,-50.293,-69.336,0.000
1673144869.861,-119.141,-1000.000,-45.410,-111.328,0.000
1673144869.865,-3.906,-926.758,-33.691,6.836,0.000
1673144869.869,63.477,-418.945,-27.832,94.727,0.000
1673144869.872,-26.367,-448.242,-43.457,-11.719,0.000
1673144869.876,-114.746,-993.652,-55.664,-129.395,0.000
1673144869.880,-54.688,-908.203,-38.086,-43.457,0.000
1673144869.884,52.246,-317.383,-30.273,63.965,0.000
1673144869.888,3.906,-346.680,-40.039,16.602,0.000
1673144869.892,-103.516,-934.082,-50.781,-89.844,0.000
1673144869.896,-52.734,-1000.000,-42.480,-82.520,0.000
1673144869.900,55.664,-503.418,-30.273,38.086,0.000
1673144869.904,25.391,-321.777,-36.133,50.293,0.000
1673144869.908,-98.145,-870.605,-49.805,-76.172,0.000
1673144869.911,-108.887,-1000.000,-36.621,-68.848,0.000
1673144869.915,26.367,-555.664,-21.973,51.758,0.000
1673144869.919,61.035,-292.969,-34.668,60.547,0.000
1673144869.923,-60.059,-821.777,-48.340,-61.035,0.000
1673144869.927,-90.820,-1000.000,-44.434,-114.258,0.000
1673144869.931,5.371,-733.398,-31.250,2.930,0.000
1673144869.935,59.570,-402.832,-31.250,109.375,0.000
1673144869.939,-18.555,-850.098,-44.922,-0.977,0.000
1673144869.943,-111.816,-1000.000,-42.969,-132.812,0.000
1673144869.947,-49.805,-912.109,-29.785,-52.246,0.000
1673144869.951,56.152,-817.383,-32.227,84.961,0.000
1673144869.954,11.230,-934.570,-42.969,47.852,0.000
1673144869.958,-111.816,-1000.000,-42.480,-100.586,0.000
1673144869.962,-94.238,-1000.000,-41.504,-82.031,0.000
1673144869.966,41.504,-831.055,-32.227,49.805,0.000
1673144869.970,60.059,-467.285,-25.391,52.246,0.000
1673144869.974,-120.117,-747.559,-48.828,-107.422,0.000
1673144869.978,-124.023,-1000.000,-42.480,-110.840,0.000
1673144869.982,147.949,-593.750,-21.973,116.211,0.000
1673144869.986,121.582,-409.668,-36.133,110.840,0.000
1673144869.990,-151.855,-902.832,-52.246,-141.113,0.000
1673144869.994,-176.270,-1000.000,-44.922,-175.781,0.000
1673144869.997,88.379,-988.770,-28.320,62.500,0.000
1673144870.001,166.992,-612.793,-23.438,151.855,0.000
1673144870.005,-95.703,-539.551,-41.016,-73.242,0.000
1673144870.009,-221.680,-1000.000,-45.410,-207.520,0.000
1673144870.013,22.461,-899.902,-25.391,-11.230,0.000
1673144870.017,192.871,-19.043,-20.508,145.996,0.000
1673144870.021,-6.836,-340.332,-40.039,-6.836,0.000
1673144870.025,-221.680,-1000.000,-46.875,-195.801,0.000
1673144870.029,-59.570,-936.523,-25.391,-54.688,0.000
1673144870.033,178.223,-409.668,-17.578,143.555,0.000
1673144870.036,70.801,-325.684,-36.621,65.430,0.000
1673144870.040,-218.262,-888.672,-53.711,-170.410,0.000
1673144870.044,-183.105,-1000.000,-39.551,-156.250,0.000
1673144870.048,228.027,62.988,-1.953,166.992,0.000
1673144870.052,190.918,695.312,-29.785,175.781,0.000
1673144870.056,-265.137,-634.277,-69.824,-188.477,0.000
1673144870.060,-289.551,-1000.000,-46.875,-241.211,0.000
1673144870.064,155.762,-276.855,-8.789,120.117,0.000
1673144870.068,270.020,661.133,-21.484,225.586,0.000
1673144870.072,-162.598,-371.582,-67.383,-119.141,0.000
1673144870.076,-354.492,-1000.000,-65.430,-291.504,0.000
1673144870.079,31.250,-770.020,-21.973,11.719,0.000
1673144870.083,295.410,185.547,-20.020,250.000,0.000
1673144870.087,-32.715,-167.969,-60.547,4.883,0.000
1673144870.091,-357.910,-1000.000,-58.594,-272.461,0.000
1673144870.095,-95.703,-909.668,-26.367,-92.773,0.000
1673144870.099,291.016,331.543,-19.043,214.355,0.000
1673144870.103,108.887,264.648,-52.734,107.910,0.000
1673144870.107,-330.566,-949.219,-68.848,-231.934,0.000
1673144870.111,-222.168,-1000.000,-34.668,-187.012,0.000
1673144870.115,233.398,-65.918,-11.230,170.410,0.000
1673144870.118,213.867,354.492,-29.297,195.801,0.000
1673144870.122,-239.258,-696.777,-57.617,-154.297,0.000
1673144870.126,-306.641,-1000.000,-51.270,-244.141,0.000
1673144870.130,151.855,-617.676,-14.160,117.676,0.000
1673144870.134,303.223,-390.137,-22.461,258.789,0.000
1673144870.138,-125.488,-861.328,-53.223,-80.566,0.000
1673144870.142,-355.957,-1000.000,-54.199,-287.598,0.000
1673144870.146,22.949,-912.598,-25.391,3.418,0.000
1673144870.150,317.383,185.547,-13.184,265.625,0.000
1673144870.154,15.625,245.117,-49.805,19.531,0.000
1673144870.158,-356.934,-929.688,-68.848,-287.109,0.000
1673144870.161,-136.230,-1000.000,-37.109,-118.652,0.000
1673144870.165,276.367,63.477,-10.254,213.379,0.000
1673144870.169,134.766,473.145,-36.621,134.277,0.000
1673144870.173,-301.758,-748.535,-62.988,-219.238,0.000
1673144870.177,-244.141,-1000.000,-39.551,-181.152,0.000
1673144870.181,206.543,-361.328,-8.301,161.621,0.000
1673144870.185,151.367,252.930,-30.762,141.113,0.000
1673144870.189,-270.020,-671.875,-67.871,-168.457,0.000
1673144870.193,-328.125,-1000.000,-54.688,-262.207,0.000
1673144870.197,103.027,-462.891,-13.184,58.594,0.000
1673144870.201,299.805,663.574,-16.602,241.211,0.000
1673144870.204,-106.445,-62.012,-59.570,-54.199,0.000
1673144870.208,-369.141,-1000.000,-66.895,-291.992,0.000
1673144870.212,-24.414,-793.945,-28.320,-29.297,0.000
1673144870.216,302.246,429.688,-15.137,278.320,0.000
1673144870.220,29.297,69.824,-57.617,55.176,0.000
1673144870.224,-348.145,-1000.000,-83.496,-291.016,0.000
1673144870.228,-148.438,-1000.000,-39.551,-145.508,0.000
1673144870.232,284.668,-148.926,-16.602,211.914,0.000
1673144870.236,182.617,239.746,-40.527,158.203,0.000
1673144870.240,-276.855,-791.016,-61.523,-196.289,0.000
1673144870.243,-266.602,-1000.000,-43.945,-220.703,0.000
1673144870.247,187.012,-145.020,-5.371,133.789,0.000
1673144870.251,261.719,615.234,-21.484,222.656,0.000
1673144870.255,-179.199,-515.625,-59.570,-127.930,0.000
1673144870.259,-343.262,-1000.000,-41.504,-273.438,0.000
1673144870.263,83.496,-534.180,-1.465,60.059,0.000
1673144870.267,314.453,121.582,-12.207,276.855,0.000
1673144870.271,-67.383,-677.246,-51.758,-12.695,0.000
1673144870.275,-354.492,-1000.000,-62.012,-295.898,0.000
1673144870.279,-42.969,-862.793,-30.762,-83.008,0.000
1673144870.283,308.105,-2.441,-20.508,223.633,0.000
1673144870.286,83.984,167.969,-46.875,62.988,0.000
1673144870.290,-317.871,-823.730,-65.918,-277.832,0.000
1673144870.294,-169.922,-1000.000,-42.969,-141.602,0.000
1673144870.298,257.812,-409.180,-9.766,232.422,0.000
1673144870.302,181.641,225.586,-21.484,162.598,0.000
1673144870.306,-270.020,-645.020,-58.594,-212.402,0.000
1673144870.310,-293.457,-1000.000,-49.805,-256.348,0.000
1673144870.314,150.391,-680.664,-15.137,106.445,0.000
1673144870.318,248.047,201.660,-21.484,237.305,0.000
1673144870.322,-186.523,-370.117,-59.082,-86.426,0.000
1673144870.325,-363.770,-1000.000,-63.477,-274.902,0.000
1673144870.329,41.504,-829.102,-26.367,13.184,0.000
1673144870.333,296.875,428.711,-14.648,242.676,0.000
1673144870.337,-37.109,181.641,-51.270,2.930,0.000
1673144870.341,-360.840,-1000.000,-65.430,-278.809,0.000
1673144870.345,-75.195,-899.414,-20.996,-96.680,0.000
1673144870.349,308.594,387.207,-5.371,221.680,0.000
1673144870.353,113.281,445.801,-48.340,100.098,0.000
1673144870.357,-302.246,-833.496,-73.730,-213.379,0.000
1673144870.361,-193.359,-1000.000,-45.898,-155.273,0.000
1673144870.365,252.441,-273.926,-13.672,169.434,0.000
1673144870.368,222.656,477.051,-37.109,172.852,0.000
1673144870.372,-230.469,-600.098,-76.660,-179.199,0.000
1673144870.376,-289.551,-1000.000,-51.758,-252.441,0.000
1673144870.380,152.344,-297.363,-9.766,104.492,0.000
1673144870.384,285.156,676.758,-28.320,234.375,0.000
1673144870.388,-153.809,-382.812,-65.918,-87.891,0.000
1673144870.392,-375.488,-1000.000,-59.570,-286.133,0.000
1673144870.396,16.113,-654.297,-20.996,-6.348,0.000
1673144870.400,317.871,480.469,-17.578,260.742,0.000
1673144870.404,9.277,-21.973,-52.734,47.363,0.000
1673144870.408,-337.891,-1000.000,-63.965,-270.020,0.000
1673144870.411,-102.539,-972.168,-27.344,-135.254,0.000
1673144870.415,287.598,-227.539,-6.348,205.566,0.000
1673144870.419,134.766,-486.816,-42.969,128.418,0.000
1673144870.423,-301.270,-1000.000,-58.105,-239.258,0.000
1673144870.427,-236.816,-1000.000,-33.203,-222.168,0.000
1673144870.431,219.238,-219.238,-8.789,146.484,0.000
1673144870.435,251.953,524.414,-25.879,194.336,0.000
1673144870.439,-201.660,-495.605,-63.965,-158.691,0.000
1673144870.443,-316.895,-1000.000,-62.012,-286.133,0.000
1673144870.447,126.953,-675.293,-26.367,52.246,0.000
1673144870.450,306.152,376.953,-24.414,259.277,0.000
1673144870.454,-113.281,-332.031,-69.336,-81.543,0.000
1673144870.458,-368.164,-1000.000,-72.754,-322.266,0.000
1673144870.462,-14.160,-1000.000,-32.715,-24.414,0.000
1673144870.466,313.477,-384.766,-16.602,250.977,0.000
1673144870.470,43.945,-52.246,-41.504,47.363,0.000
1673144870.474,-331.055,-918.457,-66.406,-261.230,0.000
1673144870.478,-140.137,-1000.000,-45.410,-123.047,0.000
1673144870.482,289.062,166.504,-14.648,227.539,0.000
1673144870.486,185.547,639.160,-42.480,165.527,0.000
1673144870.490,-270.996,-715.820,-83.984,-214.844,0.000
1673144870.493,-255.371,-1000.000,-62.500,-233.398,0.000
1673144870.497,200.684,-144.043,-22.949,142.090,0.000
1673144870.501,254.883,303.711,-37.598,215.332,0.000
1673144870.505,-204.102,-694.336,-74.707,-143.066,0.000
1673144870.509,-341.309,-1000.000,-74.219,-272.461,0.000
1673144870.513,101.562,-694.824,-20.996,50.293,0.000
1673144870.517,321.777,513.184,-16.113,240.234,0.000
1673144870.521,-62.012,-15.625,-60.547,-51.758,0.000
1673144870.525,-355.957,-1000.000,-60.547,-299.805,0.000
1673144870.529,-40.039,-835.938,-24.902,-44.434,0.000
1673144870.532,302.246,425.293,-16.602,250.977,0.000
1673144870.536,52.246,288.086,-53.711,62.012,0.000
1673144870.540,-344.727,-955.078,-67.383,-274.902,0.000
1673144870.544,-181.152,-1000.000,-36.133,-172.363,0.000
1673144870.548,264.160,-197.754,-15.625,180.176,0.000
1673144870.552,194.336,127.930,-37.109,168.457,0.000
1673144870.556,-259.766,-858.398,-59.082,-198.730,0.000
1673144870.560,-277.344,-1000.000,-36.133,-254.883,0.000
1673144870.564,173.340,-229.004,-6.836,115.723,0.000
1673144870.568,260.254,370.605,-24.902,210.938,0.000
1673144870.572,-179.688,-574.707,-59.570,-129.883,0.000
1673144870.575,-337.891,-1000.000,-53.711,-260.742,0.000
1673144870.579,64.453,-813.477,-15.625,30.273,0.000
1673144870.583,312.500,181.641,-10.742,237.793,0.000
1673144870.587,-41.016,48.828,-53.711,-15.137,0.000
1673144870.591,-368.164,-952.637,-66.406,-296.875,0.000
1673144870.595,-88.867,-1000.000,-35.645,-78.125,0.000
1673144870.599,292.969,-656.250,-23.438,252.930,0.000
1673144870.603,102.539,-190.918,-43.945,106.934,0.000
1673144870.607,-314.941,-782.715,-70.312,-240.723,0.000
1673144870.611,-206.543,-1000.000,-42.480,-157.227,0.000
1673144870.615,237.305,-187.988,-5.371,196.289,0.000
1673144870.618,222.168,649.902,-28.809,180.176,0.000
1673144870.622,-240.723,-533.203,-65.918,-180.176,0.000
1673144870.626,-294.922,-1000.000,-52.734,-244.141,0.000
1673144870.630,159.180,-341.797,-14.160,122.559,0.000
1673144870.634,285.645,518.066,-21.973,268.555,0.000
1673144870.638,-127.441,-380.371,-61.523,-83.008,0.000
1673144870.642,-352.051,-1000.000,-67.383,-286.133,0.000
1673144870.646,15.625,-749.512,-24.414,3.906,0.000
1673144870.650,318.848,482.422,-13.184,252.441,0.000
1673144870.654,22.461,251.953,-55.176,14.160,0.000
1673144870.657,-339.355,-985.840,-73.730,-289.062,0.000
1673144870.661,-117.188,-1000.000,-32.227,-92.285,0.000
1673144870.665,290.039,293.457,-5.859,239.746,0.000
1673144870.669,134.277,534.668,-40.527,110.840,0.000
1673144870.673,-307.129,-812.500,-73.730,-247.070,0.000
1673144870.677,-231.445,-1000.000,-44.434,-213.379,0.000
1673144870.681,221.680,-3.906,-8.789,190.918,0.000
1673144870.685,225.098,643.555,-34.668,219.238,0.000
1673144870.689,-161.621,-653.320,-66.406,-125.977,0.000
1673144870.693,-222.656,-1000.000,-47.852,-222.656,0.000
1673144870.697,59.570,-761.719,-22.949,3.906,0.000
1673144870.700,201.660,-345.215,-30.273,144.531,0.000
1673144870.704,-12.207,-725.586,-50.781,-26.367,0.000
1673144870.708,-229.492,-1000.000,-51.758,-195.801,0.000
1673144870.712,-46.875,-833.496,-31.250,-30.762,0.000
1673144870.716,195.312,-271.484,-27.832,187.988,0.000
1673144870.720,39.551,-564.453,-45.898,49.805,0.000
1673144870.724,-228.516,-1000.000,-57.129,-181.152,0.000
1673144870.728,-115.234,-992.676,-37.598,-87.402,0.000
1673144870.732,163.574,-559.082,-19.531,143.066,0.000
1673144870.736,121.582,-444.824,-35.645,116.211,0.000
1673144870.739,-186.523,-897.461,-57.617,-142.578,0.000
1673144870.743,-243.164,-1000.000,-46.875,-195.801,0.000
1673144870.747,176.270,-630.859,-17.090,145.996,0.000
1673144870.751,261.719,248.535,-22.461,248.047,0.000
1673144870.755,-205.078,-454.590,-54.199,-112.305,0.000
1673144870.759,-327.148,-1000.000,-57.617,-291.504,0.000
1673144870.763,62.012,-946.289,-32.227,-8.301,0.000
1673144870.767,207.520,-184.570,-20.020,167.969,0.000
1673144870.771,-25.879,-161.621,-45.898,-12.207,0.000
1673144870.775,-222.168,-981.934,-56.641,-173.340,0.000
1673144870.779,-66.406,-964.355,-31.250,-20.508,0.000
1673144870.782,159.180,-404.785,-20.508,123.535,0.000
1673144870.786,50.293,-378.418,-39.062,8.789,0.000
1673144870.790,-204.590,-948.242,-58.105,-187.988,0.000
1673144870.794,-125.000,-1000.000,-35.156,-130.371,0.000
1673144870.798,156.738,-282.227,-7.812,93.750,0.000
1673144870.802,115.234,74.707,-29.785,98.633,0.000
1673144870.806,-173.828,-805.176,-60.059,-143.555,0.000
1673144870.810,-199.219,-1000.000,-48.340,-204.102,0.000
1673144870.814,76.172,-446.777,-16.113,39.062,0.000
1673144870.818,150.391,223.145,-22.949,160.645,0.000
1673144870.822,-105.957,-484.375,-48.828,-53.223,0.000
1673144870.825,-239.746,-1000.000,-49.316,-208.984,0.000
1673144870.829,-16.113,-901.367,-31.738,-32.715,0.000
1673144870.833,156.738,-332.520,-30.762,150.391,0.000
1673144870.837,-23.926,-510.254,-52.734,26.367,0.000
1673144870.841,-217.773,-1000.000,-51.758,-192.383,0.000
1673144870.845,-72.266,-937.500,-24.902,-88.867,0.000
1673144870.849,146.484,-123.535,-17.578,155.273,0.000
1673144870.853,39.062,-328.125,-42.969,73.730,0.000
1673144870.857,-202.637,-1000.000,-54.199,-170.898,0.000
1673144870.861,-152.344,-997.559,-38.574,-143.555,0.000
1673144870.864,118.164,-407.715,-22.949,96.191,0.000
1673144870.868,110.352,-210.449,-33.691,142.090,0.000
1673144870.872,-153.809,-766.602,-53.711,-85.938,0.000
1673144870.876,-180.176,-1000.000,-50.293,-186.035,0.000
1673144870.880,62.500,-854.004,-26.855,31.738,0.000
1673144870.884,154.785,-481.934,-26.367,180.176,0.000
1673144870.888,-72.266,-766.113,-47.363,-22.461,0.000
1673144870.892,-232.422,-1000.000,-45.898,-213.867,0.000
1673144870.896,-20.508,-1000.000,-30.273,-52.246,0.000
1673144870.900,193.848,-716.797,-23.926,145.508,0.000
1673144870.904,39.551,-265.137,-32.227,32.227,0.000
1673144870.907,-195.312,-822.754,-48.340,-187.012,0.000
1673144870.911,-89.355,-1000.000,-36.133,-120.605,0.000
1673144870.915,155.273,-455.566,-13.672,106.445,0.000
1673144870.919,86.914,-41.504,-25.391,92.773,0.000
1673144870.923,-182.617,-783.691,-55.176,-135.742,0.000
1673144870.927,-168.457,-1000.000,-44.434,-156.250,0.000
1673144870.931,102.051,-467.285,-15.625,87.402,0.000
1673144870.935,132.324,155.273,-23.926,152.832,0.000
1673144870.939,-138.184,-492.188,-49.316,-73.242,0.000
1673144870.943,-198.730,-1000.000,-43.945,-177.734,0.000
1673144870.946,66.406,-689.453,-11.719,27.832,0.000
1673144870.950,175.293,162.598,-13.672,168.945,0.000
1673144870.954,-62.500,-168.457,-43.457,0.488,0.000
1673144870.958,-229.492,-1000.000,-48.828,-168.945,0.000
1673144870.962,-32.715,-870.117,-29.785,-61.035,0.000
1673144870.966,187.988,-32.715,-22.949,141.113,0.000
1673144870.970,38.574,-352.539,-46.387,72.266,0.000
1673144870.974,-215.820,-1000.000,-59.082,-172.852,0.000
1673144870.978,-105.469,-1000.000,-31.738,-111.816,0.000
1673144870.982,163.086,-490.234,-18.555,125.977,0.000
1673144870.986,120.117,-78.613,-38.574,101.562,0.000
1673144870.989,-157.227,-830.078,-60.059,-115.234,0.000
1673144870.993,-185.547,-1000.000,-44.434,-166.504,0.000
1673144870.997,89.844,-411.133,-25.391,56.641,0.000
1673144871.001,154.297,48.828,-36.621,145.508,0.000
1673144871.005,-112.305,-689.941,-57.129,-73.730,0.000
1673144871.009,-200.684,-1000.000,-50.293,-187.988,0.000
1673144871.013,14.648,-817.871,-29.785,-8.789,0.000
1673144871.017,112.793,-735.840,-33.203,89.844,0.000
1673144871.021,34.668,-789.062,-35.645,39.062,0.000
1673144871.025,-87.891,-922.852,-41.992,-78.125,0.000
1673144871.029,-79.590,-998.535,-44.434,-76.660,0.000
1673144871.032,44.922,-912.109,-34.668,62.012,0.000
1673144871.036,47.363,-679.199,-34.668,51.758,0.000
1673144871.040,-91.309,-689.941,-46.875,-94.727,0.000
1673144871.044,-103.516,-1000.000,-40.527,-98.145,0.000
1673144871.048,23.926,-926.758,-25.879,66.406,0.000
1673144871.052,53.223,-414.551,-29.297,105.469,0.000
1673144871.056,-65.430,-538.086,-39.551,-38.086,0.000
1673144871.060,-120.117,-986.816,-43.457,-108.398,0.000
1673144871.064,-18.066,-1000.000,-31.250,14.160,0.000
1673144871.068,61.523,-705.078,-19.531,111.816,0.000
1673144871.071,-13.672,-537.598,-33.691,14.160,0.000
1673144871.075,-103.516,-947.266,-47.852,-98.145,0.000
1673144871.079,-50.781,-1000.000,-36.133,-16.602,0.000
1673144871.083,48.828,-704.102,-20.508,78.613,0.000
1673144871.087,17.090,-418.945,-27.344,30.762,0.000
1673144871.091,-102.539,-829.590,-38.086,-81.055,0.000
1673144871.095,-73.242,-1000.000,-24.902,-75.195,0.000
1673144871.099,52.246,-591.797,-12.207,50.781,0.000
1673144871.103,60.059,-326.172,-20.508,62.500,0.000
1673144871.107,-54.688,-787.109,-38.086,-55.664,0.000
1673144871.111,-97.168,-1000.000,-33.691,-90.332,0.000
1673144871.114,9.766,-793.457,-12.695,39.062,0.000
1673144871.118,66.895,-387.695,-14.160,69.336,0.000
1673144871.122,-33.691,-712.891,-35.645,-47.852,0.000
1673144871.126,-102.051,-1000.000,-26.367,-104.980,0.000
1673144871.130,-15.137,-795.410,-8.789,-17.578,0.000
1673144871.134,74.707,-350.098,-11.230,72.754,0.000
1673144871.138,18.066,-711.426,-22.949,10.254,0.000
1673144871.142,-91.797,-1000.000,-27.344,-109.375,0.000
1673144871.146,-63.965,-924.316,-15.625,-74.219,0.000
1673144871.150,54.688,-547.363,-6.836,67.871,0.000
1673144871.154,7.812,-646.973,-17.578,9.277,0.000
1673144871.157,-165.527,-1000.000,-28.809,-154.297,0.000
1673144871.161,-91.797,-940.918,-5.859,-84.473,0.000
1673144871.165,148.926,-275.391,1.953,127.930,0.000
1673144871.169,74.707,-659.180,-24.414,84.473,0.000
1673144871.173,-110.840,-1000.000,-21.973,-73.730,0.000
1673144871.177,-112.305,-944.824,-11.230,-117.676,0.000
1673144871.181,-2.930,-896.484,-2.441,-13.184,0.000
1673144871.185,51.758,-549.316,3.418,91.797,0.000
1673144871.189,-31.250,-545.898,-4.395,-10.742,0.000
1673144871.193,-94.727,-982.910,-5.859,-118.652,0.000
1673144871.196,-12.695,-1000.000,4.395,-47.852,0.000
1673144871.200,84.473,-527.344,17.578,56.641,0.000
1673144871.204,25.391,-608.887,7.324,11.719,0.000
1673144871.208,-120.117,-982.422,-6.348,-116.699,0.000
1673144871.212,-56.641,-1000.000,8.301,-43.457,0.000
1673144871.216,161.621,-530.273,29.297,131.836,0.000
1673144871.220,32.227,-112.305,12.207,25.879,0.000
1673144871.224,-220.215,-856.445,-11.719,-170.410,0.000
1673144871.228,-115.234,-1000.000,2.441,-110.352,0.000
1673144871.232,71.289,-549.805,16.602,54.688,0.000
1673144871.236,68.848,-203.125,12.695,54.199,0.000
1673144871.239,-56.152,-585.938,1.465,-68.359,0.000
1673144871.243,-107.422,-1000.000,1.465,-111.328,0.000
1673144871.247,3.418,-813.965,17.578,-0.488,0.000
1673144871.251,66.895,-612.305,15.137,81.543,0.000
1673144871.255,-40.527,-860.352,-0.977,-8.789,0.000
1673144871.259,-139.160,-1000.000,-11.230,-118.164,0.000
1673144871.263,-61.035,-996.582,5.371,-46.387,0.000
1673144871.267,64.453,-487.793,9.766,58.594,0.000
1673144871.271,33.203,-341.797,-4.883,8.301,0.000
1673144871.275,-106.934,-943.359,-9.277,-106.445,0.000
1673144871.278,-89.844,-1000.000,-5.859,-99.609,0.000
1673144871.282,40.527,-507.324,0.488,36.621,0.000
1673144871.286,36.621,-498.535,-7.812,74.707,0.000
1673144871.290,-76.172,-954.102,-14.648,-71.289,0.000
1673144871.294,-80.078,-1000.000,-5.859,-114.746,0.000
1673144871.298,29.297,-884.766,7.324,20.508,0.000
1673144871.302,41.992,-788.086,0.977,79.590,0.000
1673144871.306,-63.477,-968.262,-16.602,-30.762,0.000
1673144871.310,-103.516,-1000.000,-3.906,-89.355,0.000
1673144871.314,-20.020,-805.176,3.418,-2.930,0.000
1673144871.318,51.758,-576.660,-8.789,61.523,0.000
1673144871.321,-20.020,-555.176,-11.719,-6.836,0.000
1673144871.325,-122.070,-892.090,-13.184,-95.215,0.000
1673144871.329,-53.223,-1000.000,-7.812,-45.898,0.000
1673144871.333,53.223,-756.348,1.465,67.871,0.000
1673144871.337,21.973,-430.664,-4.395,52.246,0.000
1673144871.341,-83.008,-774.902,-16.602,-89.355,0.000
1673144871.345,-75.195,-1000.000,-18.066,-85.938,0.000
1673144871.349,46.387,-938.965,-15.137,51.270,0.000
1673144871.353,54.199,-633.789,-10.254,56.641,0.000
1673144871.357,-70.312,-838.867,-16.602,-61.035,0.000
1673144871.360,-87.402,-1000.000,-13.184,-95.703,0.000
1673144871.364,45.410,-829.102,2.930,27.344,0.000
