timestamp,TP9,AF7,AF8,TP10,Right AUX
1673144647.499,-110.352,-598.633,-46.875,-96.680,0.000
1673144647.503,36.133,123.535,-41.504,38.574,0.000
1673144647.507,76.172,415.039,-41.016,82.031,0.000
1673144647.511,-63.965,-177.246,-39.062,-48.828,0.000
1673144647.515,-135.742,-523.926,-36.621,-128.906,0.000
1673144647.519,-4.883,-333.008,-37.598,-2.441,0.000
1673144647.522,91.797,98.633,-36.621,99.121,0.000
1673144647.526,-22.461,-318.848,-37.598,0.977,0.000
1673144647.530,-186.523,-1000.000,-40.527,-138.672,0.000
1673144647.534,-18.555,-230.957,-36.133,-17.090,0.000
1673144647.538,189.941,765.137,-33.691,165.527,0.000
1673144647.542,-36.621,270.996,-41.504,7.812,0.000
1673144647.546,-297.363,-927.246,-43.457,-208.984,0.000
1673144647.550,-52.734,-580.566,-40.527,-41.016,0.000
1673144647.554,345.703,876.465,-32.227,263.184,0.000
1673144647.558,61.523,591.797,-37.598,75.684,0.000
1673144647.562,-399.414,-780.762,-44.434,-282.715,0.000
1673144647.565,-157.227,-931.152,-38.574,-149.902,0.000
1673144647.569,334.961,228.027,-35.156,228.516,0.000
1673144647.573,189.941,452.148,-42.480,168.457,0.000
1673144647.577,-324.707,-587.402,-47.852,-217.773,0.000
1673144647.581,-269.043,-942.383,-41.016,-209.961,0.000
1673144647.585,169.922,-110.352,-36.133,119.141,0.000
1673144647.589,208.008,810.547,-37.598,187.500,0.000
1673144647.593,-104.004,437.012,-38.086,-43.945,0.000
1673144647.597,-243.652,-652.832,-40.039,-185.547,0.000
1673144647.601,36.133,-497.559,-41.504,3.906,0.000
1673144647.604,233.887,731.445,-41.504,171.875,0.000
1673144647.608,-4.883,594.238,-42.480,11.719,0.000
1673144647.612,-241.211,-708.984,-38.574,-187.500,0.000
1673144647.616,-51.270,-1000.000,-32.227,-57.617,0.000
1673144647.620,215.820,-210.938,-29.785,170.898,0.000
1673144647.624,68.359,780.762,-32.227,88.379,0.000
1673144647.628,-244.141,-294.434,-38.086,-168.945,0.000
1673144647.632,-166.992,-943.359,-37.109,-153.809,0.000
1673144647.636,154.785,279.785,-32.227,102.051,0.000
1673144647.640,141.602,818.359,-35.645,131.836,0.000
1673144647.644,-174.316,-340.332,-41.992,-115.234,0.000
1673144647.647,-223.145,-967.285,-37.598,-182.129,0.000
1673144647.651,85.449,53.711,-31.250,58.105,0.000
1673144647.655,215.332,-1000.000,-33.203,183.594,0.000
1673144647.659,-103.027,67.383,-41.016,-51.270,0.000
1673144647.663,-346.191,-1000.000,-38.574,-258.301,0.000
1673144647.667,57.129,-273.438,-28.320,15.137,0.000
1673144647.671,383.789,-877.441,-30.273,274.414,0.000
1673144647.675,-6.836,338.867,-37.598,17.578,0.000
1673144647.679,-396.484,-1000.000,-42.480,-285.156,0.000
1673144647.683,-81.055,-640.625,-31.250,-87.891,0.000
1673144647.686,362.305,800.781,-23.438,255.859,0.000
1673144647.690,130.859,615.234,-33.691,119.141,0.000
1673144647.694,-352.051,-743.652,-45.410,-256.836,0.000
1673144647.698,-208.008,-924.805,-41.992,-190.430,0.000
1673144647.702,298.828,421.387,-29.785,200.195,0.000
1673144647.706,253.906,821.289,-33.203,220.703,0.000
1673144647.710,-265.137,-508.789,-44.922,-162.109,0.000
1673144647.714,-332.520,-1000.000,-47.363,-262.695,0.000
1673144647.718,170.898,-40.039,-40.527,95.215,0.000
1673144647.722,333.984,-975.098,-43.457,248.047,0.000
1673144647.726,-125.488,208.496,-52.246,-83.008,0.000
1673144647.729,-386.230,-1000.000,-51.270,-303.223,0.000
1673144647.733,21.973,-689.453,-45.898,-17.578,0.000
1673144647.737,365.723,625.000,-44.922,265.625,0.000
1673144647.741,10.742,647.949,-50.293,30.273,0.000
1673144647.745,-407.715,-712.402,-51.758,-299.805,0.000
1673144647.749,-129.395,-904.297,-42.480,-120.117,0.000
1673144647.753,341.797,364.258,-34.668,250.000,0.000
1673144647.757,152.344,868.164,-38.086,143.555,0.000
1673144647.761,-345.215,-325.195,-41.504,-231.445,0.000
1673144647.765,-250.488,-1000.000,-31.250,-196.289,0.000
1673144647.768,265.625,-108.398,-21.484,187.500,0.000
1673144647.772,270.508,-890.625,-26.367,229.492,0.000
1673144647.776,-240.234,54.199,-36.133,-142.090,0.000
1673144647.780,-359.863,-1000.000,-34.668,-262.207,0.000
1673144647.784,123.047,-394.043,-28.320,76.660,0.000
1673144647.788,342.773,-943.848,-31.738,260.254,0.000
1673144647.792,-103.516,445.801,-39.062,-49.316,0.000
1673144647.796,-418.945,-991.699,-46.387,-308.105,0.000
1673144647.800,-18.555,-734.863,-41.504,-39.062,0.000
1673144647.804,373.535,687.500,-30.273,272.949,0.000
1673144647.808,52.246,704.590,-38.086,67.383,0.000
1673144647.811,-393.555,-780.762,-44.922,-277.344,0.000
1673144647.815,-149.902,-802.246,-34.668,-145.996,0.000
1673144647.819,346.191,643.066,-25.391,224.121,0.000
1673144647.823,203.125,901.367,-29.785,159.180,0.000
1673144647.827,-314.453,-509.277,-42.969,-226.074,0.000
1673144647.831,-277.344,-1000.000,-34.668,-233.887,0.000
1673144647.835,237.793,294.434,-26.367,152.344,0.000
1673144647.839,297.363,-988.281,-33.691,239.258,0.000
1673144647.843,-205.078,-206.543,-44.434,-131.836,0.000
1673144647.847,-367.676,-1000.000,-44.922,-300.781,0.000
1673144647.850,92.285,-331.055,-36.621,27.344,0.000
1673144647.854,347.656,851.074,-38.086,251.953,0.000
1673144647.858,-68.848,208.008,-46.387,-33.203,0.000
1673144647.862,-416.016,-988.770,-44.922,-313.965,0.000
1673144647.866,-53.711,-518.066,-40.039,-73.242,0.000
1673144647.870,367.676,638.184,-35.156,253.906,0.000
1673144647.874,84.961,397.461,-38.574,82.031,0.000
1673144647.878,-388.184,-658.691,-44.434,-276.855,0.000
1673144647.882,-194.336,-860.840,-39.062,-172.363,0.000
1673144647.886,311.523,413.086,-31.738,214.844,0.000
1673144647.890,217.285,947.754,-36.621,181.641,0.000
1673144647.893,-302.246,-311.035,-41.504,-206.543,0.000
1673144647.897,-310.059,-1000.000,-34.668,-247.070,0.000
1673144647.901,202.148,-215.332,-25.391,123.535,0.000
1673144647.905,315.430,-954.590,-28.320,236.816,0.000
1673144647.909,-164.551,345.215,-34.668,-99.609,0.000
1673144647.913,-379.883,-1000.000,-34.668,-286.133,0.000
1673144647.917,63.965,-795.410,-23.926,14.160,0.000
1673144647.921,363.281,641.113,-20.996,266.113,0.000
1673144647.925,-25.879,679.688,-35.156,7.324,0.000
1673144647.929,-408.203,-828.125,-41.016,-299.805,0.000
1673144647.932,-87.891,-680.664,-34.180,-89.355,0.000
1673144647.936,356.445,824.219,-30.762,256.836,0.000
1673144647.940,128.906,726.562,-40.527,117.676,0.000
1673144647.944,-371.582,-763.672,-48.340,-261.230,0.000
1673144647.948,-200.684,-788.086,-35.156,-163.574,0.000
1673144647.952,334.473,648.926,-23.438,237.305,0.000
1673144647.956,242.188,992.676,-29.785,197.754,0.000
1673144647.960,-271.484,-252.930,-35.156,-176.270,0.000
1673144647.964,-329.590,-1000.000,-33.691,-258.301,0.000
1673144647.968,160.645,60.547,-30.762,91.309,0.000
1673144647.972,320.801,-827.637,-32.715,246.582,0.000
1673144647.975,-137.207,146.973,-42.969,-80.078,0.000
1673144647.979,-395.996,-1000.000,-46.387,-305.664,0.000
1673144647.983,22.461,-310.059,-32.715,-10.742,0.000
1673144647.987,364.746,-966.797,-28.320,278.320,0.000
1673144647.991,8.301,385.254,-34.180,40.039,0.000
1673144647.995,-403.809,-1000.000,-38.574,-294.922,0.000
1673144647.999,-121.094,-680.664,-33.203,-126.465,0.000
1673144648.003,357.422,786.621,-29.785,233.887,0.000
1673144648.007,165.527,445.801,-34.180,134.277,0.000
1673144648.011,-340.820,-869.629,-37.598,-242.188,0.000
1673144648.014,-236.328,-1000.000,-30.273,-200.684,0.000
1673144648.018,274.414,57.617,-20.508,189.453,0.000
1673144648.022,278.320,-904.297,-22.461,227.051,0.000
1673144648.026,-229.004,29.297,-35.156,-150.879,0.000
1673144648.030,-350.586,-1000.000,-45.410,-272.949,0.000
1673144648.034,131.348,-407.715,-37.109,80.078,0.000
1673144648.038,345.703,831.055,-30.273,265.137,0.000
1673144648.042,-91.797,441.406,-39.062,-47.363,0.000
1673144648.046,-396.484,-879.883,-41.992,-291.016,0.000
1673144648.050,-13.184,-802.734,-31.250,-16.113,0.000
1673144648.054,364.258,403.320,-26.367,282.227,0.000
1673144648.057,51.270,729.980,-30.762,63.965,0.000
1673144648.061,-391.602,-604.980,-31.738,-270.508,0.000
1673144648.065,-153.320,-1000.000,-23.926,-123.535,0.000
1673144648.069,334.961,294.922,-20.020,240.234,0.000
1673144648.073,188.965,-981.934,-32.715,166.992,0.000
1673144648.077,-327.637,-238.281,-46.875,-213.379,0.000
1673144648.081,-285.156,-1000.000,-38.086,-214.355,0.000
1673144648.085,238.281,-73.730,-22.461,159.668,0.000
1673144648.089,300.781,-877.441,-23.926,231.445,0.000
1673144648.093,-190.430,137.695,-37.109,-125.000,0.000
1673144648.097,-357.910,-1000.000,-38.574,-272.461,0.000
1673144648.100,104.980,-186.523,-21.973,55.176,0.000
1673144648.104,371.582,-862.305,-19.531,275.879,0.000
1673144648.108,-44.922,278.809,-35.156,-6.348,0.000
1673144648.112,-396.973,-1000.000,-37.598,-292.480,0.000
1673144648.116,-45.898,-491.699,-26.367,-61.523,0.000
1673144648.120,369.141,977.051,-24.414,268.066,0.000
1673144648.124,84.961,589.844,-34.668,98.633,0.000
1673144648.128,-384.766,-879.395,-36.133,-261.719,0.000
1673144648.132,-183.594,-869.141,-23.438,-155.762,0.000
1673144648.136,316.895,584.473,-19.043,220.703,0.000
1673144648.139,212.402,735.840,-31.738,187.012,0.000
1673144648.143,-303.711,-731.934,-41.016,-199.219,0.000
1673144648.147,-311.035,-1000.000,-33.691,-241.699,0.000
1673144648.151,197.754,157.715,-24.414,139.648,0.000
1673144648.155,308.594,-992.676,-25.391,255.371,0.000
1673144648.159,-173.828,65.430,-30.762,-95.215,0.000
1673144648.163,-385.254,-1000.000,-32.715,-282.715,0.000
1673144648.167,58.105,-275.879,-22.949,26.367,0.000
1673144648.171,361.816,-908.203,-21.484,269.531,0.000
1673144648.175,-27.832,360.840,-41.504,2.930,0.000
1673144648.179,-416.016,-1000.000,-46.387,-306.152,0.000
1673144648.182,-88.379,-693.359,-30.762,-93.750,0.000
1673144648.186,361.816,288.574,-26.855,255.371,0.000
1673144648.190,118.164,452.148,-32.715,120.117,0.000
1673144648.194,-371.094,-467.773,-34.180,-247.070,0.000
1673144648.198,-199.219,-964.355,-28.320,-161.621,0.000
1673144648.202,237.793,-48.340,-24.414,162.598,0.000
1673144648.206,188.965,763.672,-31.738,150.391,0.000
1673144648.210,-139.648,242.676,-36.133,-95.215,0.000
1673144648.214,-214.355,-880.371,-34.668,-171.875,0.000
1673144648.218,81.543,-310.059,-32.715,55.176,0.000
1673144648.221,218.750,767.090,-31.738,177.734,0.000
1673144648.225,-60.059,291.992,-40.527,-26.855,0.000
1673144648.229,-269.531,-732.422,-46.387,-194.824,0.000
1673144648.233,-26.367,-897.949,-36.621,-21.484,0.000
1673144648.237,218.262,375.000,-29.297,179.688,0.000
1673144648.241,17.090,832.031,-36.621,51.758,0.000
1673144648.245,-257.324,-493.164,-40.527,-177.246,0.000
1673144648.249,-110.352,-785.156,-33.691,-89.844,0.000
1673144648.253,193.848,499.023,-32.715,164.551,0.000
1673144648.257,112.305,935.547,-36.621,135.254,0.000
1673144648.261,-209.473,-318.848,-36.621,-120.117,0.000
1673144648.264,-198.242,-964.355,-31.738,-147.461,0.000
1673144648.268,121.094,-150.879,-31.250,100.098,0.000
1673144648.272,173.340,568.848,-34.668,166.016,0.000
1673144648.276,-138.672,-216.797,-36.133,-69.824,0.000
1673144648.280,-244.141,-1000.000,-29.785,-180.664,0.000
1673144648.284,60.547,-110.840,-28.320,31.738,0.000
1673144648.288,227.051,928.711,-37.109,177.246,0.000
1673144648.292,-33.203,203.613,-44.434,-19.531,0.000
1673144648.296,-245.117,-993.652,-45.898,-207.520,0.000
1673144648.300,-11.719,-568.848,-36.133,-51.270,0.000
1673144648.303,243.164,623.047,-35.156,160.645,0.000
1673144648.307,64.453,573.730,-41.504,54.688,0.000
1673144648.311,-232.422,-417.480,-39.551,-182.617,0.000
1673144648.315,-127.930,-891.113,-37.109,-127.441,0.000
1673144648.319,176.270,-50.781,-33.203,123.047,0.000
1673144648.323,126.465,179.199,-38.086,119.629,0.000
1673144648.327,-188.965,-400.879,-37.598,-134.277,0.000
1673144648.331,-204.590,-647.461,-30.273,-180.664,0.000
1673144648.335,112.793,-87.402,-27.344,66.895,0.000
1673144648.339,203.125,773.926,-25.391,166.504,0.000
1673144648.343,-104.980,362.305,-31.250,-62.988,0.000
1673144648.346,-254.883,-861.816,-34.180,-205.566,0.000
1673144648.350,28.809,-619.141,-31.738,-3.906,0.000
1673144648.354,215.332,730.957,-30.762,167.480,0.000
1673144648.358,-22.949,636.719,-30.762,4.883,0.000
1673144648.362,-258.789,-652.832,-33.203,-189.453,0.000
1673144648.366,-55.176,-1000.000,-32.227,-53.223,0.000
1673144648.370,224.121,-94.727,-27.344,173.340,0.000
1673144648.374,67.871,899.902,-29.785,89.844,0.000
1673144648.378,-237.305,-265.625,-36.133,-158.203,0.000
1673144648.382,-147.461,-886.719,-33.691,-125.488,0.000
1673144648.385,171.387,360.352,-29.785,124.023,0.000
1673144648.389,157.715,875.488,-31.738,143.066,0.000
1673144648.393,-166.016,-307.617,-38.086,-105.957,0.000
1673144648.397,-218.750,-962.891,-39.062,-182.617,0.000
1673144648.401,90.820,-149.902,-33.203,52.734,0.000
1673144648.405,202.148,822.754,-37.109,159.180,0.000
1673144648.409,-81.543,97.656,-39.062,-56.641,0.000
1673144648.413,-245.117,-1000.000,-34.668,-208.984,0.000
1673144648.417,23.926,-365.234,-27.344,-18.555,0.000
1673144648.421,232.422,882.324,-25.391,165.039,0.000
1673144648.425,0.000,509.277,-34.180,6.836,0.000
1673144648.428,-252.441,-736.816,-36.621,-209.473,0.000
1673144648.432,-75.195,-570.801,-30.762,-125.488,0.000
1673144648.436,209.473,601.074,-31.738,72.266,0.000
1673144648.440,91.797,694.336,-35.156,-1.465,0.000
1673144648.444,-225.586,-426.270,-37.598,-255.859,0.000
1673144648.448,-167.969,-725.098,-33.203,-255.371,0.000
1673144648.452,137.207,279.785,-21.973,-3.418,0.000
1673144648.456,125.488,509.766,-22.461,52.246,0.000
1673144648.460,-165.039,-516.113,-34.180,-150.879,0.000
1673144648.464,-222.656,-998.047,-34.180,-217.773,0.000
1673144648.467,83.496,-59.082,-20.996,25.391,0.000
1673144648.471,208.984,400.879,-24.414,164.551,0.000
1673144648.475,-77.148,-101.562,-35.645,-41.016,0.000
1673144648.479,-266.602,-610.352,-35.645,-204.590,0.000
1673144648.483,-10.742,-597.168,-29.297,-22.461,0.000
1673144648.487,220.703,457.520,-29.297,172.852,0.000
1673144648.491,44.922,722.168,-37.109,60.059,0.000
1673144648.495,-146.973,-8.789,-37.598,-100.586,0.000
1673144648.499,-103.516,-437.988,-29.785,-74.219,0.000
1673144648.503,43.945,-346.191,-25.391,58.594,0.000
1673144648.507,81.543,182.129,-30.273,95.215,0.000
1673144648.510,-54.688,142.578,-36.133,-32.227,0.000
1673144648.514,-120.605,-649.414,-37.109,-96.191,0.000
1673144648.518,5.371,-739.746,-35.645,20.020,0.000
1673144648.522,96.680,383.301,-26.855,112.793,0.000
1673144648.526,-17.090,544.434,-23.926,12.695,0.000
1673144648.530,-134.766,-448.242,-25.879,-100.098,0.000
1673144648.534,-30.762,-362.305,-21.484,-13.184,0.000
1673144648.538,97.656,540.039,-19.531,106.445,0.000
1673144648.542,16.113,540.039,-28.320,39.062,0.000
1673144648.546,-116.699,-337.891,-36.621,-83.984,0.000
1673144648.549,-66.406,-828.125,-36.133,-44.434,0.000
1673144648.553,68.848,-98.633,-31.738,78.125,0.000
1673144648.557,53.711,579.590,-35.156,68.359,0.000
1673144648.561,-92.773,-342.773,-38.574,-56.641,0.000
1673144648.565,-113.770,-833.984,-35.645,-78.613,0.000
1673144648.569,27.832,32.227,-29.297,46.875,0.000
1673144648.573,83.008,348.633,-27.832,110.840,0.000
1673144648.577,-54.199,-169.434,-29.297,-17.090,0.000
1673144648.581,-129.883,-472.656,-26.855,-104.980,0.000
1673144648.585,12.207,24.414,-21.973,23.438,0.000
1673144648.589,114.258,389.160,-24.414,125.000,0.000
1673144648.592,-17.090,99.121,-38.574,10.254,0.000
1673144648.596,-144.043,-610.840,-43.457,-111.328,0.000
1673144648.600,-36.133,-420.410,-36.133,-30.273,0.000
1673144648.604,99.121,148.438,-36.621,98.633,0.000
1673144648.608,27.344,-300.781,-40.527,44.922,0.000
1673144648.612,-111.328,-391.113,-39.551,-90.332,0.000
1673144648.616,-64.453,-164.062,-40.039,-62.012,0.000
1673144648.620,81.543,65.918,-38.086,75.684,0.000
1673144648.624,77.637,304.199,-37.598,83.496,0.000
1673144648.628,-65.918,-65.918,-41.504,-60.059,0.000
1673144648.631,-104.492,-421.875,-40.527,-104.004,0.000
1673144648.635,39.062,-107.910,-39.551,28.809,0.000
1673144648.639,103.027,432.617,-42.480,91.797,0.000
1673144648.643,-40.527,53.223,-44.922,-27.832,0.000
1673144648.647,-129.395,-589.355,-45.410,-113.281,0.000
1673144648.651,-8.301,-834.473,-39.062,2.930,0.000
1673144648.655,95.703,-270.508,-32.227,110.840,0.000
1673144648.659,-2.930,472.656,-32.715,18.066,0.000
1673144648.663,-126.953,-209.961,-33.203,-108.398,0.000
1673144648.667,-42.969,-451.660,-32.715,-47.363,0.000
1673144648.671,87.891,82.520,-33.203,75.684,0.000
1673144648.674,28.320,379.883,-34.668,37.598,0.000
1673144648.678,-118.164,-107.910,-32.715,-88.379,0.000
1673144648.682,-94.238,-660.645,-27.832,-73.730,0.000
1673144648.686,48.340,49.316,-27.832,61.523,0.000
1673144648.690,60.547,491.699,-30.762,85.449,0.000
1673144648.694,-79.102,-270.996,-30.273,-46.387,0.000
1673144648.698,-123.047,-951.172,-26.367,-95.215,0.000
1673144648.702,9.766,-186.035,-28.809,21.484,0.000
1673144648.706,83.008,790.039,-32.715,87.402,0.000
1673144648.710,-46.875,167.969,-34.180,-25.391,0.000
1673144648.713,-150.391,-620.117,-35.645,-131.348,0.000
1673144648.717,-28.320,-91.797,-29.297,-35.156,0.000
1673144648.721,98.145,590.332,-27.344,87.891,0.000
1673144648.725,9.277,291.016,-33.203,11.719,0.000
1673144648.729,-124.023,-289.551,-34.668,-117.676,0.000
1673144648.733,-50.293,-239.746,-27.344,-54.199,0.000
1673144648.737,90.332,154.297,-25.879,74.219,0.000
1673144648.741,47.363,-266.113,-31.250,51.270,0.000
1673144648.745,-92.773,-816.406,-31.250,-83.496,0.000
1673144648.749,-87.891,-249.512,-30.273,-96.191,0.000
1673144648.753,60.547,191.895,-27.832,57.129,0.000
1673144648.756,99.609,444.824,-31.738,104.492,0.000
1673144648.760,-44.434,209.961,-40.527,-36.133,0.000
1673144648.764,-117.676,-467.773,-41.504,-115.234,0.000
1673144648.768,18.555,-395.508,-36.133,7.324,0.000
1673144648.772,106.445,237.305,-32.715,103.516,0.000
1673144648.776,-27.832,328.125,-39.551,-14.648,0.000
1673144648.780,-138.672,-160.156,-41.992,-125.488,0.000
1673144648.784,-31.250,-509.766,-34.180,-24.414,0.000
1673144648.788,88.867,-447.754,-28.809,93.750,0.000
1673144648.792,9.277,-24.902,-36.133,18.555,0.000
1673144648.795,-118.164,-288.574,-38.574,-115.723,0.000
1673144648.799,-67.871,-618.164,-33.203,-77.637,0.000
1673144648.803,68.848,106.934,-31.250,57.129,0.000
1673144648.807,47.852,670.410,-26.855,54.199,0.000
1673144648.811,-90.820,141.602,-30.273,-79.102,0.000
1673144648.815,-95.703,-522.461,-32.227,-105.469,0.000
1673144648.819,51.270,-79.590,-25.879,32.715,0.000
1673144648.823,121.582,737.793,-20.508,108.887,0.000
1673144648.827,-84.961,185.547,-23.438,-58.105,0.000
1673144648.831,-193.359,-954.590,-22.461,-156.738,0.000
1673144648.835,115.234,-275.879,-17.578,79.102,0.000
1673144648.838,207.031,-960.938,-21.973,171.387,0.000
1673144648.842,-100.586,337.891,-27.832,-60.059,0.000
1673144648.846,-235.840,-921.387,-27.832,-190.918,0.000
1673144648.850,39.551,-502.441,-25.879,6.836,0.000
1673144648.854,228.516,807.129,-26.367,176.758,0.000
1673144648.858,-16.113,494.629,-32.715,15.625,0.000
1673144648.862,-255.371,-864.258,-34.668,-188.477,0.000
1673144648.866,-52.734,-570.312,-29.785,-63.477,0.000
1673144648.870,225.098,740.723,-25.879,170.410,0.000
1673144648.874,84.961,729.492,-27.832,83.008,0.000
1673144648.877,-216.309,-653.320,-32.227,-169.434,0.000
1673144648.881,-130.859,-930.176,-29.785,-127.930,0.000
1673144648.885,180.176,415.039,-24.902,122.559,0.000
1673144648.889,151.855,751.953,-27.344,142.090,0.000
1673144648.893,-166.016,-446.289,-30.762,-109.863,0.000
1673144648.897,-211.914,-889.648,-26.367,-175.781,0.000
1673144648.901,103.516,127.441,-22.461,69.336,0.000
1673144648.905,202.148,553.223,-26.855,169.434,0.000
1673144648.909,-89.844,-387.207,-32.715,-50.781,0.000
1673144648.913,-248.535,-798.340,-32.715,-199.219,0.000
1673144648.917,10.254,-227.051,-25.391,-9.766,0.000
1673144648.920,222.168,631.348,-19.043,180.664,0.000
1673144648.924,-7.812,260.254,-27.344,21.973,0.000
1673144648.928,-269.531,-781.738,-38.086,-199.219,0.000
1673144648.932,-94.727,-654.297,-37.109,-88.867,0.000
1673144648.936,198.730,384.766,-25.879,149.414,0.000
1673144648.940,86.426,747.070,-28.809,89.355,0.000
1673144648.944,-219.727,-105.469,-34.668,-159.668,0.000
1673144648.948,-157.227,-722.168,-29.297,-139.160,0.000
1673144648.952,161.133,-361.816,-29.297,106.934,0.000
1673144648.956,161.133,512.207,-32.715,129.395,0.000
1673144648.960,-152.832,237.305,-38.574,-108.887,0.000
1673144648.963,-237.305,-1000.000,-37.598,-205.566,0.000
1673144648.967,128.906,-271.484,-32.227,61.523,0.000
1673144648.971,317.871,-945.312,-31.250,237.793,0.000
1673144648.975,-122.559,188.965,-35.156,-78.613,0.000
1673144648.979,-385.742,-1000.000,-39.062,-303.711,0.000
1673144648.983,39.062,-440.918,-31.250,0.000,0.000
1673144648.987,377.441,-996.582,-28.809,274.902,0.000
1673144648.991,18.066,697.754,-39.551,28.320,0.000
1673144648.995,-385.254,-752.441,-46.387,-291.504,0.000
1673144648.999,-91.309,-701.660,-36.133,-106.934,0.000
1673144649.002,372.559,742.188,-26.367,249.023,0.000
1673144649.006,167.480,925.781,-36.621,144.043,0.000
1673144649.010,-344.238,-402.344,-42.969,-230.957,0.000
1673144649.014,-255.371,-1000.000,-33.691,-190.918,0.000
1673144649.018,257.812,144.531,-24.902,191.406,0.000
1673144649.022,262.207,998.047,-27.344,220.703,0.000
1673144649.026,-243.164,-211.426,-29.785,-154.297,0.000
1673144649.030,-350.586,-1000.000,-27.344,-262.207,0.000
1673144649.034,129.883,-57.617,-20.996,91.309,0.000
1673144649.038,327.148,-895.508,-23.926,270.020,0.000
1673144649.042,-121.582,40.039,-36.621,-43.945,0.000
1673144649.045,-410.156,-1000.000,-32.227,-285.645,0.000
1673144649.049,-7.324,-453.125,-23.926,-22.461,0.000
1673144649.053,361.816,925.293,-28.320,265.625,0.000
1673144649.057,31.250,632.812,-37.109,50.293,0.000
1673144649.061,-403.320,-689.453,-36.621,-286.621,0.000
1673144649.065,-151.855,-903.320,-31.738,-130.859,0.000
1673144649.069,332.031,418.457,-25.391,243.652,0.000
1673144649.073,180.664,793.945,-28.320,163.574,0.000
1673144649.077,-333.496,-537.598,-39.551,-226.562,0.000
1673144649.081,-269.531,-916.992,-33.203,-217.285,0.000
1673144649.084,177.246,-136.230,-27.832,118.164,0.000
1673144649.088,204.590,331.055,-34.668,170.898,0.000
1673144649.092,-109.375,161.621,-29.297,-63.477,0.000
1673144649.096,-237.793,-636.230,-27.344,-180.176,0.000
1673144649.100,33.691,-481.445,-26.855,16.113,0.000
1673144649.104,229.492,700.195,-23.926,188.477,0.000
1673144649.108,-10.254,671.387,-28.320,20.020,0.000
1673144649.112,-254.883,-697.754,-31.738,-187.500,0.000
1673144649.116,-56.152,-980.957,-32.227,-56.641,0.000
1673144649.120,217.773,356.445,-29.297,174.316,0.000
1673144649.124,70.312,922.363,-31.738,87.402,0.000
1673144649.127,-237.793,-298.340,-34.180,-158.691,0.000
1673144649.131,-153.809,-1000.000,-29.785,-118.652,0.000
1673144649.135,165.039,41.504,-24.902,133.789,0.000
1673144649.139,135.742,881.348,-32.227,143.555,0.000
1673144649.143,-185.547,-289.062,-41.016,-109.375,0.000
1673144649.147,-229.492,-971.191,-37.598,-176.270,0.000
1673144649.151,84.961,80.566,-29.785,60.059,0.000
1673144649.155,194.336,-962.402,-30.762,170.898,0.000
1673144649.159,-102.051,102.051,-45.410,-47.363,0.000
1673144649.163,-268.066,-1000.000,-48.340,-203.125,0.000
1673144649.166,4.883,-353.516,-38.086,-13.672,0.000
1673144649.170,213.379,952.148,-34.668,170.410,0.000
1673144649.174,-13.672,436.035,-39.551,16.113,0.000
1673144649.178,-255.371,-970.703,-39.551,-190.430,0.000
1673144649.182,-74.219,-575.684,-30.762,-83.496,0.000
1673144649.186,210.938,458.496,-32.227,149.414,0.000
1673144649.190,90.332,476.074,-34.668,90.332,0.000
1673144649.194,-229.004,-397.461,-36.621,-167.969,0.000
1673144649.198,-168.945,-702.148,-39.551,-165.039,0.000
1673144649.202,158.203,291.016,-35.645,93.750,0.000
1673144649.206,163.574,630.371,-36.621,132.812,0.000
1673144649.209,-156.738,-325.195,-44.922,-119.629,0.000
1673144649.213,-229.492,-779.297,-41.504,-200.684,0.000
1673144649.217,77.637,10.742,-29.297,37.109,0.000
1673144649.221,207.520,356.934,-26.855,171.387,0.000
1673144649.225,-70.312,-98.145,-32.227,-32.227,0.000
1673144649.229,-253.906,-601.074,-38.574,-200.684,0.000
1673144649.233,-7.812,-691.895,-33.691,-26.367,0.000
1673144649.237,230.469,393.555,-25.879,173.340,0.000
1673144649.241,31.250,498.047,-33.203,42.969,0.000
1673144649.245,-244.629,-663.086,-34.668,-184.082,0.000
1673144649.248,-96.680,-827.148,-29.297,-95.215,0.000
1673144649.252,203.613,-41.992,-27.344,155.273,0.000
1673144649.256,120.117,518.555,-24.414,116.699,0.000
1673144649.260,-200.684,-109.863,-31.738,-141.113,0.000
1673144649.264,-187.012,-1000.000,-33.691,-155.762,0.000
1673144649.268,135.254,-470.703,-25.879,89.844,0.000
1673144649.272,175.293,869.141,-23.438,145.996,0.000
1673144649.276,-138.184,277.832,-27.344,-87.891,0.000
1673144649.280,-243.164,-947.754,-28.320,-195.312,0.000
1673144649.284,56.152,-280.273,-23.438,32.227,0.000
1673144649.288,201.172,938.477,-22.461,169.434,0.000
1673144649.291,-17.090,632.324,-29.785,0.488,0.000
1673144649.295,-166.016,-539.551,-34.180,-136.719,0.000
1673144649.299,-83.496,-844.727,-30.273,-73.242,0.000
1673144649.303,59.082,-200.195,-25.879,57.129,0.000
1673144649.307,39.551,185.059,-26.367,57.617,0.000
1673144649.311,-104.004,-495.117,-32.227,-68.848,0.000
1673144649.315,-111.816,-862.305,-29.785,-89.355,0.000
1673144649.319,33.691,111.816,-24.414,45.410,0.000
1673144649.323,84.961,632.812,-31.250,95.703,0.000
1673144649.327,-48.828,-139.160,-36.133,-40.039,0.000
1673144649.330,-121.582,-751.953,-31.738,-125.977,0.000
1673144649.334,5.371,-86.426,-25.879,0.488,0.000
1673144649.338,94.727,455.078,-26.855,109.863,0.000
1673144649.342,-17.578,133.789,-29.785,11.719,0.000
1673144649.346,-181.641,-702.148,-30.762,-136.230,0.000
1673144649.350,-19.043,-642.090,-27.344,-14.648,0.000
1673144649.354,201.660,335.449,-23.926,170.898,0.000
1673144649.358,-33.203,-213.379,-24.902,11.230,0.000
1673144649.362,-275.879,-943.848,-28.320,-201.660,0.000
1673144649.366,-64.453,-386.719,-23.438,-73.242,0.000
1673144649.370,216.797,561.035,-18.066,160.645,0.000
1673144649.373,66.406,691.895,-28.320,79.590,0.000
1673144649.377,-244.141,-257.324,-33.203,-165.039,0.000
1673144649.381,-145.996,-757.324,-27.832,-120.605,0.000
1673144649.385,185.059,88.867,-23.926,136.230,0.000
1673144649.389,155.273,717.285,-28.320,137.695,0.000
1673144649.393,-182.617,-270.020,-37.598,-122.559,0.000
1673144649.397,-233.398,-1000.000,-38.086,-190.430,0.000
1673144649.401,86.914,-684.082,-31.250,51.758,0.000
1673144649.405,200.684,188.965,-25.391,159.668,0.000
1673144649.409,-101.074,170.898,-26.855,-58.594,0.000
1673144649.412,-271.484,-1000.000,-29.785,-207.520,0.000
1673144649.416,7.324,-582.520,-26.367,-10.742,0.000
1673144649.420,226.074,581.055,-24.414,181.152,0.000
1673144649.424,0.977,460.449,-30.273,16.602,0.000
1673144649.428,-257.812,-663.574,-35.156,-204.590,0.000
1673144649.432,-87.402,-736.816,-28.320,-82.520,0.000
1673144649.436,205.566,623.535,-17.090,157.227,0.000
1673144649.440,91.309,689.453,-16.602,89.355,0.000
1673144649.444,-227.051,-602.539,-26.367,-164.062,0.000
1673144649.448,-173.828,-1000.000,-29.297,-152.344,0.000
1673144649.452,154.297,166.992,-20.508,105.957,0.000
1673144649.455,167.480,-924.316,-20.996,148.926,0.000
1673144649.459,-159.180,-1.953,-29.297,-107.422,0.000
1673144649.463,-236.328,-1000.000,-28.320,-206.543,0.000
1673144649.467,81.055,-302.734,-20.508,38.086,0.000
1673144649.471,216.797,930.176,-22.461,178.711,0.000
1673144649.475,-66.895,280.762,-31.738,-32.715,0.000
1673144649.479,-258.301,-911.621,-33.691,-205.566,0.000
1673144649.483,-3.418,-442.871,-32.227,-38.086,0.000
1673144649.487,233.398,605.957,-32.715,158.691,0.000
1673144649.491,29.297,49.316,-36.621,37.598,0.000
1673144649.494,-242.188,-1000.000,-35.156,-183.594,0.000
1673144649.498,-103.027,-668.457,-33.203,-100.098,0.000
1673144649.502,199.219,482.422,-31.250,152.344,0.000
1673144649.506,118.164,753.906,-27.832,111.328,0.000
1673144649.510,-208.496,-257.812,-34.180,-154.785,0.000
1673144649.514,-183.594,-979.492,-29.297,-163.574,0.000
1673144649.518,148.438,-238.770,-21.484,91.309,0.000
1673144649.522,183.594,535.645,-23.926,150.879,0.000
1673144649.526,-137.207,40.039,-31.250,-86.914,0.000
1673144649.530,-247.070,-744.629,-33.203,-202.148,0.000
1673144649.534,53.711,-515.137,-28.320,18.555,0.000
1673144649.537,222.168,14.648,-29.785,173.828,0.000
1673144649.541,-47.363,47.852,-35.156,-25.391,0.000
1673144649.545,-260.742,-563.477,-39.551,-215.820,0.000
1673144649.549,-26.367,-660.645,-35.156,-50.293,0.000
1673144649.553,232.422,392.090,-26.855,173.340,0.000
1673144649.557,45.898,629.883,-27.344,62.988,0.000
1673144649.561,-255.371,-409.180,-26.855,-177.246,0.000
1673144649.565,-134.766,-916.016,-24.902,-105.469,0.000
1673144649.569,180.176,180.664,-23.926,149.902,0.000
1673144649.573,132.324,906.738,-29.297,133.789,0.000
1673144649.576,-181.152,-266.602,-32.227,-125.977,0.000
1673144649.580,-187.500,-1000.000,-27.832,-165.527,0.000
1673144649.584,128.906,-272.461,-25.879,79.590,0.000
1673144649.588,199.219,907.715,-27.344,160.156,0.000
1673144649.592,-103.516,265.137,-34.668,-74.219,0.000
1673144649.596,-238.770,-1000.000,-42.480,-204.590,0.000
1673144649.600,44.434,-363.281,-36.621,11.230,0.000
1673144649.604,231.445,966.797,-32.715,179.199,0.000
1673144649.608,-15.137,373.047,-37.109,-4.883,0.000
1673144649.612,-245.117,-933.594,-35.645,-207.520,0.000
1673144649.616,-41.504,-577.148,-30.273,-70.312,0.000
1673144649.619,230.469,739.258,-29.297,151.855,0.000
1673144649.623,78.613,693.359,-36.133,56.152,0.000
1673144649.627,-230.957,-669.922,-39.551,-189.453,0.000
1673144649.631,-147.461,-1000.000,-34.180,-145.996,0.000
1673144649.635,176.270,192.871,-27.344,112.305,0.000
1673144649.639,156.250,678.711,-31.250,125.000,0.000
1673144649.643,-179.688,-651.367,-36.133,-126.953,0.000
1673144649.647,-227.051,-1000.000,-30.273,-193.848,0.000
1673144649.651,96.191,42.969,-25.391,49.316,0.000
1673144649.655,198.730,758.301,-25.879,160.645,0.000
1673144649.658,-103.516,97.656,-33.203,-65.430,0.000
1673144649.662,-260.742,-746.094,-32.227,-213.867,0.000
1673144649.666,13.184,-351.562,-22.949,-12.695,0.000
1673144649.670,228.516,545.410,-18.555,175.293,0.000
1673144649.674,-0.977,122.070,-25.879,11.719,0.000
1673144649.678,-256.348,-914.062,-29.785,-203.613,0.000
1673144649.682,-66.406,-626.953,-26.367,-83.984,0.000
1673144649.686,231.445,-120.117,-29.785,160.645,0.000
1673144649.690,108.398,-197.266,-32.227,96.680,0.000
1673144649.694,-211.426,-450.195,-33.203,-164.551,0.000
1673144649.698,-157.227,-828.125,-26.855,-145.020,0.000
1673144649.701,162.109,-186.035,-21.973,117.676,0.000
1673144649.705,163.574,698.730,-25.879,149.414,0.000
1673144649.709,-161.621,187.012,-27.344,-106.445,0.000
1673144649.713,-233.398,-980.957,-27.344,-198.730,0.000
1673144649.717,79.590,-456.055,-24.902,34.668,0.000
1673144649.721,208.008,556.641,-25.879,165.039,0.000
1673144649.725,-76.172,61.523,-27.344,-52.246,0.000
1673144649.729,-267.090,-859.375,-33.203,-221.680,0.000
1673144649.733,-11.230,-840.820,-30.273,-36.621,0.000
1673144649.737,229.004,538.086,-23.438,169.434,0.000
1673144649.740,16.602,740.234,-29.297,26.855,0.000
1673144649.744,-260.254,-673.340,-30.762,-211.914,0.000
1673144649.748,-112.793,-791.504,-30.273,-121.582,0.000
1673144649.752,181.641,514.160,-31.250,129.883,0.000
1673144649.756,88.867,905.273,-31.250,90.332,0.000
1673144649.760,-232.422,-331.055,-36.133,-170.410,0.000
1673144649.764,-201.660,-1000.000,-34.668,-181.641,0.000
1673144649.768,127.930,-196.289,-30.273,74.707,0.000
1673144649.772,171.875,538.574,-34.180,137.695,0.000
1673144649.776,-145.996,-281.250,-43.945,-103.516,0.000
1673144649.780,-245.605,-1000.000,-42.480,-208.496,0.000
1673144649.783,61.523,-175.781,-31.250,23.438,0.000
1673144649.787,223.633,890.137,-32.715,178.223,0.000
1673144649.791,-41.992,294.434,-40.039,-11.230,0.000
1673144649.795,-258.301,-874.512,-39.551,-192.383,0.000
1673144649.799,-23.438,-727.051,-35.156,-31.738,0.000
1673144649.803,229.980,330.566,-32.715,189.453,0.000
1673144649.807,53.223,399.902,-34.668,69.824,0.000
1673144649.811,-229.980,-569.336,-37.109,-168.945,0.000
1673144649.815,-113.770,-980.469,-28.320,-97.656,0.000
1673144649.819,197.266,-129.883,-20.508,151.367,0.000
1673144649.822,145.508,94.727,-23.438,145.020,0.000
1673144649.826,-178.223,-549.316,-26.367,-112.793,0.000
1673144649.830,-187.012,-754.395,-23.438,-152.344,0.000
1673144649.834,135.742,-150.391,-20.508,100.098,0.000
1673144649.838,201.660,666.016,-27.832,184.570,0.000
1673144649.842,-107.422,245.117,-39.551,-55.176,0.000
1673144649.846,-244.141,-828.613,-36.621,-189.941,0.000
1673144649.850,38.574,-576.660,-31.738,22.461,0.000
1673144649.854,222.168,595.215,-28.809,183.105,0.000
1673144649.858,-31.738,258.789,-28.320,6.836,0.000
1673144649.862,-275.879,-881.348,-37.109,-199.219,0.000
1673144649.865,-70.801,-1000.000,-34.180,-60.547,0.000
1673144649.869,208.496,-158.691,-28.320,169.922,0.000
1673144649.873,56.641,792.480,-31.738,72.266,0.000
1673144649.877,-254.883,-387.695,-41.504,-181.641,0.000
1673144649.881,-166.504,-957.520,-45.898,-142.578,0.000
1673144649.885,164.062,309.082,-37.109,121.582,0.000
1673144649.889,145.508,781.738,-38.574,128.418,0.000
1673144649.893,-176.758,-428.223,-41.016,-122.559,0.000
1673144649.897,-222.656,-1000.000,-37.598,-175.781,0.000
1673144649.901,91.309,-2.930,-35.645,73.242,0.000
1673144649.904,199.707,953.613,-35.156,183.594,0.000
1673144649.908,-93.262,-2.930,-46.387,-41.992,0.000
1673144649.912,-254.883,-1000.000,-51.270,-191.406,0.000
1673144649.916,17.578,-487.305,-36.621,5.371,0.000
1673144649.920,234.375,874.512,-29.297,188.477,0.000
1673144649.924,2.441,497.070,-37.598,28.320,0.000
1673144649.928,-253.418,-881.348,-44.434,-193.848,0.000
1673144649.932,-74.707,-652.832,-37.109,-80.078,0.000
1673144649.936,218.262,640.625,-33.203,157.715,0.000
1673144649.940,99.609,646.484,-38.574,92.773,0.000
1673144649.944,-225.586,-527.344,-41.992,-157.227,0.000
1673144649.947,-176.758,-862.305,-33.203,-144.043,0.000
1673144649.951,145.020,207.031,-28.320,114.746,0.000
1673144649.955,155.762,396.484,-33.203,153.809,0.000
1673144649.959,-167.969,-620.117,-34.668,-105.469,0.000
1673144649.963,-238.770,-876.465,-32.715,-193.848,0.000
1673144649.967,78.125,-160.156,-29.785,47.363,0.000
1673144649.971,202.637,510.254,-28.809,174.805,0.000
1673144649.975,-89.844,85.938,-35.156,-34.180,0.000
1673144649.979,-273.438,-819.336,-38.086,-205.078,0.000
1673144649.983,-17.578,-806.641,-31.250,-28.320,0.000
1673144649.987,218.262,239.258,-22.949,183.105,0.000
1673144649.990,14.160,559.082,-23.926,50.781,0.000
1673144649.994,-257.324,-435.059,-34.180,-180.664,0.000
1673144649.998,-98.633,-843.262,-32.227,-87.891,0.000
1673144650.002,201.172,-170.898,-30.762,155.273,0.000
1673144650.006,108.398,401.855,-35.156,115.723,0.000
1673144650.010,-202.148,-178.711,-34.180,-136.230,0.000
1673144650.014,-173.828,-1000.000,-34.180,-144.043,0.000
1673144650.018,142.090,-368.164,-34.180,111.816,0.000
1673144650.022,176.270,881.836,-39.062,160.156,0.000
1673144650.026,-142.090,-30.273,-43.457,-94.238,0.000
1673144650.029,-245.605,-1000.000,-42.969,-200.684,0.000
1673144650.033,60.547,-422.852,-38.574,28.320,0.000
1673144650.037,229.004,901.855,-36.133,177.734,0.000
1673144650.041,-42.480,467.285,-43.945,-12.695,0.000
1673144650.045,-260.254,-821.289,-45.898,-197.266,0.000
1673144650.049,-23.438,-854.004,-35.156,-40.039,0.000
1673144650.053,230.469,364.258,-29.297,169.922,0.000
1673144650.057,45.410,640.625,-37.598,43.945,0.000
1673144650.061,-232.910,-645.020,-39.551,-193.359,0.000
1673144650.065,-111.816,-821.777,-33.203,-124.512,0.000
1673144650.069,107.910,153.809,-33.203,69.336,0.000
1673144650.072,92.773,538.086,-39.551,85.938,0.000
1673144650.076,-61.035,-345.215,-41.992,-39.551,0.000
1673144650.080,-138.672,-1000.000,-37.109,-118.652,0.000
1673144650.084,-12.695,-344.727,-36.133,-9.277,0.000
1673144650.088,83.984,389.160,-36.133,87.891,0.000
1673144650.092,-27.832,33.203,-38.086,-12.695,0.000
1673144650.096,-143.066,-746.094,-35.645,-126.465,0.000
1673144650.100,-41.504,-573.730,-33.691,-37.109,0.000
1673144650.104,91.797,102.051,-39.551,93.750,0.000
1673144650.108,18.555,27.344,-42.969,33.203,0.000
1673144650.111,-115.234,-233.887,-41.016,-105.469,0.000
1673144650.115,-67.383,-252.930,-31.738,-77.637,0.000
1673144650.119,71.289,-167.969,-29.297,64.941,0.000
1673144650.123,58.105,-228.516,-36.133,76.660,0.000
1673144650.127,-83.984,-134.277,-40.527,-59.082,0.000
1673144650.131,-109.863,-363.770,-38.574,-104.492,0.000
1673144650.135,34.180,-342.285,-32.715,21.484,0.000
1673144650.139,105.957,27.344,-32.715,93.262,0.000
1673144650.143,-28.320,-172.852,-38.574,-23.438,0.000
1673144650.147,-124.023,-762.695,-39.062,-111.816,0.000
1673144650.151,3.418,-712.402,-33.691,-1.465,0.000
1673144650.154,103.516,53.711,-31.738,101.562,0.000
1673144650.158,-5.371,388.184,-36.133,10.742,0.000
1673144650.162,-121.094,-242.676,-39.551,-104.980,0.000
1673144650.166,-39.551,-724.609,-35.156,-39.551,0.000
1673144650.170,83.984,-378.418,-31.250,91.797,0.000
1673144650.174,28.320,180.664,-31.738,48.340,0.000
1673144650.178,-109.375,-214.355,-33.203,-97.168,0.000
1673144650.182,-85.938,-641.602,-31.250,-85.938,0.000
1673144650.186,65.918,26.855,-24.414,54.688,0.000
1673144650.190,70.801,249.512,-26.855,73.242,0.000
1673144650.193,-84.961,-486.328,-35.156,-63.965,0.000
1673144650.197,-123.535,-860.352,-34.180,-111.328,0.000
1673144650.201,19.531,-88.379,-30.762,16.602,0.000
1673144650.205,91.797,655.762,-35.156,95.215,0.000
1673144650.209,-30.762,-48.340,-36.621,-16.602,0.000
1673144650.213,-133.301,-916.504,-33.203,-112.305,0.000
1673144650.217,-20.508,-259.766,-26.367,-4.395,0.000
1673144650.221,97.168,512.207,-25.391,105.957,0.000
1673144650.225,2.441,105.957,-32.715,20.508,0.000
1673144650.229,-124.512,-555.664,-33.203,-101.562,0.000
1673144650.233,-53.711,-331.055,-29.297,-53.711,0.000
1673144650.236,81.543,9.766,-32.227,69.336,0.000
1673144650.240,36.133,-158.203,-36.133,44.434,0.000
1673144650.244,-107.422,-453.125,-37.109,-92.285,0.000
1673144650.248,-104.492,-607.422,-36.621,-101.074,0.000
1673144650.252,41.016,-246.094,-31.250,37.598,0.000
1673144650.256,70.801,-173.828,-34.180,79.102,0.000
1673144650.260,-74.707,-419.434,-43.457,-57.617,0.000
1673144650.264,-132.812,-582.031,-42.480,-123.047,0.000
1673144650.268,3.906,-527.344,-40.039,1.953,0.000
1673144650.272,100.098,134.277,-38.574,95.215,0.000
1673144650.275,-21.484,224.609,-41.016,-9.277,0.000
1673144650.279,-137.207,-271.484,-43.945,-116.699,0.000
1673144650.283,-29.297,-584.961,-40.039,-29.785,0.000
1673144650.287,89.844,-287.598,-37.109,90.820,0.000
1673144650.291,3.418,141.113,-40.039,21.484,0.000
1673144650.295,-121.582,-95.703,-39.551,-108.398,0.000
1673144650.299,-62.012,-600.098,-40.527,-62.988,0.000
1673144650.303,69.336,-587.402,-45.410,63.965,0.000
1673144650.307,44.434,98.145,-39.551,46.387,0.000
1673144650.311,-94.727,46.875,-40.039,-88.867,0.000
1673144650.315,-108.398,-599.121,-39.062,-106.445,0.000
1673144650.318,28.809,-261.230,-35.645,22.949,0.000
1673144650.322,88.379,528.809,-38.086,78.125,0.000
1673144650.326,-59.082,149.902,-42.480,-62.012,0.000
1673144650.330,-171.875,-893.066,-44.434,-165.039,0.000
1673144650.334,64.453,-325.195,-40.527,26.367,0.000
1673144650.338,151.367,846.191,-40.527,114.746,0.000
1673144650.342,-86.914,277.832,-41.992,-64.941,0.000
1673144650.346,-169.434,-797.363,-41.016,-152.344,0.000
1673144650.350,-37.109,-630.859,-34.668,-56.152,0.000
1673144650.354,94.727,332.031,-31.250,66.895,0.000
1673144650.357,25.879,145.020,-36.621,11.230,0.000
1673144650.361,-108.398,-804.199,-40.527,-119.629,0.000
1673144650.365,-68.848,-729.980,-38.574,-79.102,0.000
1673144650.369,55.176,172.852,-37.109,55.664,0.000
1673144650.373,65.918,383.789,-38.086,76.172,0.000
1673144650.377,-142.090,-625.000,-39.551,-100.586,0.000
1673144650.381,-157.715,-986.816,-38.086,-136.230,0.000
1673144650.385,160.156,324.707,-30.762,112.793,0.000
1673144650.389,142.090,700.195,-35.156,132.812,0.000
1673144650.393,-181.641,-649.414,-45.898,-121.094,0.000
1673144650.397,-214.355,-1000.000,-42.480,-183.105,0.000
1673144650.400,101.074,-152.344,-32.715,59.570,0.000
1673144650.404,204.590,640.137,-33.691,171.387,0.000
1673144650.408,-85.449,37.109,-41.504,-44.922,0.000
1673144650.412,-240.723,-854.980,-39.551,-194.824,0.000
1673144650.416,23.438,-575.195,-30.273,3.418,0.000
1673144650.420,219.238,328.613,-33.203,177.734,0.000
1673144650.424,-11.719,20.020,-44.922,10.254,0.000
1673144650.428,-259.277,-916.016,-46.387,-204.102,0.000
1673144650.432,-75.684,-603.516,-41.504,-84.961,0.000
1673144650.436,206.543,-118.164,-40.527,159.180,0.000
1673144650.439,86.914,-44.434,-40.039,90.820,0.000
1673144650.443,-227.539,-342.773,-42.969,-169.922,0.000
1673144650.447,-171.387,-875.488,-45.410,-147.461,0.000
1673144650.451,154.297,-246.094,-41.504,107.422,0.000
1673144650.455,166.504,634.766,-44.922,141.602,0.000
1673144650.459,-145.020,111.328,-55.176,-101.562,0.000
1673144650.463,-245.117,-1000.000,-51.270,-209.473,0.000
1673144650.467,119.141,-375.488,-35.156,64.941,0.000
1673144650.471,306.152,970.215,-28.320,232.422,0.000
1673144650.475,-134.277,20.996,-41.016,-91.309,0.000
1673144650.479,-367.188,-1000.000,-45.898,-292.969,0.000
1673144650.482,49.805,-681.152,-33.203,10.254,0.000
1673144650.486,350.098,760.742,-30.273,263.672,0.000
1673144650.490,-8.301,655.762,-36.133,18.555,0.000
1673144650.494,-393.066,-850.586,-34.668,-291.504,0.000
1673144650.498,-101.074,-712.891,-29.297,-106.445,0.000
1673144650.502,343.262,742.188,-29.297,247.070,0.000
1673144650.506,135.254,797.363,-36.621,127.441,0.000
1673144650.510,-355.469,-576.172,-47.363,-254.395,0.000
1673144650.514,-245.605,-1000.000,-41.504,-205.078,0.000
1673144650.518,262.695,132.812,-29.785,184.570,0.000
1673144650.521,253.418,946.289,-32.715,208.008,0.000
1673144650.525,-248.535,-235.840,-39.062,-161.133,0.000
1673144650.529,-332.031,-1000.000,-28.320,-258.301,0.000
1673144650.533,163.086,-25.879,-17.578,92.285,0.000
1673144650.537,355.469,-910.645,-26.367,267.578,0.000
1673144650.541,-100.098,112.793,-41.016,-59.570,0.000
1673144650.545,-393.066,-1000.000,-47.363,-307.617,0.000
1673144650.549,4.883,-514.160,-38.086,-37.598,0.000
1673144650.553,369.629,913.574,-31.250,256.348,0.000
1673144650.557,31.738,549.316,-40.039,36.621,0.000
1673144650.561,-406.738,-792.969,-43.945,-304.199,0.000
1673144650.564,-147.461,-900.391,-31.250,-137.695,0.000
1673144650.568,336.914,394.043,-22.949,231.934,0.000
1673144650.572,176.270,467.773,-29.785,146.973,0.000
1673144650.576,-328.125,-724.609,-37.598,-234.375,0.000
1673144650.580,-263.184,-950.684,-30.273,-227.539,0.000
1673144650.584,257.324,-20.996,-19.043,168.457,0.000
1673144650.588,293.945,921.875,-28.809,237.793,0.000
1673144650.592,-215.332,111.816,-43.457,-143.066,0.000
1673144650.596,-362.305,-1000.000,-40.527,-280.273,0.000
1673144650.600,114.746,-424.805,-27.832,61.035,0.000
1673144650.603,351.074,946.289,-27.344,264.160,0.000
1673144650.607,-74.707,394.531,-32.227,-26.367,0.000
1673144650.611,-404.785,-952.148,-35.645,-291.016,0.000
1673144650.615,-39.062,-1000.000,-35.156,-39.551,0.000
1673144650.619,365.723,83.496,-29.785,278.809,0.000
1673144650.623,66.406,816.895,-32.715,82.520,0.000
1673144650.627,-388.672,-607.422,-39.551,-275.391,0.000
1673144650.631,-172.363,-906.250,-28.809,-147.949,0.000
1673144650.635,315.918,530.273,-23.926,231.934,0.000
1673144650.639,193.359,861.328,-33.691,182.617,0.000
1673144650.643,-316.406,-463.379,-40.039,-200.195,0.000
1673144650.646,-301.270,-1000.000,-35.645,-239.746,0.000
1673144650.650,216.797,146.973,-27.832,133.301,0.000
1673144650.654,289.551,-992.188,-30.273,228.516,0.000
1673144650.658,-201.660,-212.402,-36.621,-133.789,0.000
1673144650.662,-347.168,-1000.000,-32.715,-277.344,0.000
1673144650.666,47.852,-295.898,-23.926,15.137,0.000
1673144650.670,261.230,986.816,-21.973,206.055,0.000
1673144650.674,8.789,434.082,-26.855,33.691,0.000
1673144650.678,-246.582,-926.758,-29.785,-186.523,0.000
1673144650.682,-69.824,-624.023,-22.949,-82.031,0.000
1673144650.685,210.938,637.695,-22.461,161.621,0.000
1673144650.689,79.590,629.883,-25.879,92.773,0.000
1673144650.693,-230.469,-595.215,-34.180,-165.039,0.000
1673144650.697,-163.086,-1000.000,-36.621,-144.531,0.000
1673144650.701,155.273,94.727,-27.832,105.957,0.000
1673144650.705,155.273,559.082,-31.738,138.672,0.000
1673144650.709,-161.621,-505.371,-35.156,-98.145,0.000
1673144650.713,-220.703,-1000.000,-30.273,-175.781,0.000
1673144650.717,88.379,-63.477,-24.902,60.059,0.000
1673144650.721,210.938,364.258,-24.902,184.570,0.000
1673144650.725,-67.383,-245.605,-32.715,-31.738,0.000
1673144650.728,-248.047,-707.031,-35.156,-200.684,0.000
1673144650.732,4.883,-639.648,-27.344,-14.648,0.000
1673144650.736,232.422,379.395,-22.461,186.035,0.000
1673144650.740,21.973,618.164,-29.297,45.898,0.000
1673144650.744,-247.559,-432.129,-32.227,-187.012,0.000
1673144650.748,-93.750,-791.016,-28.320,-96.191,0.000
1673144650.752,199.219,-18.066,-26.855,149.902,0.000
1673144650.756,107.910,317.383,-36.621,102.539,0.000
1673144650.760,-212.402,-478.516,-44.922,-158.203,0.000
1673144650.764,-185.547,-1000.000,-39.062,-166.016,0.000
1673144650.767,146.484,-517.090,-28.809,93.750,0.000
1673144650.771,187.500,776.855,-24.902,149.414,0.000
1673144650.775,-132.324,296.875,-33.203,-94.238,0.000
1673144650.779,-238.281,-929.688,-32.715,-195.801,0.000
1673144650.783,62.012,-332.520,-28.809,31.738,0.000
1673144650.787,216.309,880.371,-30.273,177.246,0.000
1673144650.791,-51.758,450.684,-38.574,-20.020,0.000
1673144650.795,-256.348,-795.898,-43.457,-200.684,0.000
1673144650.799,-25.879,-865.723,-33.691,-44.434,0.000
1673144650.803,228.027,369.629,-30.273,161.133,0.000
1673144650.807,44.922,619.629,-30.762,51.270,0.000
1673144650.810,-245.605,-672.363,-31.250,-172.363,0.000
1673144650.814,-125.000,-873.535,-31.250,-112.305,0.000
1673144650.818,179.688,435.547,-28.809,120.117,0.000
1673144650.822,126.953,703.125,-35.156,104.004,0.000
1673144650.826,-200.195,-571.777,-40.527,-150.879,0.000
1673144650.830,-223.145,-1000.000,-31.738,-196.289,0.000
1673144650.834,197.266,265.625,-22.949,126.465,0.000
1673144650.838,274.414,-979.980,-26.855,222.168,0.000
1673144650.842,-214.844,-190.918,-35.156,-141.602,0.000
1673144650.846,-361.328,-1000.000,-34.668,-284.668,0.000
1673144650.849,111.816,-307.129,-26.367,57.617,0.000
1673144650.853,353.027,956.055,-28.320,257.812,0.000
1673144650.857,-77.148,-124.512,-34.180,-39.062,0.000
1673144650.861,-412.598,-1000.000,-34.668,-305.176,0.000
1673144650.865,-43.945,-655.762,-33.203,-62.988,0.000
1673144650.869,357.422,616.211,-28.809,261.230,0.000
1673144650.873,60.547,752.441,-31.250,75.684,0.000
1673144650.877,-396.484,-623.047,-36.133,-278.809,0.000
1673144650.881,-177.734,-862.793,-26.367,-153.320,0.000
1673144650.885,320.801,466.309,-20.996,229.492,0.000
1673144650.889,200.684,913.574,-27.832,176.758,0.000
1673144650.892,-306.152,-389.160,-34.180,-211.426,0.000
1673144650.896,-288.574,-1000.000,-30.762,-232.910,0.000
1673144650.900,210.449,-493.164,-21.484,142.578,0.000
1673144650.904,291.016,568.359,-25.391,241.211,0.000
1673144650.908,-201.172,270.996,-41.992,-118.652,0.000
1673144650.912,-385.254,-1000.000,-42.969,-288.574,0.000
1673144650.916,69.336,-457.031,-29.785,34.180,0.000
1673144650.920,329.102,-1000.000,-27.832,254.395,0.000
1673144650.924,-29.785,392.578,-35.156,5.371,0.000
1673144650.928,-312.988,-972.168,-40.039,-230.469,0.000
1673144650.932,-90.332,-747.559,-34.180,-85.938,0.000
1673144650.935,201.172,535.645,-32.715,151.855,0.000
1673144650.939,83.984,591.797,-39.551,89.355,0.000
1673144650.943,-229.004,-624.512,-39.551,-155.273,0.000
1673144650.947,-163.086,-1000.000,-32.715,-135.742,0.000
1673144650.951,176.758,113.770,-21.973,120.117,0.000
1673144650.955,187.988,-933.594,-22.949,154.297,0.000
1673144650.959,-141.602,-40.039,-30.762,-96.680,0.000
1673144650.963,-215.332,-1000.000,-30.762,-178.711,0.000
1673144650.967,96.191,-78.613,-27.344,55.176,0.000
1673144650.971,222.656,-963.379,-29.297,178.223,0.000
1673144650.974,-65.430,98.633,-33.691,-38.574,0.000
1673144650.978,-257.324,-1000.000,-34.668,-206.055,0.000
1673144650.982,-5.371,-437.988,-28.320,-24.902,0.000
1673144650.986,229.004,575.195,-21.973,174.316,0.000
1673144650.990,16.113,-30.762,-29.785,35.645,0.000
1673144650.994,-262.695,-1000.000,-36.621,-193.848,0.000
1673144650.998,-100.586,-653.320,-26.855,-95.215,0.000
1673144651.002,205.078,542.480,-25.391,150.879,0.000
1673144651.006,111.816,756.348,-31.738,106.445,0.000
1673144651.010,-216.309,-295.898,-38.574,-145.996,0.000
1673144651.014,-194.824,-952.637,-38.086,-156.250,0.000
1673144651.017,144.531,-158.203,-33.691,103.027,0.000
1673144651.021,171.875,626.953,-40.527,141.113,0.000
1673144651.025,-87.891,219.727,-42.480,-66.406,0.000
1673144651.029,-165.039,-459.473,-33.203,-147.461,0.000
1673144651.033,-38.086,-597.656,-25.391,-31.738,0.000
1673144651.037,81.055,-600.586,-20.508,94.238,0.000
1673144651.041,-3.906,-359.863,-21.484,17.578,0.000
1673144651.045,-145.508,-186.523,-21.973,-112.305,0.000
1673144651.049,-89.355,-551.758,-19.043,-54.688,0.000
1673144651.053,52.246,-114.746,-21.484,82.520,0.000
1673144651.056,27.832,527.344,-27.832,68.848,0.000
1673144651.060,-106.445,103.516,-35.156,-66.895,0.000
1673144651.064,-106.934,-598.633,-35.156,-87.891,0.000
1673144651.068,39.551,-256.348,-26.367,47.852,0.000
1673144651.072,88.379,563.477,-27.832,102.539,0.000
1673144651.076,-47.852,210.938,-30.762,-23.926,0.000
1673144651.080,-125.000,-808.105,-32.715,-97.656,0.000
1673144651.084,11.230,-592.773,-28.809,18.555,0.000
1673144651.088,113.281,285.156,-22.949,119.629,0.000
1673144651.092,-6.836,-23.438,-24.902,22.949,0.000
1673144651.096,-125.488,-749.023,-29.785,-94.238,0.000
1673144651.099,-20.508,-461.426,-30.273,-7.812,0.000
1673144651.103,107.910,379.395,-28.320,105.957,0.000
1673144651.107,15.625,129.395,-35.156,39.062,0.000
1673144651.111,-124.023,-639.160,-39.551,-94.727,0.000
1673144651.115,-70.312,-545.410,-34.180,-63.965,0.000
1673144651.119,67.871,261.230,-29.297,71.289,0.000
1673144651.123,62.500,371.582,-32.715,69.824,0.000
1673144651.127,-84.961,-587.402,-37.109,-62.988,0.000
1673144651.131,-122.070,-857.910,-36.133,-89.355,0.000
1673144651.135,27.832,11.719,-32.715,41.016,0.000
1673144651.138,87.402,308.105,-34.668,108.887,0.000
1673144651.142,-53.711,-398.438,-34.180,-13.672,0.000
1673144651.146,-139.648,-745.605,-30.273,-105.957,0.000
1673144651.150,-13.184,-139.160,-28.809,10.742,0.000
1673144651.154,88.867,146.484,-29.785,114.746,0.000
1673144651.158,-16.602,-247.559,-33.203,19.531,0.000
1673144651.162,-138.672,-340.820,-28.809,-96.191,0.000
1673144651.166,-60.059,-232.910,-23.438,-28.320,0.000
1673144651.170,69.336,69.336,-24.902,92.773,0.000
1673144651.174,21.484,-53.711,-32.227,48.828,0.000
1673144651.178,-108.887,-499.512,-31.738,-82.520,0.000
1673144651.181,-85.449,-508.789,-26.855,-66.895,0.000
1673144651.185,60.059,-267.090,-26.367,69.336,0.000
1673144651.189,73.242,141.113,-30.273,88.867,0.000
1673144651.193,-73.242,102.539,-31.250,-47.363,0.000
1673144651.197,-110.352,-439.941,-29.297,-91.309,0.000
1673144651.201,30.762,-714.355,-33.203,40.039,0.000
1673144651.205,105.469,-388.672,-27.344,119.141,0.000
1673144651.209,-23.926,-61.523,-30.762,2.441,0.000
1673144651.213,-127.930,-582.031,-34.180,-98.145,0.000
1673144651.217,-10.742,-591.309,-26.367,7.324,0.000
1673144651.220,110.352,-93.262,-29.785,111.328,0.000
1673144651.224,11.230,-31.250,-33.203,27.832,0.000
1673144651.228,-132.324,-531.738,-37.109,-87.891,0.000
1673144651.232,-65.918,-750.977,-34.180,-27.344,0.000
1673144651.236,69.336,127.930,-26.855,97.656,0.000
1673144651.240,33.691,418.457,-28.809,62.012,0.000
1673144651.244,-99.121,-524.902,-32.227,-77.637,0.000
1673144651.248,-91.797,-927.734,-30.273,-91.309,0.000
1673144651.252,45.898,-41.504,-27.344,32.715,0.000
1673144651.256,73.242,315.918,-32.715,65.918,0.000
1673144651.260,-67.871,-397.949,-36.133,-67.383,0.000
1673144651.263,-125.488,-727.051,-35.645,-127.930,0.000
1673144651.267,13.672,-385.254,-32.227,0.000,0.000
1673144651.271,99.609,8.301,-31.738,74.707,0.000
1673144651.275,-28.320,-323.730,-32.715,-41.016,0.000
1673144651.279,-144.043,-633.789,-31.738,-143.066,0.000
1673144651.283,-33.691,-42.969,-26.855,-40.039,0.000
1673144651.287,102.051,631.836,-23.438,84.473,0.000
1673144651.291,20.996,-26.855,-26.855,12.695,0.000
1673144651.295,-117.676,-942.871,-29.297,-120.117,0.000
1673144651.299,-60.059,-451.660,-25.391,-72.266,0.000
1673144651.302,84.961,244.141,-21.484,71.289,0.000
1673144651.306,62.012,369.141,-23.926,58.105,0.000
1673144651.310,-84.961,-24.414,-25.391,-85.449,0.000
1673144651.314,-89.355,-584.473,-25.879,-105.957,0.000
1673144651.318,57.129,-415.527,-26.367,36.621,0.000
1673144651.322,96.191,117.676,-25.391,87.891,0.000
1673144651.326,-50.781,125.488,-26.855,-47.363,0.000
1673144651.330,-126.953,-194.824,-30.762,-123.535,0.000
1673144651.334,5.859,-275.391,-25.391,2.930,0.000
1673144651.338,104.004,-178.223,-21.484,98.633,0.000
1673144651.342,-9.277,196.289,-27.344,-15.625,0.000
1673144651.345,-129.883,-155.273,-31.738,-128.906,0.000
1673144651.349,-29.297,-507.324,-28.320,-37.109,0.000
1673144651.353,104.004,169.434,-23.438,90.820,0.000
1673144651.357,22.461,519.043,-26.367,25.879,0.000
1673144651.361,-125.977,-410.645,-30.273,-112.793,0.000
1673144651.365,-82.031,-874.512,-27.832,-83.008,0.000
1673144651.369,55.664,-234.375,-27.832,46.875,0.000
1673144651.373,45.898,454.590,-33.203,49.805,0.000
1673144651.377,-96.191,178.223,-33.691,-83.496,0.000
1673144651.381,-117.188,-731.934,-34.180,-122.559,0.000
1673144651.384,33.691,-310.059,-34.668,7.324,0.000
1673144651.388,91.797,460.449,-28.320,77.148,0.000
1673144651.392,-45.410,-93.750,-29.297,-45.898,0.000
1673144651.396,-134.766,-616.211,-31.738,-136.230,0.000
1673144651.400,-7.812,-146.484,-29.785,-21.973,0.000
1673144651.404,100.098,577.148,-32.227,77.148,0.000
1673144651.408,-11.719,134.766,-36.621,-17.578,0.000
1673144651.412,-133.789,-695.312,-36.621,-144.531,0.000
1673144651.416,-38.086,-321.289,-26.855,-71.289,0.000
1673144651.420,101.562,505.371,-27.832,64.941,0.000
1673144651.424,41.992,239.746,-32.715,27.832,0.000
1673144651.427,-102.539,-694.824,-30.762,-102.539,0.000
1673144651.431,-75.684,-446.289,-30.762,-95.215,0.000
1673144651.435,70.801,344.238,-31.738,37.109,0.000
1673144651.439,71.289,364.746,-30.273,56.641,0.000
1673144651.443,-73.730,-191.895,-28.320,-75.195,0.000
1673144651.447,-108.887,-345.703,-28.320,-124.512,0.000
1673144651.451,26.855,107.422,-29.785,1.953,0.000
1673144651.455,101.074,157.227,-28.320,87.402,0.000
1673144651.459,-32.227,-382.812,-27.344,-29.785,0.000
1673144651.463,-137.207,-483.887,-28.809,-138.184,0.000
1673144651.466,-21.973,-31.250,-29.297,-34.668,0.000
1673144651.470,91.309,-99.121,-30.762,77.637,0.000
1673144651.474,-6.348,-222.168,-28.320,-7.812,0.000
1673144651.478,-131.348,-239.258,-28.320,-125.977,0.000
1673144651.482,-53.711,-604.004,-26.855,-55.176,0.000
1673144651.486,82.031,-142.090,-27.832,73.242,0.000
1673144651.490,41.504,374.023,-27.832,42.480,0.000
1673144651.494,-104.980,32.227,-30.762,-91.797,0.000
1673144651.498,-93.750,-488.281,-35.645,-95.703,0.000
1673144651.502,52.246,-420.410,-32.227,42.969,0.000
1673144651.506,78.125,148.438,-29.785,73.242,0.000
1673144651.509,-54.199,206.543,-30.273,-67.383,0.000
1673144651.513,-112.793,-565.918,-34.668,-131.348,0.000
1673144651.517,22.949,-645.508,-30.762,1.953,0.000
1673144651.521,105.957,398.926,-26.855,88.867,0.000
1673144651.525,-32.715,458.008,-35.156,-30.273,0.000
1673144651.529,-140.137,-530.762,-33.691,-133.789,0.000
1673144651.533,-23.926,-546.387,-27.344,-28.809,0.000
1673144651.537,96.680,199.219,-30.762,92.773,0.000
1673144651.541,11.719,380.371,-35.645,22.461,0.000
1673144651.545,-124.023,-357.910,-40.527,-107.910,0.000
1673144651.548,-62.012,-854.004,-40.039,-69.336,0.000
1673144651.552,85.449,-84.473,-35.156,67.383,0.000
1673144651.556,58.105,549.805,-33.691,55.176,0.000
1673144651.560,-97.168,-371.582,-35.645,-73.242,0.000
1673144651.564,-104.980,-890.625,-32.227,-84.961,0.000
1673144651.568,36.133,65.430,-30.273,33.691,0.000
1673144651.572,91.797,590.332,-30.762,93.750,0.000
1673144651.576,-116.211,-283.691,-31.738,-68.848,0.000
1673144651.580,-208.496,-969.238,-26.367,-160.156,0.000
1673144651.584,102.051,153.320,-19.531,74.219,0.000
1673144651.588,185.547,923.340,-24.414,165.527,0.000
1673144651.591,-123.535,-160.645,-31.738,-71.777,0.000
1673144651.595,-248.047,-1000.000,-29.785,-193.848,0.000
1673144651.599,36.133,-498.047,-27.344,16.602,0.000
1673144651.603,211.426,503.418,-33.203,168.945,0.000
1673144651.607,-39.551,-217.773,-37.109,-6.348,0.000
1673144651.611,-266.602,-1000.000,-37.109,-202.637,0.000
1673144651.615,-58.105,-371.094,-30.273,-62.012,0.000
1673144651.619,208.496,511.230,-27.832,165.527,0.000
1673144651.623,58.594,620.605,-35.645,65.918,0.000
1673144651.627,-232.422,-309.570,-44.434,-181.641,0.000
1673144651.630,-127.441,-659.180,-41.504,-128.906,0.000
1673144651.634,187.012,245.605,-39.062,122.070,0.000
1673144651.638,136.719,769.531,-44.434,115.723,0.000
1673144651.642,-104.980,-27.832,-43.945,-76.172,0.000
1673144651.646,-137.207,-767.090,-34.668,-136.230,0.000
1673144651.650,-3.418,-915.039,-33.691,-23.438,0.000
1673144651.654,100.586,-436.035,-33.691,87.891,0.000
1673144651.658,0.000,323.242,-32.715,7.812,0.000
1673144651.662,-129.395,-259.277,-36.133,-106.934,0.000
1673144651.666,-43.945,-543.945,-29.297,-34.668,0.000
1673144651.670,97.656,11.230,-26.367,93.750,0.000
1673144651.673,32.715,258.789,-31.250,46.875,0.000
1673144651.677,-108.398,-170.410,-36.621,-89.844,0.000
1673144651.681,-73.730,-614.258,-34.668,-81.543,0.000
1673144651.685,73.242,50.293,-32.227,56.641,0.000
1673144651.689,81.543,406.738,-35.645,71.777,0.000
1673144651.693,-77.148,-333.496,-35.645,-70.801,0.000
1673144651.697,-134.766,-931.641,-32.715,-127.441,0.000
1673144651.701,11.719,-234.863,-23.438,-3.418,0.000
1673144651.705,89.355,423.828,-23.438,70.312,0.000
1673144651.709,-43.457,-109.863,-28.320,-54.199,0.000
1673144651.712,-140.625,-586.914,-34.668,-154.785,0.000
1673144651.716,-20.020,-83.008,-31.738,-43.945,0.000
1673144651.720,90.332,573.242,-24.902,80.078,0.000
1673144651.724,-14.160,229.004,-32.227,-0.488,0.000
1673144651.728,-146.484,-401.367,-35.645,-126.465,0.000
1673144651.732,-68.359,-244.629,-33.691,-57.129,0.000
1673144651.736,74.219,125.488,-32.715,70.801,0.000
1673144651.740,32.715,-320.801,-36.621,29.785,0.000
1673144651.744,-110.840,-838.867,-39.551,-105.957,0.000
1673144651.748,-93.750,-326.172,-32.715,-103.027,0.000
1673144651.752,55.664,209.473,-33.203,38.574,0.000
1673144651.755,72.754,368.164,-37.598,79.102,0.000
1673144651.759,-65.918,-80.078,-35.645,-53.711,0.000
1673144651.763,-123.047,-694.336,-31.738,-120.117,0.000
1673144651.767,6.836,-466.797,-35.645,5.371,0.000
1673144651.771,93.262,171.875,-40.039,91.309,0.000
1673144651.775,-25.879,195.801,-37.598,-15.625,0.000
1673144651.779,-129.883,-296.387,-34.668,-121.094,0.000
1673144651.783,-17.090,-470.215,-27.832,-20.020,0.000
1673144651.787,108.398,-480.957,-20.996,104.492,0.000
1673144651.791,15.137,-124.023,-23.438,26.855,0.000
1673144651.794,-121.582,-55.176,-29.297,-104.004,0.000
1673144651.798,-56.152,-436.035,-29.297,-59.082,0.000
1673144651.802,83.984,16.602,-21.973,74.219,0.000
1673144651.806,58.594,583.984,-23.438,64.453,0.000
1673144651.810,-84.961,173.340,-27.344,-71.777,0.000
1673144651.814,-95.215,-630.859,-33.203,-102.539,0.000
1673144651.818,45.410,-381.836,-30.273,29.297,0.000
1673144651.822,83.984,538.086,-21.484,78.125,0.000
1673144651.826,-65.918,204.590,-25.391,-57.617,0.000
1673144651.830,-146.973,-835.938,-29.785,-136.230,0.000
1673144651.834,-15.625,-632.812,-25.879,-14.160,0.000
1673144651.837,84.473,473.633,-22.461,91.309,0.000
1673144651.841,-34.668,402.832,-30.273,-8.789,0.000
1673144651.845,-153.320,-579.102,-36.621,-129.883,0.000
1673144651.849,-51.758,-522.949,-32.227,-49.805,0.000
1673144651.853,80.078,445.801,-33.203,74.219,0.000
1673144651.857,5.859,320.312,-38.086,19.043,0.000
1673144651.861,-134.277,-503.906,-41.016,-113.770,0.000
1673144651.865,-82.520,-433.594,-37.109,-78.613,0.000
1673144651.869,62.012,248.535,-38.086,57.129,0.000
1673144651.873,52.734,328.125,-45.898,55.176,0.000
1673144651.877,-94.238,-531.250,-44.434,-75.195,0.000
1673144651.880,-117.188,-883.301,-42.969,-104.492,0.000
1673144651.884,29.785,-0.488,-39.551,32.715,0.000
1673144651.888,95.703,432.617,-39.551,107.910,0.000
1673144651.892,-47.363,-393.066,-42.480,-16.113,0.000
1673144651.896,-164.551,-739.746,-38.574,-131.836,0.000
1673144651.900,71.289,156.250,-28.320,51.270,0.000
1673144651.904,198.730,803.223,-29.785,174.316,0.000
1673144651.908,-100.586,54.688,-38.086,-47.363,0.000
1673144651.912,-247.559,-731.445,-33.203,-190.430,0.000
1673144651.916,35.156,-210.938,-25.391,9.277,0.000
1673144651.919,226.074,643.555,-27.344,176.270,0.000
1673144651.923,-14.160,88.379,-35.645,8.789,0.000
1673144651.927,-257.812,-936.523,-39.062,-194.824,0.000
1673144651.931,-82.031,-711.914,-36.621,-83.984,0.000
1673144651.935,200.195,-53.223,-35.645,153.809,0.000
1673144651.939,72.266,58.105,-38.574,85.938,0.000
1673144651.943,-233.398,-333.496,-39.062,-163.086,0.000
1673144651.947,-168.457,-769.531,-37.109,-137.207,0.000
1673144651.951,153.809,-73.242,-34.668,113.281,0.000
1673144651.955,164.551,674.316,-34.668,145.020,0.000
1673144651.959,-153.320,174.805,-41.016,-104.492,0.000
1673144651.962,-229.980,-864.258,-44.434,-186.523,0.000
1673144651.966,74.219,-355.469,-36.133,52.246,0.000
1673144651.970,203.125,608.398,-30.762,176.270,0.000
1673144651.974,-75.195,179.688,-34.180,-24.902,0.000
1673144651.978,-256.836,-760.742,-39.551,-189.941,0.000
1673144651.982,-5.371,-941.895,-34.668,-15.625,0.000
1673144651.986,222.168,315.430,-25.879,183.105,0.000
1673144651.990,20.996,857.910,-31.738,41.016,0.000
1673144651.994,-244.141,-461.426,-36.133,-194.824,0.000
1673144651.998,-88.867,-735.840,-31.738,-102.051,0.000
1673144652.001,208.984,565.430,-25.879,147.461,0.000
1673144652.005,111.328,965.820,-28.809,103.516,0.000
1673144652.009,-207.520,-276.367,-35.156,-143.066,0.000
1673144652.013,-182.129,-959.961,-30.762,-147.461,0.000
1673144652.017,138.184,-81.055,-29.297,100.098,0.000
1673144652.021,172.363,640.625,-30.762,154.785,0.000
1673144652.025,-143.066,-230.957,-39.062,-81.543,0.000
1673144652.029,-234.375,-1000.000,-40.039,-185.059,0.000
1673144652.033,72.266,44.434,-26.855,38.574,0.000
1673144652.037,224.121,988.281,-24.902,180.176,0.000
1673144652.041,-45.898,317.871,-34.668,-18.066,0.000
1673144652.044,-254.395,-902.344,-38.574,-199.219,0.000
1673144652.048,-25.391,-533.203,-26.855,-41.992,0.000
1673144652.052,215.820,747.559,-23.926,157.715,0.000
1673144652.056,20.996,592.285,-35.156,34.180,0.000
1673144652.060,-267.090,-495.605,-37.598,-192.871,0.000
1673144652.064,-142.090,-911.621,-32.715,-123.535,0.000
1673144652.068,165.527,68.848,-31.738,125.000,0.000
1673144652.072,105.957,173.828,-30.273,112.305,0.000
1673144652.076,-210.449,-599.609,-32.715,-146.484,0.000
1673144652.080,-205.566,-659.180,-34.668,-180.176,0.000
1673144652.083,112.793,-46.875,-32.227,71.777,0.000
1673144652.087,185.547,733.398,-34.668,156.250,0.000
1673144652.091,-140.625,313.477,-37.598,-91.797,0.000
1673144652.095,-323.242,-960.449,-34.180,-254.395,0.000
1673144652.099,93.262,-443.848,-23.438,42.480,0.000
1673144652.103,344.238,-994.629,-24.414,256.836,0.000
1673144652.107,-87.891,469.727,-37.598,-37.109,0.000
1673144652.111,-409.180,-875.977,-39.551,-298.340,0.000
1673144652.115,-36.133,-1000.000,-27.344,-46.387,0.000
1673144652.119,358.887,150.391,-21.973,268.066,0.000
1673144652.123,60.547,825.684,-29.297,76.172,0.000
1673144652.126,-389.160,-600.586,-36.621,-268.066,0.000
1673144652.130,-171.875,-887.695,-33.203,-143.555,0.000
1673144652.134,321.777,570.312,-30.762,223.633,0.000
1673144652.138,199.707,898.438,-39.062,169.434,0.000
1673144652.142,-317.871,-479.980,-43.945,-218.750,0.000
1673144652.146,-274.414,-995.605,-34.180,-226.562,0.000
1673144652.150,241.211,226.562,-23.926,159.180,0.000
1673144652.154,298.340,-907.227,-29.297,238.770,0.000
1673144652.158,-192.383,-8.789,-42.969,-119.141,0.000
1673144652.162,-380.859,-1000.000,-47.363,-285.645,0.000
1673144652.165,77.148,-180.176,-35.156,39.062,0.000
1673144652.169,356.445,-867.676,-30.273,265.137,0.000
1673144652.173,-50.293,408.691,-41.504,-19.043,0.000
1673144652.177,-405.762,-1000.000,-42.969,-309.082,0.000
1673144652.181,-64.453,-581.055,-27.832,-75.684,0.000
1673144652.185,364.746,906.250,-23.438,251.465,0.000
1673144652.189,99.121,592.285,-32.715,84.473,0.000
1673144652.193,-400.391,-823.242,-42.969,-282.227,0.000
1673144652.197,-217.773,-867.188,-37.109,-186.035,0.000
1673144652.201,208.008,446.777,-30.762,140.625,0.000
1673144652.205,148.438,495.117,-36.133,135.742,0.000
1673144652.208,-173.340,-703.613,-38.086,-113.770,0.000
1673144652.212,-226.074,-948.730,-34.668,-188.477,0.000
1673144652.216,89.844,21.484,-29.297,48.828,0.000
1673144652.220,216.309,696.777,-27.344,170.410,0.000
1673144652.224,-63.965,163.574,-29.297,-38.086,0.000
1673144652.228,-239.746,-612.793,-33.691,-193.359,0.000
1673144652.232,6.348,-557.129,-33.691,-10.254,0.000
1673144652.236,228.027,403.320,-29.785,179.688,0.000
1673144652.240,26.367,583.984,-31.250,41.016,0.000
1673144652.244,-229.980,-460.938,-31.738,-180.664,0.000
1673144652.247,-74.219,-741.699,-26.367,-84.473,0.000
1673144652.251,213.379,35.156,-23.926,165.039,0.000
1673144652.255,118.652,557.617,-28.320,118.164,0.000
1673144652.259,-197.754,-106.445,-32.715,-140.625,0.000
1673144652.263,-169.922,-1000.000,-28.809,-149.414,0.000
1673144652.267,148.438,-300.293,-24.902,102.539,0.000
1673144652.271,171.875,972.168,-28.809,151.855,0.000
1673144652.275,-133.789,348.633,-30.762,-87.891,0.000
1673144652.279,-222.656,-945.801,-24.902,-180.664,0.000
1673144652.283,70.312,-464.844,-20.996,42.969,0.000
1673144652.287,216.309,946.289,-21.973,176.270,0.000
1673144652.290,-55.664,553.223,-26.855,-18.555,0.000
1673144652.294,-260.254,-781.738,-33.203,-202.148,0.000
1673144652.298,-26.367,-818.359,-28.320,-48.340,0.000
1673144652.302,223.633,340.332,-24.414,156.738,0.000
1673144652.306,58.105,619.141,-31.250,44.434,0.000
1673144652.310,-251.465,-607.910,-35.156,-198.242,0.000
1673144652.314,-119.629,-784.668,-32.715,-112.305,0.000
1673144652.318,312.988,672.363,-32.227,219.238,0.000
1673144652.322,173.828,822.754,-33.691,143.066,0.000
1673144652.326,-331.543,-572.266,-36.133,-233.398,0.000
1673144652.329,-257.324,-964.355,-34.180,-216.797,0.000
1673144652.333,262.207,357.910,-27.344,165.039,0.000
1673144652.337,286.133,-957.031,-35.645,223.145,0.000
1673144652.341,-219.238,-133.789,-46.387,-137.695,0.000
1673144652.345,-342.285,-1000.000,-42.480,-264.648,0.000
1673144652.349,139.160,-231.934,-31.738,75.195,0.000
1673144652.353,361.328,991.699,-28.320,276.367,0.000
1673144652.357,-67.871,148.926,-36.133,-17.090,0.000
1673144652.361,-384.277,-1000.000,-32.715,-282.715,0.000
1673144652.365,-9.766,-430.176,-19.531,-29.785,0.000
1673144652.369,395.020,848.145,-19.531,295.410,0.000
1673144652.372,71.289,279.297,-34.180,88.867,0.000
1673144652.376,-410.156,-898.926,-38.086,-281.738,0.000
1673144652.380,-187.500,-756.836,-30.273,-157.715,0.000
1673144652.384,306.641,527.344,-31.250,208.008,0.000
1673144652.388,184.082,926.270,-40.527,149.414,0.000
1673144652.392,-320.312,-347.168,-47.363,-235.352,0.000
1673144652.396,-297.852,-1000.000,-41.992,-261.230,0.000
1673144652.400,212.891,-164.551,-34.668,116.211,0.000
1673144652.404,297.852,-967.285,-35.645,214.355,0.000
1673144652.408,-189.453,271.484,-40.039,-130.859,0.000
1673144652.411,-377.930,-1000.000,-37.598,-291.504,0.000
1673144652.415,72.754,-759.277,-28.320,40.039,0.000
1673144652.419,344.727,592.285,-30.762,267.090,0.000
1673144652.423,-63.965,583.008,-40.039,-23.926,0.000
1673144652.427,-416.016,-873.535,-40.527,-312.012,0.000
1673144652.431,-58.105,-763.672,-34.180,-79.102,0.000
1673144652.435,340.820,734.863,-28.809,240.723,0.000
1673144652.439,72.266,681.152,-38.574,74.219,0.000
1673144652.443,-372.070,-785.156,-41.992,-268.066,0.000
1673144652.447,-208.984,-871.582,-26.367,-177.246,0.000
1673144652.451,289.062,455.078,-18.066,199.219,0.000
1673144652.454,222.168,-912.109,-29.297,184.570,0.000
1673144652.458,-285.645,-123.535,-40.527,-195.801,0.000
1673144652.462,-318.848,-1000.000,-36.621,-260.254,0.000
1673144652.466,189.453,104.004,-28.809,101.074,0.000
1673144652.470,333.496,-809.570,-29.297,237.305,0.000
1673144652.474,-135.254,151.367,-36.621,-86.914,0.000
1673144652.478,-381.836,-1000.000,-41.016,-287.598,0.000
1673144652.482,31.738,-312.012,-35.156,0.977,0.000
1673144652.486,351.074,-936.035,-33.691,259.766,0.000
1673144652.490,-12.207,256.348,-43.945,9.277,0.000
1673144652.493,-404.785,-1000.000,-45.410,-301.758,0.000
1673144652.497,-97.168,-621.094,-34.180,-105.469,0.000
1673144652.501,357.910,875.488,-32.715,252.930,0.000
1673144652.505,134.766,393.555,-43.457,122.559,0.000
1673144652.509,-360.352,-1000.000,-47.852,-267.578,0.000
1673144652.513,-233.398,-990.723,-39.062,-218.262,0.000
1673144652.517,270.996,140.137,-33.203,163.086,0.000
1673144652.521,246.582,-946.777,-32.227,179.688,0.000
1673144652.525,-255.859,15.137,-42.480,-204.590,0.000
1673144652.529,-337.402,-1000.000,-40.039,-302.734,0.000
1673144652.533,148.926,-345.215,-26.367,61.523,0.000
1673144652.536,322.754,942.383,-29.785,226.074,0.000
1673144652.540,-126.953,379.395,-41.504,-93.750,0.000
1673144652.544,-401.855,-990.234,-37.109,-321.777,0.000
1673144652.548,2.930,-665.039,-23.926,-38.086,0.000
1673144652.552,361.816,594.238,-24.902,250.977,0.000
1673144652.556,18.555,719.238,-30.273,21.973,0.000
1673144652.560,-404.297,-628.418,-32.227,-308.594,0.000
1673144652.564,-135.254,-922.852,-23.926,-127.441,0.000
1673144652.568,339.844,462.402,-14.160,251.953,0.000
1673144652.572,166.016,-999.023,-23.438,157.715,0.000
1673144652.575,-342.285,-274.414,-32.227,-220.215,0.000
1673144652.579,-271.484,-1000.000,-23.438,-199.219,0.000
1673144652.583,244.629,60.059,-15.625,181.152,0.000
1673144652.587,284.668,-860.840,-17.090,236.328,0.000
1673144652.591,-208.984,182.129,-25.879,-128.906,0.000
1673144652.595,-350.098,-1000.000,-28.320,-252.441,0.000
1673144652.599,119.629,-320.312,-17.578,95.703,0.000
1673144652.603,350.586,-915.527,-18.555,287.109,0.000
1673144652.607,-86.426,332.520,-33.691,-25.391,0.000
1673144652.611,-405.273,-1000.000,-37.598,-288.574,0.000
1673144652.615,-25.879,-470.215,-25.879,-35.645,0.000
1673144652.618,364.258,970.703,-22.461,277.832,0.000
1673144652.622,63.965,672.363,-38.574,83.496,0.000
1673144652.626,-385.254,-810.059,-45.410,-277.832,0.000
1673144652.630,-167.480,-813.477,-34.668,-158.203,0.000
1673144652.634,322.754,642.578,-29.297,218.262,0.000
1673144652.638,196.777,868.652,-38.574,163.574,0.000
1673144652.642,-316.895,-582.031,-48.340,-218.262,0.000
1673144652.646,-288.574,-1000.000,-43.457,-247.070,0.000
1673144652.650,231.934,301.270,-36.621,126.465,0.000
1673144652.654,295.898,955.566,-40.039,213.379,0.000
1673144652.657,-147.949,-2.441,-44.434,-103.027,0.000
1673144652.661,-286.133,-785.156,-47.363,-241.699,0.000
1673144652.665,15.625,-201.660,-46.875,-24.414,0.000
1673144652.669,198.730,594.238,-41.016,146.973,0.000
1673144652.673,-32.227,88.867,-45.410,-15.137,0.000
1673144652.677,-258.301,-839.844,-47.852,-212.891,0.000
1673144652.681,-75.684,-506.348,-41.992,-91.309,0.000
1673144652.685,200.684,104.492,-38.086,150.879,0.000
1673144652.689,71.289,8.789,-43.457,79.590,0.000
1673144652.693,-238.281,-293.457,-49.316,-171.875,0.000
1673144652.697,-170.898,-658.691,-41.992,-147.949,0.000
1673144652.700,145.020,-22.461,-33.203,102.051,0.000
1673144652.704,162.109,842.285,-30.762,147.461,0.000
1673144652.708,-213.867,75.684,-39.062,-137.207,0.000
1673144652.712,-311.523,-1000.000,-39.551,-243.652,0.000
1673144652.716,178.223,-113.281,-30.762,117.188,0.000
1673144652.720,322.754,-894.043,-31.250,251.953,0.000
1673144652.724,-154.785,84.961,-38.086,-97.656,0.000
1673144652.728,-386.719,-1000.000,-38.086,-301.270,0.000
1673144652.732,39.062,-666.016,-25.879,6.348,0.000
1673144652.736,346.191,762.695,-20.020,269.531,0.000
1673144652.739,4.883,801.270,-22.461,32.227,0.000
1673144652.743,-301.758,-565.918,-26.367,-222.168,0.000
1673144652.747,-98.633,-732.422,-23.438,-95.215,0.000
1673144652.751,198.242,577.148,-17.090,143.066,0.000
1673144652.755,101.562,-983.398,-20.996,101.562,0.000
1673144652.759,-217.773,-182.617,-30.273,-151.855,0.000
1673144652.763,-177.246,-912.598,-29.297,-153.320,0.000
1673144652.767,166.992,76.660,-20.996,117.676,0.000
1673144652.771,189.453,778.320,-19.043,162.109,0.000
1673144652.775,-149.414,-229.492,-32.227,-99.121,0.000
1673144652.779,-249.512,-998.535,-34.180,-197.754,0.000
1673144652.782,52.246,27.832,-21.484,24.902,0.000
1673144652.786,200.684,-983.398,-23.438,165.039,0.000
1673144652.790,-72.266,354.980,-30.273,-25.391,0.000
1673144652.794,-283.203,-952.637,-28.809,-203.125,0.000
1673144652.798,-39.551,-496.582,-21.973,-40.039,0.000
1673144652.802,220.703,823.730,-20.508,171.875,0.000
1673144652.806,24.902,680.176,-32.227,49.805,0.000
1673144652.810,-262.207,-371.094,-36.133,-184.570,0.000
1673144652.814,-128.906,-777.344,-29.785,-108.887,0.000
1673144652.818,191.895,189.453,-28.809,144.531,0.000
1673144652.822,126.465,201.660,-30.273,127.441,0.000
1673144652.825,-208.496,-659.180,-30.762,-136.230,0.000
1673144652.829,-203.613,-613.281,-29.297,-177.734,0.000
1673144652.833,127.441,150.879,-25.391,73.242,0.000
1673144652.837,194.336,860.352,-25.879,154.297,0.000
1673144652.841,-116.699,361.816,-32.715,-83.496,0.000
1673144652.845,-244.629,-570.801,-33.691,-206.055,0.000
1673144652.849,44.922,-312.988,-26.367,11.719,0.000
1673144652.853,224.609,747.070,-22.461,173.340,0.000
1673144652.857,-32.227,642.090,-27.832,-2.930,0.000
1673144652.861,-258.789,-628.906,-29.297,-203.613,0.000
1673144652.864,-43.457,-1000.000,-22.461,-67.383,0.000
1673144652.868,225.586,-117.188,-22.949,163.086,0.000
1673144652.872,59.082,893.066,-25.879,58.105,0.000
1673144652.876,-247.070,-228.516,-33.203,-192.383,0.000
1673144652.880,-144.531,-942.871,-30.762,-142.090,0.000
1673144652.884,172.363,306.152,-24.414,108.398,0.000
1673144652.888,134.766,909.180,-26.855,116.699,0.000
1673144652.892,-187.988,-282.227,-29.785,-136.230,0.000
1673144652.896,-224.609,-949.707,-25.879,-198.242,0.000
1673144652.900,95.703,133.789,-21.484,51.270,0.000
1673144652.904,198.242,-943.359,-22.949,159.668,0.000
1673144652.907,-112.305,122.559,-31.250,-75.195,0.000
1673144652.911,-269.531,-1000.000,-30.762,-219.238,0.000
1673144652.915,17.578,-283.691,-20.508,-13.672,0.000
1673144652.919,224.609,998.535,-21.484,169.434,0.000
1673144652.923,-6.836,582.031,-30.273,9.277,0.000
1673144652.927,-242.188,-747.070,-29.297,-200.684,0.000
1673144652.931,-57.617,-635.254,-19.043,-77.637,0.000
1673144652.935,214.355,572.754,-15.625,156.738,0.000
1673144652.939,84.961,587.402,-22.949,85.938,0.000
1673144652.943,-224.121,-458.984,-29.297,-161.133,0.000
1673144652.946,-151.855,-654.785,-27.344,-137.695,0.000
1673144652.950,177.246,451.172,-21.973,121.094,0.000
1673144652.954,174.805,537.109,-26.855,150.391,0.000
1673144652.958,-154.297,-525.879,-32.715,-112.793,0.000
1673144652.962,-224.609,-748.535,-31.738,-201.172,0.000
1673144652.966,86.426,117.676,-25.879,47.852,0.000
1673144652.970,213.867,606.445,-27.344,181.152,0.000
1673144652.974,-70.312,68.848,-31.738,-41.992,0.000
1673144652.978,-251.465,-572.754,-33.203,-213.867,0.000
1673144652.982,11.719,-537.109,-29.785,-20.996,0.000
1673144652.986,219.238,525.391,-29.785,163.086,0.000
1673144652.989,-4.883,581.543,-37.109,15.137,0.000
1673144652.993,-252.930,-572.754,-44.434,-200.195,0.000
1673144652.997,-94.727,-673.340,-39.062,-106.445,0.000
1673144653.001,205.078,215.820,-30.273,145.020,0.000
1673144653.005,111.328,675.781,-34.668,97.168,0.000
1673144653.009,-204.102,-58.594,-38.574,-159.668,0.000
1673144653.013,-169.434,-859.863,-35.156,-160.645,0.000
1673144653.017,156.250,-331.543,-29.785,92.773,0.000
1673144653.021,186.523,871.582,-24.902,148.926,0.000
1673144653.025,-133.789,349.121,-30.762,-97.168,0.000
1673144653.028,-234.863,-939.453,-37.598,-208.984,0.000
1673144653.032,64.941,-286.133,-30.762,25.391,0.000
1673144653.036,214.844,-982.910,-23.926,175.781,0.000
1673144653.040,-60.547,604.980,-26.855,-28.809,0.000
1673144653.044,-255.371,-690.918,-27.832,-197.266,0.000
1673144653.048,-58.105,-814.453,-22.461,-55.176,0.000
1673144653.052,109.863,-64.941,-20.508,95.703,0.000
1673144653.056,45.410,274.414,-20.996,57.129,0.000
1673144653.060,-97.168,-441.406,-23.438,-75.684,0.000
1673144653.064,-108.887,-856.934,-26.367,-96.680,0.000
1673144653.068,34.180,177.246,-21.973,38.086,0.000
1673144653.071,75.195,792.969,-21.484,90.820,0.000
1673144653.075,-63.965,35.156,-28.320,-43.457,0.000
1673144653.079,-134.766,-580.566,-27.832,-125.000,0.000
1673144653.083,0.000,82.520,-25.879,-10.254,0.000
1673144653.087,99.121,607.910,-28.809,86.914,0.000
1673144653.091,-12.207,173.828,-35.156,-17.090,0.000
1673144653.095,-127.441,-587.891,-34.668,-137.695,0.000
1673144653.099,-27.832,-439.941,-28.320,-51.758,0.000
1673144653.103,93.750,234.375,-24.902,74.707,0.000
1673144653.107,5.859,-253.418,-24.414,17.578,0.000
1673144653.110,-140.625,-507.324,-24.902,-108.887,0.000
1673144653.114,-91.797,-77.148,-24.414,-74.707,0.000
1673144653.118,61.523,114.258,-22.461,64.941,0.000
1673144653.122,54.688,312.500,-22.461,71.289,0.000
1673144653.126,-87.891,141.113,-25.879,-61.523,0.000
1673144653.130,-104.492,-229.492,-27.832,-93.750,0.000
1673144653.134,34.180,-83.496,-24.902,29.297,0.000
1673144653.138,111.816,420.410,-25.391,105.957,0.000
1673144653.142,-83.008,-21.973,-28.320,-52.734,0.000
1673144653.146,-193.848,-917.480,-28.320,-163.086,0.000
1673144653.150,117.188,-638.184,-24.414,75.195,0.000
1673144653.153,209.473,248.535,-20.996,175.781,0.000
1673144653.157,-93.262,250.488,-26.367,-60.547,0.000
1673144653.161,-222.168,-921.387,-23.926,-191.895,0.000
1673144653.165,40.039,-533.691,-16.113,4.395,0.000
1673144653.169,229.004,644.531,-19.531,180.176,0.000
1673144653.173,-10.254,531.250,-25.391,15.625,0.000
1673144653.177,-257.324,-589.355,-31.738,-189.453,0.000
1673144653.181,-72.266,-673.828,-24.414,-64.941,0.000
1673144653.185,203.613,645.996,-21.973,166.016,0.000
1673144653.189,76.172,739.746,-32.715,91.309,0.000
1673144653.192,-229.492,-551.758,-40.039,-161.621,0.000
1673144653.196,-164.062,-1000.000,-39.062,-138.672,0.000
1673144653.200,156.738,191.406,-26.855,115.234,0.000
1673144653.204,152.832,-888.672,-22.461,140.625,0.000
1673144653.208,-166.504,53.711,-28.320,-99.609,0.000
1673144653.212,-229.980,-977.539,-30.273,-181.152,0.000
1673144653.216,77.637,-160.156,-32.227,41.504,0.000
1673144653.220,200.195,-994.629,-38.574,163.086,0.000
1673144653.224,-78.125,331.055,-43.457,-48.828,0.000
1673144653.228,-244.141,-862.793,-41.016,-208.984,0.000
1673144653.232,4.883,-346.680,-38.086,-27.832,0.000
1673144653.235,222.656,661.133,-37.598,165.527,0.000
1673144653.239,12.695,93.750,-41.016,30.273,0.000
1673144653.243,-258.789,-1000.000,-45.410,-197.266,0.000
1673144653.247,-101.074,-541.992,-41.992,-107.910,0.000
1673144653.251,198.242,610.352,-37.109,136.719,0.000
1673144653.255,98.145,786.621,-35.156,87.402,0.000
1673144653.259,-226.562,-165.527,-39.062,-163.086,0.000
1673144653.263,-197.266,-805.176,-36.621,-161.133,0.000
1673144653.267,126.953,-64.941,-30.273,92.773,0.000
1673144653.271,161.621,645.020,-33.691,140.137,0.000
1673144653.274,-154.297,24.414,-34.668,-99.609,0.000
1673144653.278,-246.094,-661.621,-32.227,-199.219,0.000
1673144653.282,63.477,-240.723,-24.902,27.832,0.000
1673144653.286,209.961,121.094,-21.973,175.781,0.000
1673144653.290,-62.500,-45.410,-31.250,-22.461,0.000
1673144653.294,-270.508,-440.430,-35.645,-208.984,0.000
1673144653.298,-39.062,-444.824,-34.668,-43.945,0.000
1673144653.302,213.379,535.645,-33.203,163.086,0.000
1673144653.306,31.738,799.805,-34.180,43.945,0.000
1673144653.310,-240.234,-256.348,-38.086,-185.059,0.000
1673144653.314,-107.910,-767.090,-33.203,-111.328,0.000
1673144653.317,191.406,269.531,-24.902,148.438,0.000
1673144653.321,122.559,-976.074,-28.809,112.793,0.000
1673144653.325,-194.824,-98.145,-36.133,-147.949,0.000
1673144653.329,-191.895,-1000.000,-35.156,-164.062,0.000
1673144653.333,128.906,-287.598,-27.344,82.520,0.000
1673144653.337,196.777,948.242,-24.414,161.133,0.000
1673144653.341,-111.816,308.594,-32.715,-75.684,0.000
1673144653.345,-237.793,-936.035,-33.691,-197.754,0.000
1673144653.349,47.363,-235.352,-28.809,13.672,0.000
1673144653.353,221.191,947.266,-31.738,163.574,0.000
1673144653.356,-29.297,375.000,-33.203,-12.207,0.000
1673144653.360,-260.254,-909.668,-30.273,-200.195,0.000
1673144653.364,-56.641,-505.859,-20.508,-58.105,0.000
1673144653.368,205.566,808.105,-15.625,162.109,0.000
1673144653.372,47.852,725.098,-27.832,59.570,0.000
1673144653.376,-244.629,-651.855,-28.320,-171.875,0.000
1673144653.380,-142.090,-925.293,-19.043,-116.211,0.000
1673144653.384,175.781,291.016,-19.531,126.953,0.000
1673144653.388,140.625,791.992,-28.320,129.883,0.000
1673144653.392,-187.012,-343.750,-33.203,-124.023,0.000
1673144653.396,-226.074,-840.332,-35.645,-183.594,0.000
1673144653.399,95.215,228.027,-32.227,62.012,0.000
1673144653.403,189.941,776.855,-26.855,163.574,0.000
1673144653.407,-104.004,-184.082,-30.273,-65.918,0.000
1673144653.411,-245.605,-776.367,-29.297,-208.984,0.000
1673144653.415,21.484,-156.738,-26.855,-5.371,0.000
1673144653.419,215.820,613.281,-28.320,179.688,0.000
1673144653.423,-15.625,107.422,-32.715,18.555,0.000
1673144653.427,-250.488,-823.242,-31.250,-193.848,0.000
1673144653.431,-54.688,-566.406,-28.320,-71.777,0.000
1673144653.435,223.145,300.781,-28.809,160.156,0.000
1673144653.438,80.566,375.977,-31.250,85.449,0.000
1673144653.442,-230.957,-375.488,-38.086,-160.156,0.000
1673144653.446,-152.344,-625.977,-36.133,-138.184,0.000
1673144653.450,159.668,-188.965,-31.250,115.234,0.000
1673144653.454,144.531,475.098,-31.250,137.695,0.000
1673144653.458,-168.457,212.402,-35.156,-120.117,0.000
1673144653.462,-229.980,-809.082,-35.156,-197.754,0.000
1673144653.466,76.172,-213.867,-26.367,39.551,0.000
1673144653.470,197.754,729.980,-25.879,162.109,0.000
1673144653.474,-79.590,147.461,-33.203,-51.270,0.000
1673144653.478,-252.441,-897.461,-37.109,-217.773,0.000
1673144653.481,-2.441,-541.016,-32.715,-36.133,0.000
1673144653.485,220.215,817.871,-28.320,160.645,0.000
1673144653.489,8.789,840.820,-28.809,21.484,0.000
1673144653.493,-253.906,-502.930,-33.691,-194.336,0.000
1673144653.497,-89.844,-789.551,-28.809,-86.426,0.000
1673144653.501,202.148,556.152,-21.973,145.996,0.000
1673144653.505,101.074,985.352,-29.297,97.168,0.000
1673144653.509,-208.984,-261.719,-32.715,-141.602,0.000
1673144653.513,-172.852,-906.738,-28.809,-146.484,0.000
1673144653.517,142.090,80.078,-21.973,99.121,0.000
1673144653.520,170.410,712.402,-23.438,152.832,0.000
1673144653.524,-146.484,-229.004,-31.250,-87.891,0.000
1673144653.528,-238.281,-1000.000,-33.203,-184.570,0.000
1673144653.532,59.082,-63.477,-28.320,42.969,0.000
1673144653.536,213.379,-998.047,-22.949,187.500,0.000
1673144653.540,-49.316,45.898,-29.785,-7.812,0.000
1673144653.544,-250.000,-1000.000,-31.738,-196.289,0.000
1673144653.548,-13.672,-550.293,-29.785,-41.016,0.000
1673144653.552,230.957,552.734,-31.250,164.551,0.000
1673144653.556,36.621,574.219,-35.645,37.598,0.000
1673144653.560,-245.605,-443.848,-35.645,-194.336,0.000
1673144653.563,-109.863,-856.445,-27.832,-118.652,0.000
1673144653.567,196.777,66.406,-24.902,125.977,0.000
1673144653.571,123.535,596.191,-29.785,104.004,0.000
1673144653.575,-198.242,-122.070,-36.133,-149.902,0.000
1673144653.579,-185.059,-566.895,-34.668,-179.688,0.000
1673144653.583,127.441,7.324,-32.715,70.801,0.000
1673144653.587,172.852,363.770,-35.156,148.438,0.000
1673144653.591,-132.812,77.637,-34.180,-91.309,0.000
1673144653.595,-247.559,-621.094,-33.691,-220.703,0.000
1673144653.599,41.016,-383.789,-30.762,-3.418,0.000
1673144653.602,206.055,714.355,-30.762,153.809,0.000
1673144653.606,-51.758,456.543,-37.109,-28.320,0.000
1673144653.610,-262.207,-838.379,-40.039,-211.914,0.000
1673144653.614,-47.363,-957.520,-31.738,-68.848,0.000
1673144653.618,212.891,316.895,-26.855,149.902,0.000
1673144653.622,50.781,871.582,-30.762,60.059,0.000
1673144653.626,-246.582,-247.070,-39.551,-177.734,0.000
1673144653.630,-139.160,-1000.000,-38.086,-126.953,0.000
1673144653.634,177.734,-31.738,-30.273,127.441,0.000
1673144653.638,147.949,851.074,-35.645,129.395,0.000
1673144653.642,-162.109,-353.516,-39.062,-119.629,0.000
1673144653.645,-194.336,-1000.000,-40.527,-173.828,0.000
1673144653.649,120.117,110.352,-33.691,75.195,0.000
1673144653.653,216.797,-982.422,-27.832,179.199,0.000
1673144653.657,-86.426,56.641,-34.668,-44.434,0.000
1673144653.661,-246.582,-1000.000,-38.574,-193.359,0.000
1673144653.665,20.020,-448.242,-31.738,-3.418,0.000
1673144653.669,214.355,916.016,-30.762,172.363,0.000
1673144653.673,-21.484,537.598,-39.551,12.207,0.000
1673144653.677,-258.789,-913.574,-43.457,-195.801,0.000
1673144653.681,-67.871,-609.375,-35.645,-75.195,0.000
1673144653.684,200.684,747.070,-33.203,154.785,0.000
1673144653.688,65.430,666.992,-39.551,74.707,0.000
1673144653.692,-231.934,-515.625,-39.551,-168.945,0.000
1673144653.696,-152.832,-707.520,-34.668,-137.695,0.000
1673144653.700,81.543,160.645,-32.227,61.035,0.000
1673144653.704,99.121,203.125,-34.180,103.027,0.000
1673144653.708,-44.434,-325.195,-43.457,-28.809,0.000
1673144653.712,-148.438,-344.727,-45.410,-132.812,0.000
1673144653.716,-30.273,-17.578,-39.551,-33.691,0.000
1673144653.720,91.797,-132.812,-38.574,84.961,0.000
1673144653.724,-2.930,-307.129,-38.086,4.883,0.000
1673144653.727,-127.441,-105.469,-40.039,-118.652,0.000
1673144653.731,-55.176,-381.836,-41.992,-50.293,0.000
1673144653.735,85.938,-52.246,-39.551,79.102,0.000
1673144653.739,29.785,462.402,-38.086,32.715,0.000
1673144653.743,-198.730,-236.816,-40.527,-158.691,0.000
1673144653.747,-94.727,-598.633,-35.156,-91.797,0.000
1673144653.751,209.473,133.789,-31.738,162.598,0.000
1673144653.755,102.051,542.480,-35.645,110.352,0.000
1673144653.759,-218.750,-75.195,-40.039,-162.598,0.000
1673144653.763,-181.152,-881.348,-41.016,-171.875,0.000
1673144653.767,135.254,-359.375,-35.156,99.121,0.000
1673144653.770,164.551,729.004,-31.250,151.855,0.000
1673144653.774,-144.043,-48.828,-38.086,-99.609,0.000
1673144653.778,-243.164,-1000.000,-40.039,-209.473,0.000
1673144653.782,57.129,-289.551,-32.715,22.461,0.000
1673144653.786,220.703,990.234,-30.273,167.969,0.000
1673144653.790,-50.293,559.570,-40.039,-40.527,0.000
1673144653.794,-257.812,-748.047,-41.016,-219.727,0.000
1673144653.798,-18.555,-819.336,-32.715,-50.781,0.000
1673144653.802,222.656,492.188,-35.645,166.016,0.000
1673144653.806,22.461,789.062,-42.480,42.480,0.000
1673144653.809,-253.418,-578.125,-41.992,-186.523,0.000
1673144653.813,-119.629,-843.262,-35.156,-110.840,0.000
1673144653.817,99.609,244.629,-29.297,75.684,0.000
1673144653.821,85.938,713.379,-28.809,91.797,0.000
1673144653.825,-57.129,-53.711,-30.762,-35.156,0.000
1673144653.829,-136.230,-761.230,-32.227,-121.582,0.000
1673144653.833,-5.859,-210.938,-26.855,-7.324,0.000
1673144653.837,93.750,504.395,-20.508,97.656,0.000
1673144653.841,-19.531,160.645,-21.484,-6.348,0.000
1673144653.845,-126.465,-696.289,-20.996,-116.211,0.000
1673144653.849,-22.461,-507.324,-16.113,-30.762,0.000
1673144653.852,100.098,321.289,-20.020,89.355,0.000
1673144653.856,23.926,-247.559,-23.926,24.902,0.000
1673144653.860,-103.027,-605.957,-18.555,-109.375,0.000
1673144653.864,-50.293,-189.453,-15.625,-74.219,0.000
1673144653.868,84.473,87.891,-17.578,65.918,0.000
1673144653.872,66.895,350.586,-20.996,75.195,0.000
1673144653.876,-80.078,132.812,-23.926,-59.082,0.000
1673144653.880,-100.586,-260.742,-19.043,-94.727,0.000
1673144653.884,44.434,-156.250,-10.742,36.133,0.000
1673144653.888,88.867,112.305,-14.160,97.656,0.000
1673144653.891,-47.363,-179.199,-24.414,-31.250,0.000
1673144653.895,-125.000,-623.047,-30.273,-126.953,0.000
1673144653.899,-6.348,-782.715,-29.785,-12.695,0.000
1673144653.903,85.938,-444.336,-32.715,89.844,0.000
1673144653.907,-25.391,274.414,-40.039,-14.160,0.000
1673144653.911,-151.367,-136.230,-48.340,-134.277,0.000
1673144653.915,-62.012,-352.051,-46.875,-61.523,0.000
1673144653.919,72.266,77.148,-41.504,64.941,0.000
1673144653.923,9.766,249.512,-43.945,24.414,0.000
1673144653.927,-124.512,-165.527,-38.574,-102.539,0.000
1673144653.931,-89.355,-514.648,-32.715,-77.148,0.000
1673144653.934,55.664,166.016,-35.645,60.059,0.000
1673144653.938,62.988,407.227,-42.480,66.406,0.000
1673144653.942,-84.473,-348.633,-41.016,-67.383,0.000
1673144653.946,-126.953,-938.965,-31.738,-110.840,0.000
1673144653.950,19.043,-220.703,-25.879,14.160,0.000
1673144653.954,90.820,742.676,-24.414,87.891,0.000
1673144653.958,-40.527,145.508,-21.484,-28.320,0.000
1673144653.962,-139.160,-618.652,-23.438,-123.535,0.000
1673144653.966,-15.137,-96.191,-22.949,-19.043,0.000
1673144653.970,105.469,594.727,-20.996,94.727,0.000
1673144653.973,6.836,240.723,-23.438,14.160,0.000
1673144653.977,-122.559,-494.629,-26.855,-104.492,0.000
1673144653.981,-45.898,-366.699,-28.320,-41.016,0.000
1673144653.985,94.727,47.363,-29.785,84.961,0.000
1673144653.989,50.293,-334.473,-37.598,51.270,0.000
1673144653.993,-92.285,-852.051,-35.156,-79.102,0.000
1673144653.997,-66.895,-579.102,-26.855,-75.684,0.000
1673144654.001,79.102,-231.934,-28.809,58.105,0.000
1673144654.005,87.402,152.832,-27.832,84.473,0.000
1673144654.009,-60.059,21.973,-33.691,-51.758,0.000
1673144654.013,-113.281,-588.379,-37.109,-112.305,0.000
1673144654.016,21.973,-482.422,-33.203,15.137,0.000
1673144654.020,101.074,251.953,-29.785,102.539,0.000
1673144654.024,-28.320,294.434,-34.180,-17.090,0.000
1673144654.028,-131.836,-244.141,-40.039,-121.582,0.000
1673144654.032,-14.648,-447.754,-35.645,-23.438,0.000
1673144654.036,101.562,-408.691,-31.250,97.656,0.000
1673144654.040,4.883,-32.227,-33.203,23.926,0.000
1673144654.044,-133.301,114.258,-35.645,-106.934,0.000
1673144654.048,-63.477,-231.445,-31.250,-56.152,0.000
1673144654.052,83.984,88.379,-31.250,79.102,0.000
1673144654.055,49.316,437.500,-34.668,62.500,0.000
1673144654.059,-117.188,127.930,-37.598,-90.332,0.000
1673144654.063,-121.094,-431.641,-35.645,-110.352,0.000
1673144654.067,121.582,171.387,-32.715,88.379,0.000
1673144654.071,97.656,963.867,-39.062,96.191,0.000
1673144654.075,-225.586,-27.344,-46.875,-164.551,0.000
1673144654.079,-212.891,-1000.000,-42.480,-186.035,0.000
1673144654.083,117.188,-390.625,-30.273,72.266,0.000
1673144654.087,181.152,997.559,-33.691,145.996,0.000
1673144654.091,-134.277,276.855,-41.016,-87.891,0.000
1673144654.095,-258.301,-937.988,-40.527,-206.543,0.000
1673144654.098,34.668,-223.145,-35.156,9.277,0.000
1673144654.102,210.449,-992.188,-30.762,172.363,0.000
1673144654.106,-43.457,327.148,-34.668,-6.836,0.000
1673144654.110,-266.113,-970.215,-41.016,-206.055,0.000
1673144654.114,-50.781,-519.531,-39.551,-60.059,0.000
1673144654.118,220.703,794.434,-34.668,166.992,0.000
1673144654.122,63.477,762.207,-37.109,71.289,0.000
1673144654.126,-243.164,-634.766,-36.621,-172.852,0.000
1673144654.130,-140.625,-914.551,-30.762,-126.953,0.000
1673144654.134,182.617,459.473,-24.902,125.977,0.000
1673144654.137,148.926,876.465,-26.855,128.906,0.000
1673144654.141,-180.664,-503.418,-33.691,-125.000,0.000
1673144654.145,-219.727,-995.605,-29.297,-176.270,0.000
1673144654.149,99.121,205.078,-24.414,68.848,0.000
1673144654.153,199.707,868.164,-27.344,173.340,0.000
1673144654.157,-100.098,78.613,-34.668,-59.570,0.000
1673144654.161,-225.586,-650.391,-34.180,-193.848,0.000
1673144654.165,13.672,-430.664,-25.879,-11.230,0.000
1673144654.169,138.672,49.805,-26.367,117.676,0.000
1673144654.173,42.480,38.086,-27.344,48.340,0.000
1673144654.177,-109.375,-336.426,-25.391,-85.938,0.000
1673144654.180,-78.613,-222.656,-20.508,-65.918,0.000
1673144654.184,77.148,-316.895,-18.555,75.195,0.000
1673144654.188,75.195,-246.582,-19.043,88.379,0.000
1673144654.192,-74.219,41.016,-26.367,-56.641,0.000
1673144654.196,-107.422,-509.766,-34.668,-104.492,0.000
1673144654.200,31.738,-434.082,-26.367,36.133,0.000
1673144654.204,99.609,285.645,-21.484,104.492,0.000
1673144654.208,-40.527,441.406,-34.180,-28.809,0.000
1673144654.212,-146.973,-238.281,-36.133,-129.883,0.000
1673144654.216,-26.367,-374.023,-32.715,-22.461,0.000
1673144654.219,88.379,66.406,-31.250,93.262,0.000
1673144654.223,-10.254,30.273,-31.738,6.836,0.000
1673144654.227,-138.672,-548.340,-32.227,-112.305,0.000
1673144654.231,-51.758,-850.098,-26.855,-41.992,0.000
1673144654.235,87.402,17.090,-21.973,82.031,0.000
1673144654.239,24.902,656.738,-29.785,41.016,0.000
1673144654.243,-115.723,-136.719,-31.738,-88.379,0.000
1673144654.247,-90.332,-570.312,-21.973,-80.078,0.000
1673144654.251,52.246,228.516,-22.949,53.711,0.000
1673144654.255,71.289,728.027,-28.809,79.590,0.000
1673144654.259,-64.453,-14.648,-30.273,-49.316,0.000
1673144654.262,-121.582,-642.578,-24.902,-107.910,0.000
1673144654.266,0.488,-351.562,-22.461,20.508,0.000
1673144654.270,79.102,203.613,-23.438,99.121,0.000
1673144654.274,-47.852,-198.730,-30.762,-19.531,0.000
1673144654.278,-146.973,-1000.000,-34.180,-114.746,0.000
1673144654.282,-25.879,-333.496,-26.855,-20.020,0.000
1673144654.286,90.820,514.160,-26.855,99.609,0.000
1673144654.290,-9.277,305.664,-32.227,20.020,0.000
1673144654.294,-147.461,-512.695,-34.668,-110.352,0.000
1673144654.298,-74.707,-482.910,-29.785,-54.688,0.000
1673144654.301,69.824,263.184,-25.391,80.566,0.000
1673144654.305,31.250,368.164,-28.809,55.176,0.000
1673144654.309,-103.516,-55.664,-32.227,-77.148,0.000
1673144654.313,-94.238,-585.449,-28.809,-86.426,0.000
1673144654.317,48.828,-259.766,-25.391,38.086,0.000
1673144654.321,90.332,-174.805,-28.320,89.844,0.000
1673144654.325,-57.129,-333.008,-30.762,-38.086,0.000
1673144654.329,-125.488,-194.824,-32.227,-105.957,0.000
1673144654.333,9.766,-221.680,-32.227,20.996,0.000
1673144654.337,101.074,195.801,-26.855,107.422,0.000
1673144654.341,-15.625,385.254,-29.297,1.953,0.000
1673144654.344,-125.000,-117.188,-32.227,-102.051,0.000
1673144654.348,-20.508,-406.250,-29.785,-16.602,0.000
1673144654.352,100.586,98.145,-28.320,99.609,0.000
1673144654.356,17.090,401.855,-30.273,31.738,0.000
1673144654.360,-125.488,-401.855,-35.645,-102.051,0.000
1673144654.364,-82.031,-1000.000,-31.738,-67.871,0.000
1673144654.368,52.734,-583.008,-24.414,59.082,0.000
1673144654.372,39.551,414.062,-25.391,57.129,0.000
1673144654.376,-94.238,159.180,-25.879,-68.359,0.000
1673144654.380,-117.676,-538.574,-24.902,-106.934,0.000
1673144654.383,15.625,-22.461,-31.250,17.090,0.000
1673144654.387,76.172,463.867,-32.715,78.125,0.000
1673144654.391,-60.547,-172.363,-33.203,-50.293,0.000
1673144654.395,-146.484,-748.047,-37.598,-143.066,0.000
1673144654.399,-13.672,-214.844,-34.180,-27.832,0.000
1673144654.403,93.750,561.035,-28.320,88.867,0.000
1673144654.407,-14.648,163.574,-36.621,-1.953,0.000
1673144654.411,-139.648,-788.086,-41.992,-117.188,0.000
1673144654.415,-49.316,-487.305,-30.762,-40.039,0.000
1673144654.419,88.379,541.016,-28.320,80.566,0.000
1673144654.423,25.879,427.246,-36.621,31.250,0.000
1673144654.426,-114.746,-380.859,-42.969,-96.680,0.000
1673144654.430,-73.730,-354.004,-41.992,-74.707,0.000
1673144654.434,74.219,342.285,-37.598,59.570,0.000
1673144654.438,75.195,437.500,-32.715,77.637,0.000
1673144654.442,-73.242,-163.574,-33.691,-51.270,0.000
1673144654.446,-117.188,-619.141,-34.180,-100.586,0.000
1673144654.450,20.020,-176.270,-28.809,23.926,0.000
1673144654.454,104.492,-13.184,-29.297,117.676,0.000
1673144654.458,-74.219,-683.105,-32.715,-28.320,0.000
1673144654.462,-211.426,-800.781,-34.180,-170.410,0.000
1673144654.465,72.754,-49.316,-29.785,39.551,0.000
1673144654.469,225.098,695.801,-21.973,181.152,0.000
1673144654.473,-72.266,191.406,-27.832,-41.504,0.000
1673144654.477,-249.512,-680.664,-33.691,-206.055,0.000
1673144654.481,16.602,-649.902,-27.832,-5.859,0.000
1673144654.485,236.328,428.711,-26.367,189.941,0.000
1673144654.489,15.625,615.234,-32.227,31.738,0.000
1673144654.493,-259.277,-479.492,-30.762,-195.801,0.000
1673144654.497,-99.609,-777.344,-23.438,-83.984,0.000
1673144654.501,208.496,27.344,-15.137,166.504,0.000
1673144654.505,106.445,344.238,-16.602,96.680,0.000
1673144654.508,-216.309,-465.332,-26.367,-168.457,0.000
1673144654.512,-174.805,-996.582,-23.926,-159.180,0.000
1673144654.516,148.926,-244.629,-18.555,101.074,0.000
1673144654.520,175.293,853.027,-20.020,142.090,0.000
1673144654.524,-141.602,275.879,-28.320,-107.422,0.000
1673144654.528,-235.352,-978.027,-34.180,-200.195,0.000
1673144654.532,69.336,-512.695,-29.785,32.227,0.000
1673144654.536,221.680,869.629,-26.855,171.875,0.000
1673144654.540,-58.594,498.047,-34.180,-27.832,0.000
1673144654.544,-264.160,-798.340,-34.668,-208.496,0.000
1673144654.548,-20.996,-838.867,-23.438,-43.457,0.000
1673144654.551,221.191,479.004,-21.484,162.598,0.000
1673144654.555,28.320,715.332,-34.668,40.039,0.000
1673144654.559,-254.395,-637.695,-39.551,-195.801,0.000
1673144654.563,-119.629,-817.383,-33.203,-121.094,0.000
1673144654.567,203.125,502.441,-30.273,143.555,0.000
1673144654.571,112.305,849.609,-35.156,108.887,0.000
1673144654.575,-228.516,-475.098,-40.039,-148.926,0.000
1673144654.579,-197.754,-994.629,-33.203,-156.738,0.000
1673144654.583,131.348,141.113,-23.926,92.773,0.000
1673144654.587,182.617,914.551,-27.344,167.480,0.000
1673144654.590,-133.301,-91.309,-39.062,-68.848,0.000
1673144654.594,-247.070,-1000.000,-37.109,-184.082,0.000
1673144654.598,44.434,-489.258,-30.762,29.297,0.000
1673144654.602,222.656,630.859,-32.715,182.617,0.000
1673144654.606,-30.762,166.016,-36.621,6.348,0.000
1673144654.610,-259.277,-798.340,-37.598,-184.570,0.000
1673144654.614,-43.945,-666.016,-32.227,-46.875,0.000
1673144654.618,226.562,208.008,-28.320,178.711,0.000
1673144654.622,59.570,138.184,-30.762,81.055,0.000
1673144654.626,-244.629,-615.234,-34.180,-172.363,0.000
1673144654.630,-139.648,-670.410,-32.227,-122.070,0.000
1673144654.633,182.617,191.406,-28.809,131.836,0.000
1673144654.637,145.508,769.043,-29.785,129.883,0.000
1673144654.641,-184.082,-214.355,-33.691,-125.000,0.000
1673144654.645,-209.473,-1000.000,-30.762,-173.340,0.000
1673144654.649,112.793,-502.930,-23.438,79.590,0.000
1673144654.653,205.078,617.676,-28.320,171.875,0.000
1673144654.657,-92.773,439.453,-39.062,-62.500,0.000
1673144654.661,-245.117,-633.301,-39.062,-197.754,0.000
1673144654.665,26.367,-840.332,-34.180,14.648,0.000
1673144654.669,223.633,35.156,-32.227,184.082,0.000
1673144654.672,-6.836,279.297,-35.156,9.277,0.000
1673144654.676,-250.000,-883.789,-38.086,-203.613,0.000
1673144654.680,-57.617,-771.973,-34.668,-76.660,0.000
1673144654.684,231.445,595.215,-27.832,165.039,0.000
1673144654.688,85.938,691.895,-29.785,93.262,0.000
1673144654.692,-228.027,-610.352,-35.645,-151.855,0.000
1673144654.696,-148.926,-899.414,-36.621,-129.395,0.000
1673144654.700,172.363,310.059,-30.273,121.582,0.000
1673144654.704,162.109,-931.641,-31.738,147.949,0.000
1673144654.708,-165.039,19.531,-41.504,-101.074,0.000
1673144654.712,-224.609,-1000.000,-38.574,-175.293,0.000
1673144654.715,88.379,-32.715,-27.832,62.500,0.000
1673144654.719,208.008,-878.418,-26.855,179.199,0.000
1673144654.723,-72.266,256.348,-36.621,-37.598,0.000
1673144654.727,-252.930,-1000.000,-41.504,-202.637,0.000
1673144654.731,1.953,-419.922,-33.203,-18.066,0.000
1673144654.735,232.910,648.926,-35.156,178.711,0.000
1673144654.739,10.254,144.043,-42.969,26.367,0.000
1673144654.743,-268.555,-952.637,-38.086,-205.078,0.000
1673144654.747,-110.840,-587.891,-35.156,-114.746,0.000
1673144654.751,187.500,714.844,-36.133,131.348,0.000
1673144654.754,91.797,464.355,-40.039,92.773,0.000
1673144654.758,-224.609,-803.223,-42.480,-165.039,0.000
1673144654.762,-186.035,-948.242,-39.062,-161.133,0.000
1673144654.766,142.578,-96.191,-32.715,99.121,0.000
1673144654.770,164.062,731.445,-37.598,143.555,0.000
1673144654.774,-158.203,145.020,-43.945,-97.656,0.000
1673144654.778,-248.047,-782.227,-43.945,-194.336,0.000
1673144654.782,56.641,-385.254,-41.504,34.668,0.000
1673144654.786,212.891,433.105,-33.203,179.199,0.000
1673144654.790,-56.641,184.082,-33.203,-29.297,0.000
1673144654.794,-244.141,-527.832,-37.109,-206.543,0.000
1673144654.797,-37.109,-579.590,-34.180,-57.617,0.000
1673144654.801,115.234,-217.773,-33.203,90.820,0.000
1673144654.805,39.062,345.215,-30.273,32.715,0.000
1673144654.809,-97.168,224.609,-30.762,-97.656,0.000
1673144654.813,-104.980,-466.309,-37.109,-111.816,0.000
1673144654.817,36.621,-110.352,-36.133,20.020,0.000
1673144654.821,78.613,671.387,-27.832,68.848,0.000
1673144654.825,-56.641,326.660,-28.320,-67.871,0.000
1673144654.829,-124.023,-691.895,-32.227,-145.996,0.000
1673144654.833,16.602,-651.367,-23.926,-31.250,0.000
1673144654.836,111.328,313.477,-20.996,58.105,0.000
1673144654.840,-9.766,207.031,-28.809,-41.504,0.000
1673144654.844,-124.023,-754.395,-31.738,-153.809,0.000
1673144654.848,-22.949,-593.750,-28.809,-75.195,0.000
1673144654.852,104.492,522.949,-30.762,41.992,0.000
1673144654.856,21.484,338.379,-39.062,-16.113,0.000
1673144654.860,-117.676,-415.527,-38.086,-146.484,0.000
1673144654.864,-62.500,-307.129,-35.156,-119.141,0.000
1673144654.868,79.590,431.152,-34.180,6.348,0.000
1673144654.872,51.758,565.918,-35.645,-9.277,0.000
1673144654.876,-98.633,-426.270,-37.109,-152.832,0.000
1673144654.879,-117.676,-771.484,-30.762,-183.594,0.000
1673144654.883,20.508,88.867,-29.785,-52.246,0.000
1673144654.887,78.125,541.992,-34.668,7.324,0.000
1673144654.891,-55.176,-385.742,-37.109,-116.699,0.000
1673144654.895,-140.137,-920.410,-36.133,-194.824,0.000
1673144654.899,-12.207,-94.238,-34.180,-72.266,0.000
1673144654.903,94.727,412.109,-35.645,33.203,0.000
1673144654.907,-15.625,156.250,-36.133,-59.570,0.000
1673144654.911,-134.766,-187.012,-38.086,-176.270,0.000
1673144654.915,-38.086,-77.148,-36.133,-100.586,0.000
1673144654.918,103.027,273.926,-27.344,34.180,0.000
1673144654.922,32.715,14.160,-34.668,-8.301,0.000
1673144654.926,-114.258,-427.734,-36.133,-138.184,0.000
1673144654.930,-73.242,-270.020,-28.809,-115.234,0.000
1673144654.934,73.242,-247.070,-26.855,30.762,0.000
1673144654.938,69.824,-257.812,-25.391,57.617,0.000
1673144654.942,-76.172,79.590,-28.809,-89.355,0.000
1673144654.946,-108.398,-312.012,-29.785,-145.508,0.000
1673144654.950,28.320,-355.469,-31.250,-14.648,0.000
1673144654.954,95.215,90.820,-31.250,68.848,0.000
1673144654.958,-36.133,187.012,-32.227,-41.016,0.000
1673144654.961,-138.184,-300.781,-33.203,-135.254,0.000
1673144654.965,-13.672,-392.090,-26.367,-22.461,0.000
1673144654.969,103.516,50.781,-23.926,92.285,0.000
1673144654.973,-2.930,140.137,-26.855,-7.324,0.000
1673144654.977,-129.883,-266.602,-28.320,-139.648,0.000
1673144654.981,-40.527,-778.320,-24.414,-64.453,0.000
1673144654.985,95.215,-35.645,-20.996,67.871,0.000
1673144654.989,36.621,721.680,-29.297,26.367,0.000
1673144654.993,-104.980,-91.309,-32.227,-101.074,0.000
1673144654.997,-80.566,-579.590,-27.344,-87.891,0.000
1673144655.000,62.012,208.496,-24.414,41.992,0.000
1673144655.004,78.125,520.020,-24.902,63.965,0.000
1673144655.008,-63.965,-259.277,-28.809,-70.312,0.000
1673144655.012,-125.977,-697.754,-36.621,-139.160,0.000
1673144655.016,14.160,-303.223,-40.527,-16.602,0.000
1673144655.020,102.051,197.266,-36.133,67.383,0.000
1673144655.024,-27.832,-296.875,-39.551,-53.223,0.000
1673144655.028,-131.836,-885.254,-43.945,-163.086,0.000
1673144655.032,-20.996,-137.695,-33.203,-72.266,0.000
1673144655.036,93.750,501.465,-26.855,38.086,0.000
1673144655.040,4.395,224.609,-35.156,-36.621,0.000
1673144655.043,-132.324,-517.090,-40.527,-171.387,0.000
1673144655.047,-66.895,-467.285,-38.574,-136.719,0.000
1673144655.051,76.172,293.457,-33.203,-4.395,0.000
1673144655.055,60.547,493.164,-31.738,3.906,0.000
1673144655.059,-165.527,-249.512,-41.504,-185.059,0.000
1673144655.063,-141.602,-829.102,-41.992,-186.523,0.000
1673144655.067,181.641,121.582,-30.273,76.172,0.000
1673144655.071,115.723,186.523,-28.809,59.570,0.000
1673144655.075,-204.102,-677.246,-28.320,-195.801,0.000
1673144655.079,-191.895,-681.641,-21.484,-217.773,0.000
1673144655.082,136.230,105.957,-21.973,34.180,0.000
1673144655.086,193.848,869.629,-25.391,107.910,0.000
1673144655.090,-125.000,365.723,-29.785,-134.277,0.000
1673144655.094,-239.746,-632.812,-30.762,-257.324,0.000
1673144655.098,52.246,-384.766,-27.832,-41.016,0.000
1673144655.102,223.145,711.426,-28.809,115.723,0.000
1673144655.106,-31.250,594.238,-35.645,-71.777,0.000
1673144655.110,-253.906,-669.434,-38.086,-267.578,0.000
1673144655.114,-40.039,-1000.000,-37.109,-123.047,0.000
1673144655.118,225.586,-339.355,-32.715,98.633,0.000
1673144655.122,80.566,645.996,-30.762,17.578,0.000
1673144655.125,-295.898,-378.906,-37.109,-268.555,0.000
1673144655.129,-158.691,-969.238,-27.832,-194.824,0.000
1673144655.133,328.613,497.559,-17.578,177.246,0.000
1673144655.137,195.312,875.977,-24.414,112.793,0.000
1673144655.141,-307.129,-511.719,-34.180,-272.949,0.000
1673144655.145,-270.508,-1000.000,-34.180,-281.738,0.000
1673144655.149,237.305,230.957,-25.879,102.051,0.000
1673144655.153,311.523,-892.578,-25.391,188.477,0.000
1673144655.157,-175.781,-44.434,-33.203,-175.293,0.000
1673144655.161,-358.887,-1000.000,-32.227,-337.891,0.000
1673144655.164,91.797,-166.992,-24.902,-18.066,0.000
1673144655.168,359.863,-855.957,-25.391,201.172,0.000
1673144655.172,-43.945,402.832,-37.598,-78.125,0.000
1673144655.176,-386.719,-1000.000,-39.551,-356.934,0.000
1673144655.180,-48.828,-524.414,-23.438,-130.371,0.000
1673144655.184,343.750,976.562,-18.066,193.359,0.000
1673144655.188,62.012,569.824,-26.367,34.668,0.000
1673144655.192,-405.273,-891.113,-30.762,-331.543,0.000
1673144655.196,-218.262,-871.582,-23.926,-242.188,0.000
1673144655.200,280.273,596.191,-17.090,143.066,0.000
1673144655.204,197.266,656.738,-24.902,121.582,0.000
1673144655.207,-306.641,-818.359,-31.250,-253.906,0.000
1673144655.211,-313.965,-1000.000,-29.297,-293.457,0.000
1673144655.215,194.336,132.812,-25.879,86.426,0.000
1673144655.219,316.406,-995.117,-25.391,216.309,0.000
1673144655.223,-158.203,116.211,-33.203,-128.418,0.000
1673144655.227,-386.230,-1000.000,-36.621,-327.148,0.000
1673144655.231,40.039,-540.527,-29.785,-23.926,0.000
1673144655.235,346.680,853.516,-28.809,229.004,0.000
1673144655.239,-25.391,622.070,-38.086,-38.574,0.000
1673144655.243,-403.320,-792.969,-41.992,-348.633,0.000
1673144655.246,-85.449,-770.996,-34.180,-143.066,0.000
1673144655.250,359.375,546.387,-26.367,206.055,0.000
1673144655.254,124.512,720.703,-33.691,72.754,0.000
1673144655.258,-366.699,-504.883,-41.992,-300.781,0.000
1673144655.262,-228.027,-1000.000,-33.203,-236.328,0.000
1673144655.266,281.738,-118.164,-22.949,134.766,0.000
1673144655.270,250.977,993.164,-32.715,138.672,0.000
1673144655.274,-264.160,31.738,-43.457,-236.816,0.000
1673144655.278,-346.680,-1000.000,-37.598,-331.055,0.000
1673144655.282,150.391,-187.500,-29.785,25.391,0.000
1673144655.286,319.824,-916.016,-34.668,180.664,0.000
1673144655.289,-134.277,306.641,-42.969,-140.625,0.000
1673144655.293,-388.184,-997.559,-39.551,-361.328,0.000
1673144655.297,22.949,-665.039,-26.367,-70.312,0.000
1673144655.301,365.723,763.184,-21.973,224.609,0.000
1673144655.305,14.160,688.477,-32.715,-5.371,0.000
1673144655.309,-403.809,-798.340,-41.992,-330.566,0.000
1673144655.313,-121.582,-731.934,-31.250,-157.715,0.000
1673144655.317,346.191,729.004,-21.973,202.148,0.000
1673144655.321,157.715,882.812,-31.250,110.840,0.000
1673144655.325,-346.680,-525.879,-45.410,-267.090,0.000
1673144655.328,-257.324,-962.402,-35.156,-237.793,0.000
1673144655.332,257.812,385.254,-17.578,147.949,0.000
1673144655.336,270.996,-987.305,-24.414,188.965,0.000
1673144655.340,-230.957,-239.746,-33.691,-191.895,0.000
1673144655.344,-341.797,-1000.000,-29.785,-306.641,0.000
1673144655.348,78.613,-426.270,-23.438,9.277,0.000
1673144655.352,243.652,675.293,-24.902,169.434,0.000
1673144655.356,-33.203,-49.316,-26.855,-26.367,0.000
1673144655.360,-242.676,-1000.000,-31.738,-228.516,0.000
1673144655.364,-34.668,-258.789,-30.273,-96.680,0.000
1673144655.368,208.984,716.797,-26.855,120.605,0.000
1673144655.371,58.105,697.754,-37.109,29.297,0.000
1673144655.375,-310.059,-451.172,-45.410,-264.160,0.000
1673144655.379,-166.992,-760.254,-34.180,-185.059,0.000
1673144655.383,326.172,626.953,-26.367,193.359,0.000
1673144655.387,191.406,926.270,-35.645,134.766,0.000
1673144655.391,-316.406,-420.898,-41.992,-245.605,0.000
1673144655.395,-290.039,-1000.000,-31.738,-255.371,0.000
1673144655.399,213.867,-257.324,-26.367,128.906,0.000
1673144655.403,287.109,660.156,-31.738,213.379,0.000
1673144655.407,-200.684,279.785,-37.598,-146.484,0.000
1673144655.411,-366.211,-1000.000,-36.621,-303.711,0.000
1673144655.414,90.332,-445.312,-25.391,20.996,0.000
1673144655.418,347.168,990.723,-31.250,240.234,0.000
1673144655.422,-52.734,509.766,-40.039,-35.156,0.000
1673144655.426,-391.602,-913.574,-34.668,-308.594,0.000
1673144655.430,-52.734,-667.969,-31.738,-83.008,0.000
1673144655.434,357.422,818.359,-34.180,250.000,0.000
1673144655.438,92.773,663.086,-40.039,88.867,0.000
1673144655.442,-376.465,-758.789,-46.387,-282.715,0.000
1673144655.446,-189.453,-1000.000,-41.504,-177.246,0.000
1673144655.450,316.895,348.633,-29.297,211.426,0.000
1673144655.453,224.609,949.707,-32.715,181.152,0.000
1673144655.457,-294.922,-376.465,-43.457,-198.730,0.000
1673144655.461,-313.477,-1000.000,-39.062,-244.141,0.000
1673144655.465,190.430,153.809,-31.250,125.000,0.000
1673144655.469,307.129,-817.383,-34.668,239.746,0.000
1673144655.473,-166.992,148.926,-41.992,-114.258,0.000
1673144655.477,-379.883,-1000.000,-37.109,-310.059,0.000
1673144655.481,60.547,-254.395,-24.414,-10.254,0.000
1673144655.485,370.605,-892.090,-24.902,225.098,0.000
1673144655.489,-18.066,240.723,-37.598,-39.551,0.000
1673144655.493,-411.133,-1000.000,-44.434,-348.145,0.000
1673144655.496,-93.262,-531.738,-33.203,-146.484,0.000
1673144655.500,350.586,877.441,-29.785,205.566,0.000
1673144655.504,116.211,720.703,-39.551,65.430,0.000
1673144655.508,-360.840,-586.914,-42.480,-314.453,0.000
1673144655.512,-218.750,-1000.000,-39.062,-256.836,0.000
1673144655.516,271.973,180.176,-34.668,116.699,0.000
1673144655.520,235.840,-948.242,-35.156,133.301,0.000
1673144655.524,-268.066,-44.434,-41.992,-237.305,0.000
1673144655.528,-312.988,-1000.000,-38.574,-304.199,0.000
1673144655.532,194.336,-157.227,-28.809,62.500,0.000
1673144655.535,332.520,729.004,-31.738,197.266,0.000
1673144655.539,-131.836,7.812,-41.504,-137.695,0.000
1673144655.543,-386.230,-918.457,-42.480,-364.746,0.000
1673144655.547,29.785,-461.426,-32.715,-79.590,0.000
1673144655.551,375.977,820.312,-26.367,193.848,0.000
1673144655.555,42.480,776.367,-35.156,-29.297,0.000
1673144655.559,-386.230,-541.016,-43.457,-355.469,0.000
1673144655.563,-130.371,-955.078,-33.203,-191.406,0.000
1673144655.567,339.844,364.746,-25.391,171.387,0.000
1673144655.571,147.949,956.543,-35.645,65.430,0.000
1673144655.575,-350.098,-248.047,-47.363,-321.289,0.000
1673144655.578,-263.184,-1000.000,-45.410,-295.898,0.000
1673144655.582,246.582,-258.789,-37.598,89.844,0.000
1673144655.586,265.625,-884.766,-37.109,138.184,0.000
1673144655.590,-237.305,122.559,-40.527,-218.750,0.000
1673144655.594,-347.168,-1000.000,-32.227,-317.871,0.000
1673144655.598,138.672,-90.332,-20.996,45.410,0.000
1673144655.602,346.191,-835.938,-24.902,244.141,0.000
1673144655.606,-93.262,249.512,-37.109,-45.898,0.000
1673144655.610,-399.902,-1000.000,-36.133,-284.180,0.000
1673144655.614,-13.184,-425.781,-25.391,-14.648,0.000
1673144655.617,361.816,-993.652,-20.020,290.527,0.000
1673144655.621,46.387,537.109,-25.391,95.703,0.000
1673144655.625,-390.625,-901.367,-32.715,-238.770,0.000
1673144655.629,-157.227,-849.609,-33.203,-101.074,0.000
1673144655.633,337.402,568.848,-28.809,267.090,0.000
1673144655.637,204.590,875.000,-37.598,203.613,0.000
1673144655.641,-311.523,-546.387,-48.340,-177.246,0.000
1673144655.645,-277.344,-1000.000,-37.598,-195.312,0.000
1673144655.649,239.258,322.266,-24.902,179.199,0.000
1673144655.653,298.828,963.379,-27.344,262.695,0.000
1673144655.657,-193.848,-405.273,-31.738,-93.262,0.000
1673144655.660,-356.934,-1000.000,-29.785,-258.789,0.000
1673144655.664,104.980,-101.562,-24.902,54.199,0.000
1673144655.668,368.164,-970.703,-20.996,280.273,0.000
1673144655.672,-56.641,125.977,-31.738,2.441,0.000
1673144655.676,-404.297,-1000.000,-37.109,-268.555,0.000
1673144655.680,-50.781,-687.500,-30.273,-33.203,0.000
1673144655.684,361.328,614.746,-27.344,287.109,0.000
1673144655.688,90.332,834.961,-32.227,116.699,0.000
1673144655.692,-379.395,-505.371,-41.016,-245.605,0.000
1673144655.696,-184.570,-828.125,-37.598,-152.344,0.000
1673144655.699,314.941,127.930,-33.203,220.215,0.000
1673144655.703,222.168,759.766,-34.180,200.684,0.000
1673144655.707,-286.133,-44.434,-39.551,-180.664,0.000
1673144655.711,-299.316,-1000.000,-40.039,-230.957,0.000
1673144655.715,200.684,-100.586,-32.227,138.184,0.000
1673144655.719,315.918,-902.344,-33.691,261.230,0.000
1673144655.723,-176.758,38.086,-40.527,-102.539,0.000
1673144655.727,-336.426,-1000.000,-39.551,-257.812,0.000
1673144655.731,132.812,-307.129,-31.250,74.219,0.000
1673144655.735,365.234,884.277,-25.391,266.113,0.000
1673144655.739,-13.672,651.855,-32.227,6.348,0.000
1673144655.742,-401.367,-782.227,-45.898,-301.270,0.000
1673144655.746,-82.520,-730.469,-35.645,-103.027,0.000
1673144655.750,356.934,705.566,-25.391,240.234,0.000
1673144655.754,117.676,901.855,-36.133,104.980,0.000
1673144655.758,-362.305,-458.984,-41.992,-269.043,0.000
1673144655.762,-223.633,-942.871,-31.250,-203.125,0.000
1673144655.766,283.203,327.637,-26.855,180.176,0.000
1673144655.770,244.141,-987.305,-30.273,187.012,0.000
1673144655.774,-265.137,-219.727,-35.156,-184.082,0.000
1673144655.778,-331.055,-1000.000,-32.227,-273.438,0.000
1673144655.781,159.180,59.570,-19.531,82.031,0.000
1673144655.785,323.242,-849.609,-21.973,239.746,0.000
1673144655.789,-138.672,49.805,-37.598,-82.031,0.000
1673144655.793,-383.789,-1000.000,-38.086,-296.387,0.000
1673144655.797,-5.859,-447.754,-27.832,-43.457,0.000
1673144655.801,249.512,832.031,-30.273,180.176,0.000
1673144655.805,11.719,595.703,-41.992,26.855,0.000
1673144655.809,-249.023,-463.867,-44.434,-195.801,0.000
1673144655.813,-108.398,-826.172,-31.250,-123.047,0.000
1673144655.817,180.176,131.348,-21.973,114.258,0.000
1673144655.821,114.746,607.422,-26.367,95.215,0.000
1673144655.824,-205.078,-250.977,-29.785,-156.250,0.000
1673144655.828,-199.707,-659.180,-31.250,-182.617,0.000
1673144655.832,117.676,68.359,-29.297,65.430,0.000
1673144655.836,167.480,495.605,-30.273,140.137,0.000
1673144655.840,-137.207,83.984,-38.574,-101.074,0.000
1673144655.844,-239.258,-782.227,-40.527,-224.609,0.000
1673144655.848,52.246,-601.562,-30.762,0.000,0.000
1673144655.852,213.867,675.293,-26.855,165.039,0.000
1673144655.856,-41.016,628.906,-39.551,-21.973,0.000
1673144655.860,-257.812,-720.215,-47.363,-217.773,0.000
1673144655.863,-41.016,-1000.000,-35.156,-73.730,0.000
1673144655.867,224.609,299.805,-27.344,143.555,0.000
1673144655.871,61.035,855.469,-33.691,35.645,0.000
1673144655.875,-230.957,-228.516,-36.621,-201.660,0.000
1673144655.879,-117.676,-1000.000,-30.762,-137.207,0.000
1673144655.883,178.711,-178.711,-20.508,118.164,0.000
1673144655.887,122.070,784.180,-23.926,110.840,0.000
1673144655.891,-206.543,-396.484,-33.691,-154.785,0.000
1673144655.895,-197.266,-888.672,-28.809,-173.340,0.000
1673144655.899,143.066,208.496,-21.484,89.355,0.000
1673144655.903,183.594,819.824,-24.902,136.719,0.000
1673144655.906,-115.234,-1.953,-31.250,-85.449,0.000
1673144655.910,-255.859,-996.094,-28.320,-217.285,0.000
1673144655.914,21.484,-284.668,-20.508,-26.855,0.000
1673144655.918,211.426,924.805,-21.484,138.184,0.000
1673144655.922,-24.902,553.711,-27.344,-27.344,0.000
1673144655.926,-250.977,-834.473,-30.273,-226.562,0.000
1673144655.930,-56.641,-564.453,-26.855,-103.516,0.000
1673144655.934,207.031,757.812,-21.973,113.281,0.000
1673144655.938,74.707,663.086,-27.344,37.598,0.000
1673144655.942,-142.090,-223.633,-37.598,-147.461,0.000
1673144655.945,-125.000,-358.887,-38.574,-162.109,0.000
1673144655.949,17.578,153.809,-38.086,-29.785,0.000
1673144655.953,77.148,165.039,-40.527,42.969,0.000
1673144655.957,-58.594,-504.883,-41.992,-75.684,0.000
1673144655.961,-141.602,-666.992,-40.527,-152.832,0.000
1673144655.965,-20.508,-59.082,-38.086,-46.387,0.000
1673144655.969,93.750,10.254,-36.133,58.105,0.000
1673144655.973,-2.441,-333.984,-36.133,-31.250,0.000
1673144655.977,-128.418,-204.590,-41.016,-165.527,0.000
1673144655.981,-55.176,-420.410,-42.480,-104.492,0.000
1673144655.985,80.566,-23.438,-35.156,22.949,0.000
1673144655.988,33.203,446.777,-35.645,-14.648,0.000
1673144655.992,-111.328,25.879,-39.062,-152.832,0.000
1673144655.996,-81.543,-333.984,-33.691,-140.625,0.000
1673144656.000,69.824,-230.957,-30.273,-3.418,0.000
1673144656.004,79.590,232.910,-28.809,32.227,0.000
1673144656.008,-67.383,241.699,-30.273,-89.844,0.000
1673144656.012,-115.234,-474.121,-38.574,-142.090,0.000
1673144656.016,31.250,-676.270,-40.527,-6.348,0.000
1673144656.020,104.492,227.051,-34.668,80.566,0.000
1673144656.024,-33.691,538.086,-38.086,-27.344,0.000
1673144656.027,-140.137,-437.988,-42.480,-125.488,0.000
1673144656.031,-29.297,-493.164,-41.016,-24.902,0.000
1673144656.035,87.891,515.625,-37.598,94.727,0.000
1673144656.039,-7.324,632.324,-36.133,15.625,0.000
1673144656.043,-138.672,-310.547,-38.574,-110.352,0.000
1673144656.047,-72.266,-821.289,-33.691,-55.664,0.000
1673144656.051,62.500,-5.859,-25.879,69.336,0.000
1673144656.055,39.551,603.516,-34.668,48.828,0.000
1673144656.059,-98.145,-337.891,-37.109,-78.125,0.000
1673144656.063,-104.492,-878.418,-25.879,-86.914,0.000
1673144656.067,36.621,77.637,-26.855,44.922,0.000
1673144656.070,72.266,417.480,-32.715,91.797,0.000
1673144656.074,-65.918,-269.043,-33.203,-26.855,0.000
1673144656.078,-128.418,-596.191,-33.203,-98.633,0.000
1673144656.082,4.395,36.621,-34.668,10.742,0.000
1673144656.086,100.098,522.461,-30.762,105.469,0.000
1673144656.090,-21.484,157.715,-33.691,-2.441,0.000
1673144656.094,-128.418,-639.160,-43.945,-122.559,0.000
1673144656.098,-19.531,-542.969,-38.574,-36.133,0.000
1673144656.102,107.422,252.930,-36.133,89.355,0.000
1673144656.106,29.297,-254.395,-41.992,30.273,0.000
1673144656.110,-101.074,-645.508,-41.016,-98.145,0.000
1673144656.113,-46.875,-78.125,-41.504,-60.059,0.000
1673144656.117,85.938,230.957,-41.504,79.590,0.000
1673144656.121,61.523,325.684,-39.062,76.660,0.000
1673144656.125,-97.168,-168.945,-40.039,-66.406,0.000
1673144656.129,-120.605,-462.891,-37.598,-92.773,0.000
1673144656.133,34.180,-84.473,-31.738,51.270,0.000
1673144656.137,92.285,338.867,-31.250,119.141,0.000
1673144656.141,-64.941,-20.020,-39.062,-22.461,0.000
1673144656.145,-148.926,-600.098,-40.039,-116.699,0.000
1673144656.149,-8.301,-660.156,-36.621,19.531,0.000
1673144656.152,87.402,-333.008,-39.551,125.000,0.000
1673144656.156,-32.227,314.941,-41.016,17.090,0.000
1673144656.160,-149.414,-55.176,-41.016,-97.168,0.000
1673144656.164,-50.781,-312.500,-43.945,-31.738,0.000
1673144656.168,79.102,78.613,-45.898,79.102,0.000
1673144656.172,6.836,373.047,-45.898,37.598,0.000
1673144656.176,-132.324,-32.715,-43.945,-87.402,0.000
1673144656.180,-79.590,-643.066,-39.062,-62.988,0.000
1673144656.184,75.195,-77.148,-38.574,69.336,0.000
1673144656.188,77.148,387.207,-40.527,81.543,0.000
1673144656.192,-75.684,-252.930,-42.480,-51.270,0.000
1673144656.195,-111.816,-885.254,-40.039,-91.309,0.000
1673144656.199,30.762,-298.340,-37.598,40.527,0.000
1673144656.203,89.844,736.328,-42.969,106.445,0.000
1673144656.207,-37.109,270.996,-37.109,-11.230,0.000
1673144656.211,-117.188,-500.977,-33.203,-109.375,0.000
1673144656.215,4.883,-97.656,-33.203,-12.695,0.000
1673144656.219,108.398,637.207,-28.320,102.051,0.000
