timestamp,TP9,AF7,AF8,TP10,Right AUX
1673144927.052,-300.781,-1000.000,-41.016,-234.375,0.000
1673144927.056,132.812,-113.281,-10.254,81.055,0.000
1673144927.060,279.297,899.902,-20.508,240.234,0.000
1673144927.064,-119.629,-155.762,-41.504,-36.621,0.000
1673144927.068,-343.750,-1000.000,-41.992,-260.742,0.000
1673144927.071,-3.418,-798.340,-17.090,-9.766,0.000
1673144927.075,275.879,414.551,-7.812,252.930,0.000
1673144927.079,-5.371,114.746,-38.574,43.457,0.000
1673144927.083,-342.285,-1000.000,-50.781,-246.094,0.000
1673144927.087,-129.395,-878.418,-26.855,-100.586,0.000
1673144927.091,264.648,484.863,-9.766,213.867,0.000
1673144927.095,137.695,225.586,-29.785,136.719,0.000
1673144927.099,-288.574,-971.191,-42.969,-186.035,0.000
1673144927.103,-234.375,-1000.000,-24.414,-158.691,0.000
1673144927.107,200.684,-229.492,-4.883,156.250,0.000
1673144927.111,223.633,768.066,-18.555,206.055,0.000
1673144927.114,-200.684,-148.926,-47.363,-101.562,0.000
1673144927.118,-306.152,-1000.000,-41.016,-202.637,0.000
1673144927.122,111.328,-674.316,-9.277,105.469,0.000
1673144927.126,300.293,369.629,-8.789,232.910,0.000
1673144927.130,-75.195,156.738,-39.551,-40.039,0.000
1673144927.134,-338.379,-921.875,-49.316,-246.094,0.000
1673144927.138,-20.508,-1000.000,-24.902,-15.625,0.000
1673144927.142,288.574,124.512,-6.348,245.605,0.000
1673144927.146,41.504,674.805,-24.414,90.332,0.000
1673144927.150,-324.707,-749.023,-49.805,-194.336,0.000
1673144927.154,-148.438,-1000.000,-33.203,-81.543,0.000
1673144927.157,270.508,319.824,-9.766,238.281,0.000
1673144927.161,176.270,700.195,-24.902,176.758,0.000
1673144927.165,-255.859,-738.770,-52.246,-162.109,0.000
1673144927.169,-246.582,-1000.000,-41.016,-191.406,0.000
1673144927.173,187.988,42.969,-4.395,150.391,0.000
1673144927.177,253.418,960.938,-6.836,243.652,0.000
1673144927.181,-183.594,-69.824,-42.480,-74.707,0.000
1673144927.185,-334.473,-1000.000,-52.246,-211.914,0.000
1673144927.189,75.684,-392.090,-20.996,60.547,0.000
1673144927.193,292.969,888.184,-18.066,239.258,0.000
1673144927.196,-63.965,314.453,-45.898,-0.977,0.000
1673144927.200,-355.469,-1000.000,-52.734,-249.023,0.000
1673144927.204,-61.523,-789.551,-26.367,-56.152,0.000
1673144927.208,290.527,696.289,-9.277,234.375,0.000
1673144927.212,72.266,526.855,-34.668,110.840,0.000
1673144927.216,-334.961,-882.324,-54.688,-200.684,0.000
1673144927.220,-200.684,-1000.000,-34.180,-130.371,0.000
1673144927.224,241.211,52.246,-13.184,218.262,0.000
1673144927.228,185.059,632.812,-31.738,202.148,0.000
1673144927.232,-250.488,-711.914,-56.641,-158.203,0.000
1673144927.236,-270.996,-1000.000,-38.574,-200.195,0.000
1673144927.239,166.016,6.348,-9.766,147.461,0.000
1673144927.243,265.137,895.020,-23.926,235.840,0.000
1673144927.247,-112.305,-15.625,-52.734,-54.199,0.000
1673144927.251,-247.559,-1000.000,-47.363,-190.918,0.000
1673144927.255,-2.441,-683.105,-23.926,-14.648,0.000
1673144927.259,177.734,-119.629,-23.926,153.809,0.000
1673144927.263,2.441,-290.527,-37.109,53.711,0.000
1673144927.267,-220.215,-866.211,-39.551,-144.531,0.000
1673144927.271,-95.703,-956.055,-28.809,-63.965,0.000
1673144927.275,147.461,-584.961,-21.484,171.875,0.000
1673144927.279,62.988,-53.711,-25.879,107.422,0.000
1673144927.282,-195.801,-499.023,-36.133,-125.000,0.000
1673144927.286,-151.367,-1000.000,-30.273,-111.328,0.000
1673144927.290,106.445,-480.469,-17.090,96.191,0.000
1673144927.294,118.164,468.750,-20.020,139.160,0.000
1673144927.298,-143.555,-210.938,-42.480,-67.383,0.000
1673144927.302,-218.262,-1000.000,-41.504,-146.484,0.000
1673144927.306,36.621,-770.020,-21.484,47.852,0.000
1673144927.310,165.039,6.836,-21.484,166.016,0.000
1673144927.314,-55.176,-320.801,-39.551,-5.371,0.000
1673144927.318,-230.957,-1000.000,-47.363,-164.551,0.000
1673144927.321,-38.086,-895.020,-23.926,-19.531,0.000
1673144927.325,176.270,219.238,-8.789,176.758,0.000
1673144927.329,24.414,157.227,-31.738,102.539,0.000
1673144927.333,-205.078,-935.059,-45.410,-121.582,0.000
1673144927.337,-92.285,-951.172,-30.273,-87.891,0.000
1673144927.341,160.156,103.516,-23.926,124.512,0.000
1673144927.345,102.539,467.285,-38.086,112.793,0.000
1673144927.349,-164.551,-624.023,-51.758,-93.750,0.000
1673144927.353,-159.668,-1000.000,-35.156,-125.977,0.000
1673144927.357,99.121,-353.516,-19.043,83.008,0.000
1673144927.361,137.207,499.512,-28.809,152.832,0.000
1673144927.364,-118.164,-500.488,-50.781,-42.480,0.000
1673144927.368,-206.543,-1000.000,-46.387,-149.902,0.000
1673144927.372,41.504,-430.176,-25.879,23.926,0.000
1673144927.376,182.129,446.777,-26.855,169.434,0.000
1673144927.380,-35.645,-83.008,-46.387,8.789,0.000
1673144927.384,-223.145,-1000.000,-48.828,-177.246,0.000
1673144927.388,-42.969,-781.738,-27.344,-52.734,0.000
1673144927.392,176.270,250.488,-16.113,160.645,0.000
1673144927.396,40.039,233.398,-26.367,67.871,0.000
1673144927.400,-202.637,-834.961,-40.039,-160.156,0.000
1673144927.403,-128.906,-1000.000,-32.715,-115.723,0.000
1673144927.407,129.883,-428.711,-21.484,111.328,0.000
1673144927.411,109.375,-478.516,-30.273,124.023,0.000
1673144927.415,-167.480,-728.516,-47.852,-94.727,0.000
1673144927.419,-188.477,-961.914,-42.480,-145.020,0.000
1673144927.423,82.031,-496.094,-22.461,59.082,0.000
1673144927.427,155.273,424.316,-25.391,145.996,0.000
1673144927.431,-95.703,-11.230,-38.574,-41.016,0.000
1673144927.435,-208.496,-993.164,-38.086,-155.762,0.000
1673144927.439,16.602,-941.895,-20.508,14.648,0.000
1673144927.443,175.781,33.203,-14.160,171.875,0.000
1673144927.446,-29.297,-111.328,-37.598,22.949,0.000
1673144927.450,-231.445,-977.051,-45.410,-184.082,0.000
1673144927.454,-66.895,-1000.000,-28.320,-71.777,0.000
1673144927.458,165.527,-169.922,-12.207,139.648,0.000
1673144927.462,65.918,466.797,-21.484,68.359,0.000
1673144927.466,-191.895,-562.500,-37.598,-132.812,0.000
1673144927.470,-134.766,-1000.000,-28.320,-115.723,0.000
1673144927.474,149.414,14.648,-15.625,83.008,0.000
1673144927.478,156.738,654.297,-22.949,106.934,0.000
1673144927.482,-142.578,-307.129,-36.133,-105.469,0.000
1673144927.486,-219.238,-1000.000,-27.344,-155.762,0.000
1673144927.489,47.363,-378.418,-6.348,52.246,0.000
1673144927.493,143.555,187.012,-11.719,154.785,0.000
1673144927.497,-87.402,-399.414,-33.691,-7.324,0.000
1673144927.501,-226.562,-1000.000,-40.039,-155.762,0.000
1673144927.505,-16.602,-725.586,-15.137,-12.695,0.000
1673144927.509,166.992,500.977,-12.695,157.715,0.000
1673144927.513,-5.371,194.824,-40.527,37.598,0.000
1673144927.517,-225.098,-1000.000,-47.852,-141.602,0.000
1673144927.521,-87.891,-888.184,-30.762,-61.523,0.000
1673144927.525,163.574,217.773,-18.066,125.488,0.000
1673144927.528,74.219,273.438,-29.785,78.613,0.000
1673144927.532,-189.453,-756.836,-41.016,-131.348,0.000
1673144927.536,-148.926,-1000.000,-34.180,-118.652,0.000
1673144927.540,123.535,-400.879,-23.926,104.492,0.000
1673144927.544,125.488,-193.848,-29.785,138.672,0.000
1673144927.548,-144.531,-884.766,-34.668,-82.031,0.000
1673144927.552,-203.125,-1000.000,-32.227,-166.992,0.000
1673144927.556,56.152,-708.496,-20.020,24.902,0.000
1673144927.560,174.805,145.020,-20.508,144.531,0.000
1673144927.564,-61.035,73.242,-37.598,-8.301,0.000
1673144927.568,-226.562,-876.953,-40.527,-158.203,0.000
1673144927.571,-28.320,-853.027,-23.926,-30.273,0.000
1673144927.575,158.691,90.820,-16.602,151.855,0.000
1673144927.579,-1.465,297.363,-29.785,53.223,0.000
1673144927.583,-227.051,-684.570,-35.645,-145.508,0.000
1673144927.587,-122.070,-1000.000,-31.250,-75.684,0.000
1673144927.591,126.953,-850.586,-22.949,118.164,0.000
1673144927.595,81.055,-164.062,-24.902,85.938,0.000
1673144927.599,-177.246,-484.863,-42.480,-116.699,0.000
1673144927.603,-170.410,-1000.000,-38.574,-113.281,0.000
1673144927.607,100.098,-378.906,-21.484,88.379,0.000
1673144927.610,152.832,352.539,-24.414,130.371,0.000
1673144927.614,-108.398,-150.879,-46.387,-71.777,0.000
1673144927.618,-228.027,-998.047,-48.340,-175.781,0.000
1673144927.622,12.695,-546.387,-23.438,17.578,0.000
1673144927.626,165.527,516.113,-24.414,157.227,0.000
1673144927.630,-51.270,218.262,-45.898,-9.766,0.000
1673144927.634,-227.539,-931.152,-50.293,-168.457,0.000
1673144927.638,-50.781,-931.152,-28.320,-50.781,0.000
1673144927.642,177.734,260.742,-11.719,129.395,0.000
1673144927.646,46.387,395.508,-26.367,55.176,0.000
1673144927.650,-207.520,-809.082,-50.293,-157.227,0.000
1673144927.653,-122.070,-1000.000,-37.598,-109.863,0.000
1673144927.657,72.754,-169.434,-21.484,70.801,0.000
1673144927.661,93.262,65.918,-28.320,75.195,0.000
1673144927.665,-52.246,-673.340,-42.480,-51.270,0.000
1673144927.669,-169.434,-1000.000,-44.434,-136.719,0.000
1673144927.673,41.504,-282.715,-26.367,26.367,0.000
1673144927.677,148.438,456.543,-24.902,134.766,0.000
1673144927.681,-113.281,-518.066,-46.875,-63.965,0.000
1673144927.685,-214.355,-1000.000,-47.363,-180.176,0.000
1673144927.689,-7.812,-800.293,-28.809,-22.949,0.000
1673144927.693,86.426,-458.496,-26.855,88.379,0.000
1673144927.696,23.438,-746.094,-31.738,30.273,0.000
1673144927.700,-83.008,-785.156,-30.273,-68.359,0.000
1673144927.704,-73.730,-581.055,-33.691,-63.965,0.000
1673144927.708,44.922,-385.254,-30.762,40.527,0.000
1673144927.712,31.738,-60.059,-31.250,45.898,0.000
1673144927.716,-91.797,-293.945,-39.062,-74.707,0.000
1673144927.720,-106.934,-886.719,-37.109,-101.562,0.000
1673144927.724,3.906,-815.918,-28.320,13.184,0.000
1673144927.728,41.016,-382.812,-25.879,70.312,0.000
1673144927.732,-55.664,-548.828,-32.227,-34.180,0.000
1673144927.735,-104.980,-877.441,-36.133,-109.375,0.000
1673144927.739,-19.043,-987.305,-35.645,-23.926,0.000
1673144927.743,62.500,-423.828,-21.484,66.895,0.000
1673144927.747,4.395,63.477,-26.367,2.441,0.000
1673144927.751,-90.332,-563.477,-49.805,-110.352,0.000
1673144927.755,-49.316,-894.531,-43.457,-59.082,0.000
1673144927.759,62.012,-134.766,-25.879,57.129,0.000
1673144927.763,46.387,231.445,-35.156,22.949,0.000
1673144927.767,-88.867,-480.469,-48.828,-99.609,0.000
1673144927.771,-87.891,-958.496,-37.598,-76.660,0.000
1673144927.775,33.691,-626.953,-29.785,56.641,0.000
1673144927.778,35.645,-328.613,-35.156,66.406,0.000
1673144927.782,-86.426,-725.098,-43.457,-73.242,0.000
1673144927.786,-108.887,-1000.000,-36.621,-116.211,0.000
1673144927.790,1.953,-493.652,-20.508,-5.371,0.000
1673144927.794,45.898,145.508,-23.926,58.594,0.000
1673144927.798,-43.457,-210.449,-40.039,-28.809,0.000
1673144927.802,-120.117,-836.914,-42.969,-112.305,0.000
1673144927.806,-48.340,-569.336,-29.785,-26.855,0.000
1673144927.810,45.898,23.926,-23.438,68.848,0.000
1673144927.814,-8.789,-209.961,-34.180,26.855,0.000
1673144927.818,-117.676,-750.000,-38.574,-103.516,0.000
1673144927.821,-79.590,-945.312,-35.156,-90.820,0.000
1673144927.825,41.016,-592.285,-27.832,42.969,0.000
1673144927.829,33.691,-612.793,-33.203,38.574,0.000
1673144927.833,-87.891,-1000.000,-35.156,-82.520,0.000
1673144927.837,-104.492,-785.645,-30.762,-89.355,0.000
1673144927.841,19.531,-305.664,-28.809,32.715,0.000
1673144927.845,51.758,-201.660,-30.762,62.012,0.000
1673144927.849,-53.223,-396.484,-34.180,-29.785,0.000
1673144927.853,-94.727,-636.230,-32.227,-73.730,0.000
1673144927.857,10.742,-553.711,-27.344,8.789,0.000
1673144927.860,75.195,-195.312,-21.973,86.914,0.000
1673144927.864,-18.555,-165.039,-30.273,-2.930,0.000
1673144927.868,-109.375,-788.574,-40.527,-126.953,0.000
1673144927.872,-42.969,-1000.000,-34.180,-79.102,0.000
1673144927.876,58.594,-897.949,-28.320,52.246,0.000
1673144927.880,8.301,-244.629,-25.879,22.461,0.000
1673144927.884,-100.098,-375.977,-30.273,-103.516,0.000
1673144927.888,-63.965,-906.738,-33.203,-92.773,0.000
1673144927.892,47.363,-331.543,-23.926,33.203,0.000
1673144927.896,35.645,161.133,-21.973,41.992,0.000
1673144927.900,-93.750,-355.469,-35.156,-67.871,0.000
1673144927.903,-101.562,-954.102,-32.227,-90.820,0.000
1673144927.907,23.438,-443.359,-13.184,20.508,0.000
1673144927.911,48.340,126.953,-12.695,69.824,0.000
1673144927.915,-51.758,-486.816,-26.367,-17.578,0.000
1673144927.919,-104.492,-1000.000,-27.832,-86.914,0.000
1673144927.923,-9.766,-731.445,-13.184,-24.902,0.000
1673144927.927,71.289,85.938,-15.137,51.270,0.000
1673144927.931,2.441,44.922,-26.855,-4.883,0.000
1673144927.935,-85.938,-850.098,-30.762,-100.586,0.000
1673144927.939,-30.273,-830.566,-20.996,-52.734,0.000
1673144927.942,62.500,-165.039,-17.578,67.383,0.000
1673144927.946,25.879,-307.617,-32.227,40.039,0.000
1673144927.950,-90.820,-860.352,-36.621,-67.383,0.000
1673144927.954,-75.195,-799.316,-28.320,-68.359,0.000
1673144927.958,41.504,-222.168,-20.508,47.363,0.000
1673144927.962,33.203,-276.367,-29.297,57.129,0.000
1673144927.966,-81.543,-904.297,-43.945,-73.730,0.000
1673144927.970,-91.309,-1000.000,-31.738,-103.516,0.000
1673144927.974,29.297,-421.875,-14.160,18.066,0.000
1673144927.978,60.059,-40.039,-18.555,71.289,0.000
1673144927.982,-45.410,-362.305,-27.344,-37.598,0.000
1673144927.985,-104.004,-660.645,-22.949,-99.609,0.000
1673144927.989,-18.555,-495.605,-17.578,-18.066,0.000
1673144927.993,66.895,-129.395,-23.926,60.547,0.000
1673144927.997,11.230,-206.543,-28.320,-7.324,0.000
1673144928.001,-91.309,-821.289,-31.250,-97.656,0.000
1673144928.005,-51.758,-781.250,-28.320,-35.156,0.000
1673144928.009,66.406,-592.773,-24.414,51.758,0.000
1673144928.013,33.691,-538.574,-24.902,24.414,0.000
1673144928.017,-99.121,-534.668,-32.715,-96.191,0.000
1673144928.021,-101.074,-800.293,-33.691,-95.703,0.000
1673144928.025,23.438,-805.664,-24.414,39.551,0.000
1673144928.028,55.176,-160.156,-15.625,78.613,0.000
1673144928.032,-111.816,-264.648,-28.320,-80.566,0.000
1673144928.036,-160.156,-1000.000,-30.762,-137.695,0.000
1673144928.040,91.797,-568.359,-14.648,77.148,0.000
1673144928.044,124.512,488.281,-17.578,135.742,0.000
1673144928.048,-152.344,-159.668,-34.180,-66.406,0.000
1673144928.052,-218.750,-1000.000,-30.762,-165.039,0.000
1673144928.056,48.340,-700.195,-14.160,34.668,0.000
1673144928.060,174.316,83.496,-15.137,176.758,0.000
1673144928.064,-55.176,-326.660,-31.250,-30.273,0.000
1673144928.067,-205.566,-1000.000,-35.645,-190.918,0.000
1673144928.071,-35.645,-823.242,-21.484,-52.734,0.000
1673144928.075,95.703,-113.281,-16.602,82.031,0.000
1673144928.079,43.945,153.809,-26.367,45.410,0.000
1673144928.083,-78.613,-550.293,-40.039,-79.590,0.000
1673144928.087,-88.379,-935.059,-32.715,-84.473,0.000
1673144928.091,38.086,-297.363,-19.531,41.992,0.000
1673144928.095,61.523,138.672,-25.879,54.199,0.000
1673144928.099,-57.129,-459.961,-36.621,-49.316,0.000
1673144928.103,-93.750,-1000.000,-31.250,-109.863,0.000
1673144928.107,8.301,-728.027,-17.578,-16.602,0.000
1673144928.110,62.500,-69.824,-20.508,77.148,0.000
1673144928.114,-18.555,-544.434,-31.738,-20.996,0.000
1673144928.118,-106.445,-897.461,-32.715,-115.234,0.000
1673144928.122,-53.223,-469.238,-23.926,-39.062,0.000
1673144928.126,49.805,-47.852,-21.484,82.031,0.000
1673144928.130,2.930,-621.582,-36.133,49.805,0.000
1673144928.134,-112.793,-929.688,-33.691,-71.777,0.000
1673144928.138,-81.543,-609.375,-26.855,-49.805,0.000
1673144928.142,41.504,-269.531,-25.391,41.016,0.000
1673144928.146,40.527,-196.777,-25.879,28.809,0.000
1673144928.150,-87.891,-701.172,-36.621,-87.402,0.000
1673144928.153,-102.051,-1000.000,-34.180,-100.098,0.000
1673144928.157,18.555,-784.180,-20.020,41.016,0.000
1673144928.161,49.316,-354.004,-21.973,67.383,0.000
1673144928.165,-49.805,-281.250,-34.180,-55.176,0.000
1673144928.169,-102.051,-829.102,-34.180,-109.863,0.000
1673144928.173,-10.742,-947.754,-24.902,-7.812,0.000
1673144928.177,60.059,-541.992,-18.555,81.055,0.000
1673144928.181,-19.043,-83.008,-25.391,-9.277,0.000
1673144928.185,-114.746,-588.867,-36.621,-113.281,0.000
1673144928.189,-56.152,-936.035,-35.156,-46.387,0.000
1673144928.192,59.570,-227.539,-30.273,55.664,0.000
1673144928.196,20.996,-178.223,-34.668,35.645,0.000
1673144928.200,-105.469,-905.273,-44.922,-85.449,0.000
1673144928.204,-88.867,-1000.000,-41.992,-88.379,0.000
1673144928.208,49.805,-309.570,-24.414,47.363,0.000
1673144928.212,59.570,231.934,-21.484,53.711,0.000
1673144928.216,-99.121,-250.000,-37.109,-76.172,0.000
1673144928.220,-141.602,-956.543,-42.969,-123.047,0.000
1673144928.224,75.684,-352.539,-16.113,58.105,0.000
1673144928.228,112.793,516.602,-15.137,117.188,0.000
1673144928.232,-146.484,-257.812,-47.363,-117.676,0.000
1673144928.235,-196.777,-1000.000,-47.852,-187.500,0.000
1673144928.239,65.430,-383.301,-24.902,34.668,0.000
1673144928.243,157.715,329.590,-25.391,141.602,0.000
1673144928.247,-89.355,-336.914,-43.457,-24.414,0.000
1673144928.251,-235.840,-1000.000,-43.457,-163.086,0.000
1673144928.255,-19.043,-644.531,-20.020,-31.738,0.000
1673144928.259,178.711,447.266,-13.672,140.137,0.000
1673144928.263,3.906,195.312,-39.062,36.133,0.000
1673144928.267,-225.586,-974.121,-42.969,-158.691,0.000
1673144928.271,-84.961,-909.180,-19.043,-83.496,0.000
1673144928.274,175.781,229.980,-13.184,128.418,0.000
1673144928.278,93.750,201.660,-27.832,80.078,0.000
1673144928.282,-167.480,-891.113,-30.762,-137.695,0.000
1673144928.286,-139.648,-1000.000,-16.113,-126.465,0.000
1673144928.290,118.652,-375.977,-9.277,89.844,0.000
1673144928.294,140.137,-7.812,-20.508,124.023,0.000
1673144928.298,-131.348,-556.641,-35.156,-86.426,0.000
1673144928.302,-204.590,-992.188,-32.715,-152.832,0.000
1673144928.306,62.988,-459.961,-20.508,58.105,0.000
1673144928.310,188.477,-104.980,-25.391,145.996,0.000
1673144928.314,-49.316,-371.582,-34.668,-30.762,0.000
1673144928.317,-212.402,-874.023,-36.621,-177.734,0.000
1673144928.321,-16.113,-851.074,-26.855,-41.016,0.000
1673144928.325,187.012,47.363,-20.996,148.438,0.000
1673144928.329,38.574,278.320,-29.785,49.805,0.000
1673144928.333,-206.055,-707.520,-37.109,-157.715,0.000
1673144928.337,-103.027,-1000.000,-29.297,-100.586,0.000
1673144928.341,155.273,-520.508,-17.090,116.211,0.000
1673144928.345,91.309,-48.340,-28.320,88.379,0.000
1673144928.349,-177.734,-769.043,-46.875,-126.953,0.000
1673144928.353,-161.621,-1000.000,-42.969,-143.066,0.000
1673144928.357,59.570,-731.934,-28.320,14.160,0.000
1673144928.360,104.492,-105.957,-25.879,81.543,0.000
1673144928.364,-20.020,-39.551,-35.645,-2.441,0.000
1673144928.368,-128.906,-816.895,-40.527,-102.051,0.000
1673144928.372,-32.715,-751.953,-26.367,-29.785,0.000
1673144928.376,150.879,450.195,-18.066,126.953,0.000
1673144928.380,-12.207,234.375,-40.039,8.301,0.000
1673144928.384,-214.844,-952.637,-53.711,-194.336,0.000
1673144928.388,-39.551,-903.320,-34.668,-64.941,0.000
1673144928.392,175.293,151.855,-22.461,127.441,0.000
1673144928.396,50.293,359.863,-37.109,31.738,0.000
1673144928.399,-206.543,-771.484,-53.223,-166.504,0.000
1673144928.403,-135.254,-1000.000,-31.738,-102.051,0.000
1673144928.407,141.113,128.906,-15.137,116.699,0.000
1673144928.411,116.211,529.297,-33.203,90.332,0.000
1673144928.415,-167.480,-688.965,-47.852,-117.188,0.000
1673144928.419,-183.594,-1000.000,-35.645,-113.281,0.000
1673144928.423,28.320,-418.945,-24.902,26.367,0.000
1673144928.427,80.078,-31.738,-29.297,80.078,0.000
1673144928.431,-7.324,-432.617,-38.574,15.625,0.000
1673144928.435,-92.773,-1000.000,-41.504,-104.004,0.000
1673144928.439,-44.922,-914.551,-34.668,-62.500,0.000
1673144928.442,43.457,-454.102,-26.855,69.336,0.000
1673144928.446,8.789,-817.871,-33.691,55.664,0.000
1673144928.450,-108.398,-964.355,-39.062,-84.961,0.000
1673144928.454,-94.238,-632.812,-38.086,-71.777,0.000
1673144928.458,40.039,-402.832,-37.109,39.551,0.000
1673144928.462,43.945,-141.113,-35.645,54.199,0.000
1673144928.466,-75.195,-319.336,-41.504,-64.941,0.000
1673144928.470,-101.562,-691.895,-41.504,-114.746,0.000
1673144928.474,12.207,-643.066,-31.250,4.395,0.000
1673144928.478,57.129,-369.141,-27.832,68.848,0.000
1673144928.481,-50.781,-507.324,-37.598,-31.738,0.000
1673144928.485,-125.977,-801.270,-44.434,-115.234,0.000
1673144928.489,20.508,-955.566,-34.668,27.832,0.000
1673144928.493,142.090,-139.648,-21.484,129.395,0.000
1673144928.497,-86.914,72.266,-36.621,-59.082,0.000
1673144928.501,-236.816,-966.309,-46.387,-202.148,0.000
1673144928.505,-18.066,-905.762,-26.855,-20.996,0.000
1673144928.509,166.992,352.051,-18.066,160.156,0.000
1673144928.513,-6.348,380.859,-34.180,17.578,0.000
1673144928.517,-233.887,-834.473,-44.434,-181.641,0.000
1673144928.521,-92.773,-979.980,-25.391,-91.797,0.000
1673144928.524,168.945,-137.207,-13.184,122.070,0.000
1673144928.528,85.449,6.836,-26.855,84.961,0.000
1673144928.532,-185.547,-826.172,-40.527,-118.652,0.000
1673144928.536,-155.273,-1000.000,-32.227,-126.953,0.000
1673144928.540,116.699,-168.945,-11.719,83.984,0.000
1673144928.544,135.742,635.254,-19.043,157.227,0.000
1673144928.548,-139.648,-329.590,-42.480,-84.473,0.000
1673144928.552,-215.332,-1000.000,-33.691,-207.031,0.000
1673144928.556,52.246,-414.551,-12.695,1.465,0.000
1673144928.560,179.199,310.059,-20.508,135.254,0.000
1673144928.564,-54.688,-320.801,-34.180,-25.879,0.000
1673144928.567,-229.980,-1000.000,-32.715,-185.547,0.000
1673144928.571,-31.250,-916.016,-26.367,-40.039,0.000
1673144928.575,171.387,-107.910,-19.043,144.043,0.000
1673144928.579,17.090,-241.699,-34.180,44.922,0.000
1673144928.583,-224.609,-1000.000,-42.480,-169.434,0.000
1673144928.587,-126.953,-872.070,-27.832,-121.582,0.000
1673144928.591,148.438,63.965,-17.090,104.492,0.000
1673144928.595,102.539,230.469,-23.438,87.891,0.000
1673144928.599,-169.922,-589.844,-34.180,-132.812,0.000
1673144928.603,-164.062,-983.887,-29.785,-134.277,0.000
1673144928.606,112.305,-312.988,-18.555,74.707,0.000
1673144928.610,158.691,272.949,-20.996,118.164,0.000
1673144928.614,-115.723,-325.684,-39.062,-64.941,0.000
1673144928.618,-215.332,-1000.000,-41.016,-176.270,0.000
1673144928.622,25.879,-852.051,-23.926,-8.789,0.000
1673144928.626,158.691,-572.754,-22.461,161.621,0.000
1673144928.630,-32.227,-264.648,-32.227,-2.930,0.000
1673144928.634,-217.285,-803.711,-37.598,-195.801,0.000
1673144928.638,-50.293,-1000.000,-25.391,-62.012,0.000
1673144928.642,168.457,50.781,-14.648,132.324,0.000
1673144928.646,34.668,470.215,-30.273,54.199,0.000
1673144928.649,-216.797,-653.320,-47.363,-163.086,0.000
1673144928.653,-141.602,-1000.000,-34.180,-127.441,0.000
1673144928.657,128.906,12.207,-12.695,134.277,0.000
1673144928.661,102.051,587.891,-27.832,127.441,0.000
1673144928.665,-166.992,-561.035,-51.758,-136.719,0.000
1673144928.669,-186.035,-1000.000,-46.387,-181.641,0.000
1673144928.673,76.172,-623.535,-19.531,41.016,0.000
1673144928.677,151.855,438.965,-16.602,130.859,0.000
1673144928.681,-95.703,36.133,-39.062,-59.082,0.000
1673144928.685,-228.516,-1000.000,-42.969,-179.688,0.000
1673144928.689,-3.418,-652.344,-20.508,-7.324,0.000
1673144928.692,176.270,500.000,-11.719,155.273,0.000
1673144928.696,-10.254,276.367,-35.645,2.930,0.000
1673144928.700,-232.910,-935.547,-46.387,-195.312,0.000
1673144928.704,-76.172,-915.039,-23.926,-74.219,0.000
1673144928.708,170.410,163.086,-12.695,141.113,0.000
1673144928.712,41.016,110.352,-31.738,59.570,0.000
1673144928.716,-218.750,-909.668,-42.969,-156.738,0.000
1673144928.720,-150.879,-1000.000,-20.508,-136.230,0.000
1673144928.724,55.664,-358.887,-11.230,36.133,0.000
1673144928.728,78.125,-72.754,-19.531,70.312,0.000
1673144928.731,-30.762,-428.711,-24.902,-31.250,0.000
1673144928.735,-97.656,-632.812,-27.344,-94.727,0.000
1673144928.739,0.000,-418.457,-26.367,-17.090,0.000
1673144928.743,85.449,-144.043,-26.855,66.406,0.000
1673144928.747,-5.371,-170.410,-26.367,12.207,0.000
1673144928.751,-114.258,-497.070,-25.391,-83.984,0.000
1673144928.755,-61.035,-609.863,-25.391,-42.969,0.000
1673144928.759,53.711,-514.160,-26.367,38.086,0.000
1673144928.763,23.438,-458.984,-27.832,13.184,0.000
1673144928.767,-104.492,-496.582,-32.227,-98.145,0.000
1673144928.771,-99.609,-686.035,-34.668,-89.844,0.000
1673144928.774,23.926,-803.223,-32.227,44.922,0.000
1673144928.778,44.434,-336.914,-23.438,56.641,0.000
1673144928.782,-74.707,-437.988,-30.273,-49.316,0.000
1673144928.786,-120.117,-1000.000,-31.250,-62.988,0.000
1673144928.790,-6.836,-724.609,-18.555,12.207,0.000
1673144928.794,51.270,49.316,-20.020,64.453,0.000
1673144928.798,-34.668,-13.672,-31.738,-18.066,0.000
1673144928.802,-102.539,-768.555,-38.574,-100.098,0.000
1673144928.806,-23.438,-911.133,-28.320,-41.504,0.000
1673144928.810,72.754,-440.430,-20.020,52.734,0.000
1673144928.813,21.484,-308.105,-30.273,6.348,0.000
1673144928.817,-86.914,-774.414,-48.828,-111.328,0.000
1673144928.821,-50.293,-941.406,-41.504,-81.543,0.000
1673144928.825,54.199,-135.742,-24.414,49.805,0.000
1673144928.829,39.062,211.426,-28.809,39.551,0.000
1673144928.833,-83.008,-503.418,-34.180,-72.754,0.000
1673144928.837,-87.891,-918.457,-32.227,-58.594,0.000
1673144928.841,33.203,-556.641,-29.785,29.297,0.000
1673144928.845,50.781,-2.930,-31.250,55.176,0.000
1673144928.849,-59.082,-415.039,-40.527,-48.828,0.000
1673144928.853,-98.145,-1000.000,-39.551,-100.098,0.000
1673144928.856,0.000,-746.094,-21.484,-3.418,0.000
1673144928.860,59.082,-18.555,-17.578,61.035,0.000
1673144928.864,-15.625,-521.484,-34.180,-12.207,0.000
1673144928.868,-103.027,-1000.000,-27.832,-99.121,0.000
1673144928.872,-29.297,-562.012,-11.230,-30.273,0.000
1673144928.876,75.684,-146.484,-16.113,78.125,0.000
1673144928.880,16.113,-265.137,-22.949,5.859,0.000
1673144928.884,-106.445,-603.027,-20.020,-114.746,0.000
1673144928.888,-73.242,-622.070,-11.719,-79.102,0.000
1673144928.892,54.688,-207.031,-6.836,54.199,0.000
1673144928.896,60.547,-295.898,-15.625,56.152,0.000
1673144928.899,-111.328,-832.520,-31.738,-119.629,0.000
1673144928.903,-139.160,-986.816,-24.902,-134.277,0.000
1673144928.907,106.934,-442.871,-6.348,77.148,0.000
1673144928.911,92.285,-515.625,-16.602,104.492,0.000
1673144928.915,-172.363,-801.758,-26.855,-122.559,0.000
1673144928.919,-187.012,-942.383,-20.508,-183.594,0.000
1673144928.923,66.895,-496.094,-8.789,26.367,0.000
1673144928.927,133.789,439.941,-13.184,112.305,0.000
1673144928.931,-123.047,37.109,-32.227,-84.961,0.000
1673144928.935,-245.605,-994.629,-33.691,-208.496,0.000
1673144928.938,-3.906,-853.516,-20.020,-16.602,0.000
1673144928.942,168.945,300.781,-15.625,125.000,0.000
1673144928.946,-21.973,39.551,-36.621,-19.531,0.000
1673144928.950,-230.469,-963.867,-46.875,-197.754,0.000
1673144928.954,-71.777,-1000.000,-25.879,-71.777,0.000
1673144928.958,168.457,-206.543,-8.789,135.742,0.000
1673144928.962,55.176,480.957,-27.832,36.133,0.000
1673144928.966,-186.523,-558.594,-45.898,-172.852,0.000
1673144928.970,-130.859,-1000.000,-29.297,-138.184,0.000
1673144928.974,51.758,-227.051,-17.090,30.762,0.000
1673144928.978,56.641,315.918,-22.949,68.359,0.000
1673144928.981,-53.223,-126.953,-36.133,-12.207,0.000
1673144928.985,-101.562,-848.145,-36.133,-64.453,0.000
1673144928.989,-16.113,-590.820,-20.020,-7.324,0.000
1673144928.993,67.871,-200.684,-15.625,43.945,0.000
1673144928.997,-5.859,-441.406,-29.297,-13.672,0.000
1673144929.001,-113.281,-921.875,-35.156,-103.027,0.000
1673144929.005,-69.824,-807.129,-20.996,-63.965,0.000
1673144929.009,45.410,-354.980,-21.484,67.871,0.000
1673144929.013,41.992,-262.695,-27.832,61.035,0.000
1673144929.017,-88.867,-628.906,-28.320,-95.215,0.000
1673144929.020,-97.656,-731.445,-21.973,-100.098,0.000
1673144929.024,98.633,83.496,-14.648,92.285,0.000
1673144929.028,61.523,286.133,-26.367,69.336,0.000
1673144929.032,-208.984,-705.566,-38.086,-132.812,0.000
1673144929.036,-176.758,-1000.000,-24.414,-151.367,0.000
1673144929.040,106.445,-373.047,-11.719,49.805,0.000
1673144929.044,128.418,-144.043,-21.973,109.375,0.000
1673144929.048,-136.719,-882.812,-31.250,-110.352,0.000
1673144929.052,-202.148,-1000.000,-26.367,-195.801,0.000
1673144929.056,53.223,-446.289,-14.160,4.395,0.000
1673144929.060,172.363,225.098,-15.625,141.602,0.000
1673144929.063,-59.082,-189.941,-33.203,-23.438,0.000
1673144929.067,-227.051,-976.074,-38.574,-188.965,0.000
1673144929.071,-32.227,-834.961,-25.391,-31.250,0.000
1673144929.075,175.293,61.035,-18.066,140.137,0.000
1673144929.079,40.039,238.281,-28.809,28.320,0.000
1673144929.083,-197.754,-744.141,-40.039,-178.711,0.000
1673144929.087,-108.887,-1000.000,-32.227,-109.375,0.000
1673144929.091,143.555,-889.648,-20.508,122.559,0.000
1673144929.095,89.844,-224.121,-22.461,76.172,0.000
1673144929.099,-178.711,-492.676,-37.598,-152.344,0.000
1673144929.103,-146.973,-1000.000,-30.762,-137.207,0.000
1673144929.106,62.988,-483.398,-9.766,59.570,0.000
1673144929.110,77.637,196.289,-11.719,95.703,0.000
1673144929.114,-17.578,47.852,-27.344,-16.113,0.000
1673144929.118,-100.098,-799.316,-33.691,-104.492,0.000
1673144929.122,-44.434,-851.074,-25.879,-54.199,0.000
1673144929.126,67.871,10.254,-20.020,44.922,0.000
1673144929.130,33.203,147.949,-25.879,22.949,0.000
1673144929.134,-89.844,-753.906,-38.086,-93.262,0.000
1673144929.138,-77.148,-1000.000,-30.762,-74.707,0.000
1673144929.142,43.945,-263.672,-18.555,62.012,0.000
1673144929.145,48.340,94.238,-23.926,48.828,0.000
1673144929.149,-65.430,-709.473,-37.109,-92.773,0.000
1673144929.153,-92.285,-979.004,-26.855,-96.191,0.000
1673144929.157,18.066,-284.180,-13.184,40.039,0.000
1673144929.161,54.199,40.039,-20.508,56.152,0.000
1673144929.165,-49.805,-725.586,-31.250,-57.129,0.000
1673144929.169,-94.238,-947.266,-20.508,-109.375,0.000
1673144929.173,-8.301,-497.070,-15.137,-22.461,0.000
1673144929.177,66.406,-333.008,-19.531,63.965,0.000
1673144929.181,-3.418,-648.438,-24.902,-6.348,0.000
1673144929.185,-84.473,-1000.000,-26.855,-96.191,0.000
1673144929.188,-18.066,-897.949,-25.879,-50.781,0.000
1673144929.192,56.152,-416.504,-24.414,46.387,0.000
1673144929.196,12.207,-250.000,-23.926,19.531,0.000
1673144929.200,-102.051,-550.781,-29.297,-102.051,0.000
1673144929.204,-99.121,-774.414,-25.879,-77.148,0.000
1673144929.208,17.578,-496.582,-21.973,33.691,0.000
1673144929.212,27.344,-326.172,-23.926,34.668,0.000
1673144929.216,-84.961,-397.949,-33.691,-86.914,0.000
1673144929.220,-102.051,-676.270,-35.645,-129.883,0.000
1673144929.224,9.277,-666.504,-25.879,14.160,0.000
1673144929.228,54.688,-458.008,-24.414,70.312,0.000
1673144929.231,-32.227,-572.266,-32.715,-56.152,0.000
1673144929.235,-111.328,-983.398,-37.598,-132.812,0.000
1673144929.239,-35.645,-983.398,-34.180,-48.828,0.000
1673144929.243,55.664,-156.738,-27.344,47.363,0.000
1673144929.247,-5.859,139.160,-31.738,-3.418,0.000
1673144929.251,-106.445,-568.359,-38.574,-110.840,0.000
1673144929.255,-58.105,-965.820,-33.203,-83.496,0.000
1673144929.259,59.570,-291.992,-13.184,33.691,0.000
1673144929.263,28.809,140.137,-19.531,17.578,0.000
1673144929.267,-85.449,-538.086,-37.598,-114.258,0.000
1673144929.270,-60.547,-920.410,-31.250,-114.746,0.000
1673144929.274,52.246,-574.707,-21.484,21.973,0.000
1673144929.278,44.434,-349.121,-24.414,55.664,0.000
1673144929.282,-76.172,-679.199,-27.344,-62.012,0.000
1673144929.286,-104.004,-1000.000,-23.926,-104.004,0.000
1673144929.290,2.441,-640.137,-17.578,-15.137,0.000
1673144929.294,55.664,138.184,-19.531,37.598,0.000
1673144929.298,-38.086,-174.805,-34.180,-23.438,0.000
1673144929.302,-109.863,-941.895,-32.715,-128.906,0.000
1673144929.306,-27.344,-620.117,-18.555,-74.707,0.000
1673144929.310,67.383,59.570,-19.043,30.762,0.000
1673144929.313,14.648,-144.043,-26.855,-15.625,0.000
1673144929.317,-107.910,-727.539,-28.320,-141.113,0.000
1673144929.321,-62.500,-870.605,-26.367,-118.652,0.000
1673144929.325,56.152,-482.910,-24.414,20.020,0.000
1673144929.329,43.457,-373.047,-28.320,29.297,0.000
1673144929.333,-108.887,-763.672,-38.086,-133.789,0.000
1673144929.337,-102.539,-852.051,-35.156,-133.789,0.000
1673144929.341,128.906,-11.230,-28.809,68.848,0.000
1673144929.345,79.590,-198.730,-44.922,47.852,0.000
1673144929.349,-180.176,-1000.000,-52.246,-177.734,0.000
1673144929.352,-156.738,-943.359,-39.551,-199.219,0.000
1673144929.356,110.352,-303.223,-20.508,25.391,0.000
1673144929.360,154.785,253.906,-19.531,97.168,0.000
1673144929.364,-100.586,-168.945,-37.109,-98.145,0.000
1673144929.368,-189.941,-946.289,-40.527,-198.730,0.000
1673144929.372,41.016,-886.719,-19.531,-29.297,0.000
1673144929.376,175.781,-179.688,-13.184,110.352,0.000
1673144929.380,-32.715,-49.805,-29.785,-20.020,0.000
1673144929.384,-229.004,-815.918,-40.039,-185.059,0.000
1673144929.388,-52.734,-1000.000,-32.227,-55.664,0.000
1673144929.392,174.316,-334.961,-18.555,142.090,0.000
1673144929.395,12.695,165.527,-32.715,2.441,0.000
1673144929.399,-225.098,-757.324,-48.340,-208.496,0.000
1673144929.403,-127.930,-1000.000,-30.762,-146.484,0.000
1673144929.407,143.066,-12.695,-10.742,66.895,0.000
1673144929.411,125.977,566.406,-20.508,74.707,0.000
1673144929.415,-152.344,-609.375,-41.016,-134.766,0.000
1673144929.419,-178.711,-1000.000,-36.133,-165.039,0.000
1673144929.423,88.867,-232.422,-15.625,44.434,0.000
1673144929.427,161.621,642.090,-17.090,129.395,0.000
1673144929.431,-96.680,28.320,-37.109,-42.480,0.000
1673144929.435,-234.863,-999.023,-44.922,-172.852,0.000
1673144929.438,-13.184,-619.141,-21.484,-31.250,0.000
1673144929.442,158.691,568.359,-13.184,120.605,0.000
1673144929.446,-20.996,319.336,-33.691,6.836,0.000
1673144929.450,-221.680,-900.879,-44.434,-187.988,0.000
1673144929.454,-73.242,-980.957,-33.203,-83.984,0.000
1673144929.458,158.691,-45.898,-20.996,120.117,0.000
1673144929.462,63.477,85.449,-32.715,69.824,0.000
1673144929.466,-213.867,-886.719,-45.410,-159.668,0.000
1673144929.470,-182.129,-1000.000,-25.879,-174.316,0.000
1673144929.474,207.520,319.824,-8.301,145.508,0.000
1673144929.477,196.777,796.875,-32.227,184.570,0.000
1673144929.481,-248.047,-713.867,-52.734,-166.016,0.000
1673144929.485,-292.480,-1000.000,-36.133,-232.910,0.000
1673144929.489,138.184,-73.730,-13.672,105.957,0.000
1673144929.493,257.812,868.652,-18.066,228.027,0.000
1673144929.497,-166.992,-53.711,-44.434,-69.824,0.000
1673144929.501,-350.098,-1000.000,-47.852,-236.816,0.000
1673144929.505,20.996,-620.117,-22.461,9.277,0.000
1673144929.509,213.867,-41.992,-21.973,177.734,0.000
1673144929.513,18.555,-309.082,-35.645,40.039,0.000
1673144929.517,-179.199,-930.176,-36.621,-160.156,0.000
1673144929.520,-75.684,-886.719,-20.508,-69.824,0.000
1673144929.524,154.785,-436.523,-19.043,122.070,0.000
1673144929.528,75.195,-83.496,-30.273,54.199,0.000
1673144929.532,-186.523,-509.277,-39.551,-144.531,0.000
1673144929.536,-147.949,-1000.000,-34.668,-156.250,0.000
1673144929.540,110.840,-420.410,-18.555,49.316,0.000
1673144929.544,150.391,551.270,-21.484,121.094,0.000
1673144929.548,-149.414,-164.551,-44.922,-122.070,0.000
1673144929.552,-274.902,-1000.000,-44.434,-239.746,0.000
1673144929.556,128.418,-553.223,-16.602,59.082,0.000
1673144929.559,293.457,593.750,-20.020,208.984,0.000
1673144929.563,-114.258,-102.051,-45.898,-50.781,0.000
1673144929.567,-342.773,-1000.000,-46.875,-240.723,0.000
1673144929.571,-0.977,-866.211,-15.137,-28.320,0.000
1673144929.575,294.922,645.996,1.465,229.004,0.000
1673144929.579,14.648,720.703,-31.738,41.504,0.000
1673144929.583,-341.309,-862.793,-46.387,-252.441,0.000
1673144929.587,-129.395,-985.352,-19.531,-121.094,0.000
1673144929.591,276.367,548.340,-4.883,189.941,0.000
1673144929.595,145.996,886.719,-25.879,122.070,0.000
1673144929.599,-290.039,-643.555,-52.246,-192.383,0.000
1673144929.602,-171.387,-1000.000,-28.809,-126.953,0.000
1673144929.606,248.047,-45.898,3.418,171.875,0.000
1673144929.610,232.910,824.219,-10.742,199.707,0.000
1673144929.614,-208.984,-377.441,-47.852,-123.535,0.000
1673144929.618,-334.473,-1000.000,-35.645,-256.836,0.000
1673144929.622,98.633,-349.609,-7.812,57.617,0.000
1673144929.626,290.039,663.086,-20.996,247.559,0.000
1673144929.630,-95.215,-27.344,-46.875,-43.457,0.000
1673144929.634,-361.328,-1000.000,-45.898,-306.641,0.000
1673144929.638,-35.156,-698.730,-22.461,-67.871,0.000
1673144929.642,303.223,654.297,-14.160,228.027,0.000
1673144929.645,58.105,470.703,-34.180,66.895,0.000
1673144929.649,-334.473,-890.137,-51.270,-239.258,0.000
1673144929.653,-169.922,-1000.000,-32.227,-152.344,0.000
1673144929.657,239.746,-1.953,-17.090,157.227,0.000
1673144929.661,147.949,41.504,-37.109,117.188,0.000
1673144929.665,-286.133,-842.773,-52.246,-214.844,0.000
1673144929.669,-279.297,-1000.000,-39.062,-239.258,0.000
1673144929.673,177.734,-103.516,-18.555,104.980,0.000
1673144929.677,257.812,854.004,-24.414,225.586,0.000
1673144929.681,-170.410,-211.914,-51.758,-108.398,0.000
1673144929.684,-330.078,-1000.000,-49.316,-294.922,0.000
1673144929.688,60.059,-601.074,-15.137,10.254,0.000
1673144929.692,290.527,705.078,-11.719,219.727,0.000
1673144929.696,-87.891,12.695,-41.504,-65.430,0.000
1673144929.700,-364.746,-1000.000,-47.363,-301.270,0.000
1673144929.704,-52.734,-1000.000,-24.902,-85.449,0.000
1673144929.708,288.574,159.180,-4.395,194.336,0.000
1673144929.712,82.031,774.902,-28.320,42.480,0.000
1673144929.716,-305.664,-752.930,-53.223,-276.367,0.000
1673144929.720,-188.965,-1000.000,-26.855,-180.176,0.000
1673144929.724,232.422,402.832,-0.977,147.461,0.000
1673144929.727,197.266,-994.141,-18.555,118.164,0.000
1673144929.731,-256.348,-427.246,-51.758,-209.961,0.000
1673144929.735,-296.387,-1000.000,-41.992,-237.305,0.000
1673144929.739,157.227,-69.824,-12.695,56.152,0.000
1673144929.743,280.273,833.496,-20.508,155.273,0.000
1673144929.747,-134.277,-256.348,-54.199,-127.930,0.000
1673144929.751,-303.223,-1000.000,-54.688,-282.715,0.000
1673144929.755,36.621,-522.461,-17.090,-22.949,0.000
1673144929.759,208.984,603.027,-15.625,164.551,0.000
1673144929.763,-2.441,301.758,-38.574,-5.859,0.000
1673144929.767,-215.332,-946.777,-41.992,-216.309,0.000
1673144929.770,-91.797,-927.734,-24.414,-127.441,0.000
1673144929.774,156.250,226.074,-12.695,93.262,0.000
1673144929.778,83.008,363.770,-33.203,34.180,0.000
1673144929.782,-184.082,-687.500,-46.387,-190.918,0.000
1673144929.786,-166.992,-1000.000,-30.273,-169.434,0.000
1673144929.790,111.816,-410.156,-18.066,44.922,0.000
1673144929.794,130.859,-96.191,-31.250,101.074,0.000
1673144929.798,-143.555,-876.465,-38.086,-81.543,0.000
1673144929.802,-193.359,-1000.000,-24.414,-168.457,0.000
1673144929.806,61.035,-448.242,-10.254,18.066,0.000
1673144929.809,172.363,210.449,-12.207,133.789,0.000
1673144929.813,-50.293,36.621,-30.762,-54.688,0.000
1673144929.817,-204.102,-851.074,-41.016,-238.770,0.000
1673144929.821,-20.996,-863.281,-26.367,-91.797,0.000
1673144929.825,174.805,-15.625,-22.949,104.004,0.000
1673144929.829,27.344,226.074,-39.062,-3.418,0.000
1673144929.833,-213.867,-637.695,-46.387,-207.031,0.000
1673144929.837,-108.398,-1000.000,-39.551,-144.043,0.000
1673144929.841,148.926,-856.934,-31.250,81.543,0.000
1673144929.845,89.844,-296.387,-32.227,67.383,0.000
1673144929.849,-191.895,-716.309,-50.781,-178.711,0.000
1673144929.852,-195.801,-1000.000,-46.875,-192.871,0.000
1673144929.856,76.660,-252.441,-22.949,47.852,0.000
1673144929.860,117.676,670.898,-22.949,101.562,0.000
1673144929.864,-142.090,-84.961,-36.133,-106.445,0.000
1673144929.868,-229.004,-1000.000,-35.645,-204.590,0.000
1673144929.872,21.973,-517.090,-19.531,0.000,0.000
1673144929.876,173.340,587.402,-19.043,141.113,0.000
1673144929.880,-20.996,270.996,-31.250,-32.227,0.000
1673144929.884,-214.844,-925.293,-35.156,-211.426,0.000
1673144929.888,-51.270,-976.074,-21.484,-77.637,0.000
1673144929.891,177.246,250.488,-12.207,106.934,0.000
1673144929.895,50.781,449.219,-29.297,21.484,0.000
1673144929.899,-207.520,-776.367,-49.805,-166.992,0.000
1673144929.903,-139.648,-1000.000,-31.250,-128.418,0.000
1673144929.907,119.629,-44.922,-12.695,84.473,0.000
1673144929.911,97.168,537.109,-25.879,84.961,0.000
1673144929.915,-163.574,-644.531,-41.504,-127.930,0.000
1673144929.919,-186.035,-1000.000,-34.668,-160.645,0.000
1673144929.923,88.867,-185.547,-19.043,37.109,0.000
1673144929.927,177.246,449.707,-23.926,98.633,0.000
1673144929.931,-81.543,-513.672,-43.945,-70.312,0.000
1673144929.934,-211.914,-1000.000,-46.387,-174.316,0.000
1673144929.938,16.113,-729.980,-27.832,-32.227,0.000
1673144929.942,177.734,173.828,-26.855,125.000,0.000
1673144929.946,-9.277,-433.594,-42.480,-1.465,0.000
1673144929.950,-213.867,-1000.000,-39.062,-188.965,0.000
1673144929.954,-62.012,-769.531,-24.414,-89.844,0.000
1673144929.958,171.387,-10.254,-18.555,117.188,0.000
1673144929.962,60.059,219.238,-29.297,61.523,0.000
1673144929.966,-199.707,-626.953,-37.598,-152.344,0.000
1673144929.970,-140.625,-1000.000,-25.879,-115.234,0.000
1673144929.974,131.348,-342.285,-17.090,93.262,0.000
1673144929.977,86.426,-88.379,-27.344,91.309,0.000
1673144929.981,-175.293,-718.750,-39.062,-103.027,0.000
1673144929.985,-198.730,-1000.000,-34.668,-167.969,0.000
1673144929.989,54.199,-967.773,-25.879,21.973,0.000
1673144929.993,157.227,-202.148,-22.461,123.535,0.000
1673144929.997,-72.754,9.277,-41.016,-51.270,0.000
1673144930.001,-223.633,-959.473,-50.293,-187.012,0.000
1673144930.005,-17.578,-873.047,-25.391,-36.621,0.000
1673144930.009,174.316,372.070,-14.160,146.484,0.000
1673144930.013,25.879,362.305,-32.715,52.246,0.000
1673144930.016,-222.656,-876.465,-51.270,-170.410,0.000
1673144930.020,-106.445,-948.730,-35.156,-110.840,0.000
1673144930.024,251.465,307.129,-15.625,169.922,0.000
1673144930.028,109.863,460.938,-30.273,111.816,0.000
1673144930.032,-327.637,-830.078,-49.316,-205.566,0.000
1673144930.036,-238.281,-1000.000,-33.203,-196.777,0.000
1673144930.040,210.449,258.789,-3.906,127.441,0.000
1673144930.044,213.867,977.051,-22.461,179.199,0.000
1673144930.048,-226.074,-446.289,-49.805,-148.438,0.000
1673144930.052,-310.547,-1000.000,-36.621,-257.812,0.000
1673144930.056,121.582,-134.277,-10.742,47.363,0.000
1673144930.059,290.039,928.711,-15.137,208.008,0.000
1673144930.063,-118.652,-13.184,-44.434,-70.801,0.000
1673144930.067,-348.633,-1000.000,-45.410,-263.184,0.000
1673144930.071,-3.418,-735.352,-13.184,-46.387,0.000
1673144930.075,284.180,465.820,-4.883,189.453,0.000
1673144930.079,14.648,136.719,-34.180,30.273,0.000
1673144930.083,-344.727,-1000.000,-45.410,-261.719,0.000
1673144930.087,-138.184,-920.410,-23.926,-126.953,0.000
1673144930.091,262.207,486.328,-10.254,187.988,0.000
1673144930.095,136.719,712.891,-27.344,106.445,0.000
1673144930.099,-279.785,-705.078,-43.457,-216.309,0.000
1673144930.102,-242.188,-1000.000,-29.297,-205.078,0.000
1673144930.106,196.777,-9.277,-8.789,121.582,0.000
1673144930.110,231.934,821.289,-17.578,180.664,0.000
1673144930.114,-221.191,-193.848,-41.992,-116.699,0.000
1673144930.118,-345.703,-1000.000,-37.598,-260.742,0.000
1673144930.122,86.914,-643.555,-10.742,17.578,0.000
1673144930.126,298.828,-101.562,-9.766,231.445,0.000
1673144930.130,-62.988,-267.090,-30.273,-33.203,0.000
1673144930.134,-341.797,-973.633,-34.668,-270.996,0.000
1673144930.138,-38.574,-917.969,-9.277,-42.969,0.000
1673144930.141,301.758,548.340,4.883,216.797,0.000
1673144930.145,51.270,748.047,-20.996,46.387,0.000
1673144930.149,-324.707,-781.250,-38.574,-232.910,0.000
1673144930.153,-146.484,-1000.000,-16.602,-132.324,0.000
1673144930.157,266.602,362.793,0.488,161.621,0.000
1673144930.161,176.758,878.906,-20.996,134.277,0.000
1673144930.165,-268.555,-619.141,-47.852,-184.570,0.000
1673144930.169,-264.160,-1000.000,-38.574,-225.586,0.000
1673144930.173,179.688,-274.902,-9.766,103.516,0.000
1673144930.177,245.117,884.277,-14.648,215.332,0.000
1673144930.181,-184.570,-18.555,-45.898,-95.703,0.000
1673144930.184,-334.961,-1000.000,-44.434,-273.926,0.000
1673144930.188,70.801,-382.324,-12.695,7.812,0.000
1673144930.192,318.848,919.434,-10.254,212.402,0.000
1673144930.196,-16.113,437.500,-34.668,-18.555,0.000
1673144930.200,-338.379,-983.887,-41.016,-253.418,0.000
1673144930.204,-65.430,-824.707,-11.719,-80.078,0.000
1673144930.208,305.664,681.641,1.953,214.355,0.000
1673144930.212,111.328,551.758,-25.391,101.562,0.000
1673144930.216,-291.992,-895.508,-47.852,-237.793,0.000
1673144930.220,-178.223,-1000.000,-22.949,-178.223,0.000
1673144930.223,255.859,358.887,0.488,165.527,0.000
1673144930.227,197.266,851.074,-22.949,165.039,0.000
1673144930.231,-245.605,-590.820,-46.875,-163.086,0.000
1673144930.235,-233.398,-1000.000,-30.273,-189.453,0.000
1673144930.239,184.082,-278.320,-5.859,115.723,0.000
1673144930.243,270.020,674.805,-11.719,210.449,0.000
1673144930.247,-107.910,-14.160,-31.738,-53.223,0.000
1673144930.251,-268.555,-1000.000,-33.203,-176.758,0.000
1673144930.255,-26.855,-706.055,-20.020,6.836,0.000
1673144930.259,166.992,-30.273,-20.996,142.090,0.000
1673144930.263,15.625,-287.598,-33.691,12.207,0.000
1673144930.266,-211.426,-938.477,-39.062,-209.961,0.000
1673144930.270,-100.586,-917.969,-26.367,-121.094,0.000
1673144930.274,151.855,-390.625,-17.090,109.863,0.000
1673144930.278,77.637,135.742,-27.832,75.195,0.000
1673144930.282,-190.918,-472.656,-39.062,-138.672,0.000
1673144930.286,-152.832,-1000.000,-31.738,-146.484,0.000
1673144930.290,128.418,-753.418,-16.113,85.938,0.000
1673144930.294,140.137,117.188,-16.602,131.348,0.000
1673144930.298,-126.953,-382.812,-34.668,-88.867,0.000
1673144930.302,-197.754,-1000.000,-35.645,-167.480,0.000
1673144930.306,45.410,-726.562,-17.090,19.043,0.000
1673144930.309,170.410,92.285,-12.695,145.996,0.000
1673144930.313,-48.828,-217.773,-31.738,-21.484,0.000
1673144930.317,-230.469,-1000.000,-37.109,-189.453,0.000
1673144930.321,-49.316,-797.363,-16.602,-52.246,0.000
1673144930.325,167.480,395.996,-11.230,133.301,0.000
1673144930.329,22.949,483.887,-33.691,31.738,0.000
1673144930.333,-227.539,-792.969,-50.293,-174.316,0.000
1673144930.337,-126.465,-988.281,-32.715,-103.516,0.000
1673144930.341,145.508,195.801,-19.531,117.676,0.000
1673144930.345,100.586,633.789,-31.250,95.703,0.000
1673144930.348,-179.688,-560.059,-47.363,-141.113,0.000
1673144930.352,-187.988,-1000.000,-42.969,-198.242,0.000
1673144930.356,92.285,-476.562,-21.973,36.621,0.000
1673144930.360,154.785,183.105,-22.949,126.953,0.000
1673144930.364,-108.398,-507.324,-42.969,-70.801,0.000
1673144930.368,-213.867,-1000.000,-36.621,-182.617,0.000
1673144930.372,31.250,-472.168,-12.695,7.812,0.000
1673144930.376,175.293,517.090,-15.137,155.762,0.000
1673144930.380,-49.805,-292.969,-36.621,17.090,0.000
1673144930.384,-246.582,-1000.000,-33.203,-135.742,0.000
1673144930.388,-62.500,-719.727,-17.578,-54.199,0.000
1673144930.391,168.457,274.414,-17.090,121.094,0.000
1673144930.395,40.039,149.414,-30.762,59.082,0.000
1673144930.399,-209.961,-862.305,-39.551,-158.203,0.000
1673144930.403,-142.578,-1000.000,-25.879,-122.070,0.000
1673144930.407,125.488,-437.988,-13.672,108.398,0.000
1673144930.411,116.699,14.160,-21.484,110.840,0.000
1673144930.415,-171.387,-448.242,-40.527,-127.930,0.000
1673144930.419,-242.188,-989.258,-47.363,-207.520,0.000
1673144930.423,133.301,-390.137,-28.809,63.477,0.000
1673144930.427,246.582,320.801,-25.879,187.500,0.000
1673144930.430,-182.129,-165.527,-48.828,-113.281,0.000
1673144930.434,-343.262,-1000.000,-46.875,-263.184,0.000
1673144930.438,48.828,-693.359,-22.461,13.184,0.000
1673144930.442,285.645,654.297,-20.996,203.125,0.000
1673144930.446,-41.016,139.648,-53.223,-40.527,0.000
1673144930.450,-356.445,-1000.000,-62.988,-294.922,0.000
1673144930.454,-84.473,-989.746,-37.109,-86.914,0.000
1673144930.458,272.949,473.633,-22.461,196.289,0.000
1673144930.462,62.012,747.559,-43.945,67.383,0.000
1673144930.466,-339.355,-818.359,-66.406,-235.352,0.000
1673144930.470,-208.984,-1000.000,-50.781,-180.664,0.000
1673144930.473,217.773,228.516,-18.555,167.480,0.000
1673144930.477,179.688,977.051,-32.227,167.969,0.000
1673144930.481,-254.395,-362.305,-57.617,-176.270,0.000
1673144930.485,-300.293,-1000.000,-41.016,-230.469,0.000
1673144930.489,139.160,-56.152,-17.578,80.566,0.000
1673144930.493,269.531,864.746,-28.320,200.684,0.000
1673144930.497,-151.855,-235.352,-54.199,-64.453,0.000
1673144930.501,-363.281,-1000.000,-50.781,-253.906,0.000
1673144930.505,13.672,-495.605,-23.438,-29.297,0.000
1673144930.509,287.598,840.332,-19.531,218.750,0.000
1673144930.513,-20.996,442.383,-47.852,28.809,0.000
1673144930.516,-355.957,-980.957,-59.570,-242.188,0.000
1673144930.520,-104.004,-964.355,-27.832,-83.008,0.000
1673144930.524,280.273,553.711,-12.695,185.547,0.000
1673144930.528,113.281,682.617,-34.180,80.078,0.000
1673144930.532,-227.539,-721.680,-45.410,-178.711,0.000
1673144930.536,-158.203,-1000.000,-36.621,-160.645,0.000
1673144930.540,101.562,-420.410,-26.367,65.918,0.000
1673144930.544,121.094,-19.043,-29.785,121.582,0.000
1673144930.548,-132.812,-527.344,-44.434,-79.590,0.000
1673144930.552,-215.332,-1000.000,-42.969,-164.062,0.000
1673144930.555,35.156,-462.402,-26.367,13.672,0.000
1673144930.559,166.016,-28.320,-28.809,136.719,0.000
1673144930.563,-60.547,-356.934,-36.133,-12.207,0.000
1673144930.567,-230.469,-867.188,-37.598,-157.715,0.000
1673144930.571,-37.109,-896.973,-27.344,-31.738,0.000
1673144930.575,176.758,-122.559,-17.090,141.602,0.000
1673144930.579,28.320,188.477,-31.738,50.781,0.000
1673144930.583,-209.473,-637.207,-44.434,-157.227,0.000
1673144930.587,-111.816,-1000.000,-38.086,-107.910,0.000
1673144930.591,133.789,-586.426,-20.508,120.605,0.000
1673144930.595,84.961,89.844,-23.926,90.820,0.000
1673144930.598,-179.199,-417.480,-41.016,-126.465,0.000
1673144930.602,-173.340,-1000.000,-34.668,-137.207,0.000
1673144930.606,108.887,-655.762,-17.578,76.172,0.000
1673144930.610,172.852,421.875,-15.625,143.555,0.000
1673144930.614,-88.867,-41.992,-38.574,-43.457,0.000
1673144930.618,-200.195,-1000.000,-44.434,-170.898,0.000
1673144930.622,47.363,-550.781,-24.414,-2.930,0.000
1673144930.626,190.918,555.176,-19.043,158.691,0.000
1673144930.630,-30.762,139.160,-38.574,21.973,0.000
1673144930.634,-229.004,-973.145,-51.758,-139.160,0.000
1673144930.637,-62.500,-983.887,-31.738,-46.875,0.000
1673144930.641,158.691,203.613,-19.043,120.117,0.000
1673144930.645,21.973,484.375,-40.527,53.223,0.000
1673144930.649,-229.980,-785.645,-60.059,-140.137,0.000
1673144930.653,-146.484,-1000.000,-38.574,-112.793,0.000
1673144930.657,120.605,15.625,-20.020,114.746,0.000
1673144930.661,84.473,449.707,-38.574,121.582,0.000
1673144930.665,-184.082,-675.293,-59.570,-122.070,0.000
1673144930.669,-201.660,-1000.000,-48.340,-170.898,0.000
1673144930.673,63.477,-288.574,-28.320,46.875,0.000
1673144930.677,146.484,395.508,-27.832,150.879,0.000
1673144930.680,-109.375,-549.316,-39.551,-31.738,0.000
1673144930.684,-245.605,-1000.000,-39.551,-145.508,0.000
1673144930.688,-21.973,-703.125,-19.531,32.227,0.000
1673144930.692,151.855,-43.945,-16.113,191.406,0.000
1673144930.696,-21.973,-622.070,-37.109,70.312,0.000
1673144930.700,-210.449,-1000.000,-37.598,-102.539,0.000
1673144930.704,-72.266,-797.363,-22.461,-22.949,0.000
1673144930.708,162.109,72.754,-15.137,178.711,0.000
1673144930.712,79.102,453.613,-22.949,137.207,0.000
1673144930.716,-254.395,-559.082,-41.016,-139.648,0.000
1673144930.720,-206.055,-1000.000,-29.785,-123.047,0.000
1673144930.723,224.609,62.500,-6.348,212.891,0.000
1673144930.727,194.824,675.293,-23.926,223.633,0.000
1673144930.731,-254.395,-632.324,-51.758,-104.004,0.000
1673144930.735,-277.832,-1000.000,-40.527,-162.598,0.000
1673144930.739,116.211,-726.074,-20.996,116.699,0.000
1673144930.743,199.707,-265.625,-20.996,187.988,0.000
1673144930.747,-41.992,-69.336,-33.203,-12.695,0.000
1673144930.751,-188.477,-920.898,-39.062,-159.180,0.000
1673144930.755,-15.137,-866.211,-23.926,-15.625,0.000
1673144930.759,171.387,403.320,-12.207,171.387,0.000
1673144930.762,5.859,473.145,-30.762,41.992,0.000
1673144930.766,-213.867,-737.793,-42.480,-154.785,0.000
1673144930.770,-87.891,-950.195,-21.973,-65.430,0.000
1673144930.774,148.926,-60.547,-13.184,140.137,0.000
1673144930.778,65.918,103.516,-26.855,103.516,0.000
1673144930.782,-196.289,-796.875,-40.039,-114.746,0.000
1673144930.786,-165.039,-1000.000,-30.762,-108.887,0.000
1673144930.790,113.770,-67.383,-5.859,113.281,0.000
1673144930.794,149.414,754.395,-15.625,138.672,0.000
1673144930.798,-123.047,-231.934,-33.691,-55.664,0.000
1673144930.802,-205.566,-1000.000,-29.785,-131.348,0.000
1673144930.805,41.504,-397.461,-14.648,39.062,0.000
1673144930.809,169.922,604.492,-15.625,159.180,0.000
1673144930.813,-57.617,-17.578,-39.062,-5.859,0.000
1673144930.817,-232.910,-1000.000,-45.898,-170.898,0.000
1673144930.821,-38.086,-939.453,-26.367,-30.762,0.000
1673144930.825,173.340,-25.391,-14.648,161.133,0.000
1673144930.829,30.762,-90.332,-33.203,65.918,0.000
1673144930.833,-202.637,-1000.000,-38.574,-135.254,0.000
1673144930.837,-110.352,-890.137,-18.066,-54.199,0.000
1673144930.841,147.949,119.141,-11.230,163.574,0.000
1673144930.845,101.562,300.781,-24.414,114.258,0.000
1673144930.848,-168.457,-491.699,-33.691,-99.609,0.000
1673144930.852,-169.434,-995.605,-24.414,-113.281,0.000
1673144930.856,105.469,-544.434,-15.137,98.145,0.000
1673144930.860,153.809,240.234,-22.461,164.551,0.000
1673144930.864,-111.328,-123.047,-38.086,-28.320,0.000
1673144930.868,-216.309,-951.172,-39.062,-140.137,0.000
1673144930.872,22.949,-883.789,-25.391,26.367,0.000
1673144930.876,162.598,-558.105,-22.949,161.133,0.000
1673144930.880,-6.836,-142.578,-25.391,19.043,0.000
1673144930.884,-128.906,-401.855,-28.809,-104.492,0.000
1673144930.887,-78.125,-881.348,-23.438,-41.504,0.000
1673144930.891,41.016,-442.871,-16.602,62.988,0.000
1673144930.895,40.527,161.621,-22.461,48.340,0.000
1673144930.899,-78.125,-208.496,-32.227,-70.801,0.000
1673144930.903,-82.031,-830.078,-34.668,-88.379,0.000
1673144930.907,35.645,-459.473,-25.391,36.621,0.000
1673144930.911,64.941,-107.910,-26.367,73.242,0.000
1673144930.915,-38.574,-550.293,-38.086,-35.156,0.000
1673144930.919,-91.309,-1000.000,-37.598,-99.121,0.000
1673144930.923,0.488,-770.020,-17.090,-10.254,0.000
1673144930.927,65.918,-41.992,-12.207,80.566,0.000
1673144930.930,-1.953,-71.777,-26.855,9.277,0.000
1673144930.934,-96.680,-865.234,-30.762,-92.285,0.000
1673144930.938,-48.828,-797.363,-20.996,-20.508,0.000
1673144930.942,58.105,-33.691,-17.090,80.566,0.000
1673144930.946,21.484,-41.504,-23.926,39.551,0.000
1673144930.950,-105.469,-792.969,-30.762,-68.359,0.000
1673144930.954,-95.215,-822.754,-26.367,-61.035,0.000
1673144930.958,31.738,-208.496,-16.602,65.430,0.000
1673144930.962,46.387,-287.109,-25.391,84.473,0.000
1673144930.966,-65.430,-884.766,-43.457,-26.855,0.000
1673144930.969,-97.656,-1000.000,-33.691,-66.895,0.000
1673144930.973,-5.371,-675.293,-21.973,22.461,0.000
1673144930.977,37.109,-101.074,-26.855,74.219,0.000
1673144930.981,-53.711,-330.566,-29.785,-17.578,0.000
1673144930.985,-140.137,-726.562,-31.250,-88.379,0.000
1673144930.989,-50.293,-491.211,-28.809,11.719,0.000
1673144930.993,51.758,-114.258,-32.715,109.863,0.000
1673144930.997,-18.066,-166.992,-46.387,13.184,0.000
1673144931.001,-112.305,-592.285,-53.711,-107.422,0.000
1673144931.005,-65.918,-628.418,-45.410,-53.711,0.000
1673144931.009,44.434,-535.156,-41.016,55.664,0.000
1673144931.012,31.738,-525.879,-44.922,39.062,0.000
1673144931.016,-98.633,-502.441,-45.898,-88.867,0.000
1673144931.020,-91.797,-770.996,-43.457,-95.215,0.000
1673144931.024,50.293,-831.055,-37.598,46.875,0.000
1673144931.028,73.242,-222.168,-27.832,76.172,0.000
1673144931.032,-47.852,-53.711,-32.715,-57.617,0.000
1673144931.036,-102.539,-603.516,-38.086,-103.027,0.000
1673144931.040,-7.324,-668.945,-30.273,6.836,0.000
1673144931.044,60.059,28.809,-22.461,91.309,0.000
1673144931.048,-32.715,50.293,-27.344,11.230,0.000
1673144931.052,-114.746,-674.805,-34.668,-105.469,0.000
1673144931.055,-44.922,-896.484,-29.297,-31.738,0.000
1673144931.059,41.992,-417.969,-25.879,94.238,0.000
1673144931.063,-3.418,-291.016,-34.668,32.227,0.000
1673144931.067,-119.629,-853.516,-41.504,-98.633,0.000
1673144931.071,-91.309,-960.938,-34.668,-76.660,0.000
1673144931.075,41.016,-180.176,-25.391,42.480,0.000
1673144931.079,32.227,-24.902,-32.227,54.688,0.000
1673144931.083,-98.633,-680.176,-40.527,-54.199,0.000
1673144931.087,-104.004,-830.566,-37.598,-75.195,0.000
1673144931.091,8.789,-248.047,-29.785,27.832,0.000
1673144931.094,27.344,123.047,-32.715,42.969,0.000
1673144931.098,-90.332,-429.688,-45.410,-66.406,0.000
1673144931.102,-131.836,-1000.000,-43.945,-122.070,0.000
1673144931.106,-12.207,-820.801,-30.762,-20.508,0.000
1673144931.110,62.988,-60.547,-29.297,62.988,0.000
1673144931.114,-18.555,-422.852,-41.016,-1.953,0.000
1673144931.118,-95.703,-993.164,-36.621,-80.566,0.000
1673144931.122,-28.809,-525.391,-25.391,-33.691,0.000
1673144931.126,56.152,13.184,-27.344,60.059,0.000
1673144931.130,10.254,-143.066,-32.715,25.391,0.000
1673144931.134,-105.957,-694.336,-37.598,-93.262,0.000
1673144931.137,-83.496,-815.430,-29.785,-52.734,0.000
1673144931.141,40.527,-243.652,-24.414,63.477,0.000
1673144931.145,42.480,-142.090,-31.738,43.457,0.000
1673144931.149,-77.637,-733.887,-45.410,-68.359,0.000
1673144931.153,-97.656,-1000.000,-43.945,-100.098,0.000
1673144931.157,104.004,-474.121,-30.273,60.547,0.000
1673144931.161,115.234,-464.355,-40.039,115.234,0.000
1673144931.165,-159.668,-790.039,-46.875,-102.051,0.000
1673144931.169,-185.547,-963.379,-41.992,-158.691,0.000
1673144931.173,81.543,-427.246,-28.809,59.082,0.000
1673144931.177,161.621,500.488,-26.367,142.090,0.000
1673144931.180,-99.121,72.754,-43.945,-46.387,0.000
1673144931.184,-245.605,-952.637,-45.898,-185.059,0.000
1673144931.188,-7.324,-919.434,-25.879,-16.602,0.000
1673144931.192,168.945,-28.809,-20.996,143.555,0.000
1673144931.196,-19.043,-88.867,-37.598,16.113,0.000
1673144931.200,-215.820,-904.297,-48.340,-170.410,0.000
1673144931.204,-68.848,-1000.000,-37.109,-70.312,0.000
1673144931.208,161.133,-323.242,-18.555,148.438,0.000
1673144931.212,67.871,510.254,-28.320,87.891,0.000
1673144931.216,-192.871,-419.922,-52.734,-135.254,0.000
1673144931.219,-157.227,-1000.000,-45.898,-104.980,0.000
1673144931.223,116.699,-48.828,-24.414,123.047,0.000
1673144931.227,127.930,680.176,-33.691,125.000,0.000
1673144931.231,-135.742,-221.680,-48.828,-94.727,0.000
1673144931.235,-193.359,-1000.000,-43.945,-157.227,0.000
1673144931.239,60.059,-387.695,-23.438,45.410,0.000
1673144931.243,164.062,278.320,-22.949,131.836,0.000
1673144931.247,-75.684,-328.125,-43.945,-47.852,0.000
1673144931.251,-229.004,-1000.000,-49.805,-179.688,0.000
1673144931.255,-46.875,-768.066,-25.879,-42.969,0.000
1673144931.259,101.074,81.543,-22.461,84.473,0.000
1673144931.262,36.133,85.938,-36.621,32.227,0.000
1673144931.266,-103.027,-548.828,-42.969,-88.379,0.000
1673144931.270,-98.145,-605.957,-40.527,-78.613,0.000
1673144931.274,22.949,-95.703,-39.551,25.879,0.000
1673144931.278,44.922,-37.598,-44.922,37.598,0.000
1673144931.282,-60.059,-458.008,-48.828,-47.363,0.000
1673144931.286,-88.867,-679.199,-42.969,-102.051,0.000
1673144931.290,14.160,-658.691,-37.109,-19.043,0.000
1673144931.294,79.102,-557.617,-38.574,76.660,0.000
1673144931.298,-28.809,-745.605,-42.969,-14.160,0.000
1673144931.301,-171.387,-994.629,-42.969,-142.090,0.000
1673144931.305,20.020,-701.660,-30.762,27.832,0.000
1673144931.309,174.805,191.895,-29.297,168.457,0.000
1673144931.313,-53.711,57.617,-39.551,-2.441,0.000
1673144931.317,-233.398,-858.398,-40.527,-146.484,0.000
1673144931.321,-46.387,-808.105,-27.832,-27.832,0.000
1673144931.325,168.457,114.746,-21.484,141.602,0.000
1673144931.329,34.180,345.215,-35.645,53.711,0.000
1673144931.333,-207.520,-624.023,-53.223,-158.203,0.000
1673144931.337,-93.262,-1000.000,-46.875,-73.242,0.000
1673144931.341,170.410,-886.719,-38.574,149.902,0.000
1673144931.344,101.562,-230.957,-40.527,98.633,0.000
1673144931.348,-180.176,-484.863,-51.270,-133.789,0.000
1673144931.352,-184.082,-1000.000,-50.293,-153.809,0.000
1673144931.356,87.891,-444.824,-29.297,67.871,0.000
1673144931.360,158.691,332.031,-31.738,154.785,0.000
1673144931.364,-105.957,-202.637,-52.734,-53.223,0.000
1673144931.368,-220.703,-974.609,-51.270,-177.246,0.000
1673144931.372,-11.719,-624.512,-25.391,-10.742,0.000
1673144931.376,99.609,121.094,-17.578,110.352,0.000
1673144931.380,35.645,188.477,-30.273,53.711,0.000
1673144931.384,-83.496,-726.562,-42.480,-68.359,0.000
1673144931.387,-67.871,-1000.000,-33.691,-47.852,0.000
1673144931.391,47.852,-159.180,-25.391,72.754,0.000
1673144931.395,45.410,183.594,-29.785,58.594,0.000
1673144931.399,-72.266,-614.746,-41.016,-73.730,0.000
1673144931.403,-108.887,-893.555,-37.109,-90.332,0.000
1673144931.407,7.812,-219.727,-25.879,42.480,0.000
1673144931.411,45.898,74.219,-33.203,56.152,0.000
1673144931.415,-61.523,-665.039,-45.898,-58.105,0.000
1673144931.419,-104.492,-946.289,-39.551,-114.258,0.000
1673144931.423,-9.766,-396.484,-27.344,-23.438,0.000
1673144931.426,68.359,-38.574,-29.785,82.031,0.000
1673144931.430,-8.301,-596.191,-41.504,9.766,0.000
1673144931.434,-111.328,-1000.000,-42.969,-120.117,0.000
1673144931.438,-62.988,-908.691,-37.598,-69.824,0.000
1673144931.442,38.086,-454.102,-26.855,78.613,0.000
1673144931.446,18.066,-293.457,-29.785,59.082,0.000
1673144931.450,-92.773,-569.824,-39.551,-100.098,0.000
1673144931.454,-90.820,-614.258,-39.551,-95.215,0.000
1673144931.458,32.715,-395.996,-32.227,43.945,0.000
1673144931.462,47.363,-291.992,-24.902,57.617,0.000
1673144931.466,-75.195,-297.852,-32.715,-62.012,0.000
1673144931.469,-104.492,-767.578,-38.086,-96.191,0.000
1673144931.473,1.953,-812.500,-26.367,20.020,0.000
1673144931.477,50.293,-455.566,-26.367,72.266,0.000
1673144931.481,-35.645,-432.129,-35.645,-25.391,0.000
1673144931.485,-103.516,-715.332,-37.109,-90.820,0.000
1673144931.489,-20.020,-919.922,-28.809,-31.250,0.000
1673144931.493,64.453,-208.496,-18.066,40.039,0.000
1673144931.497,-6.348,174.316,-26.855,-12.207,0.000
1673144931.501,-106.934,-514.160,-43.945,-109.375,0.000
1673144931.505,-68.359,-951.660,-41.016,-64.453,0.000
1673144931.508,52.734,-296.875,-21.484,55.176,0.000
1673144931.512,38.574,189.453,-19.531,45.898,0.000
1673144931.516,-88.867,-414.062,-31.250,-74.707,0.000
1673144931.520,-90.820,-892.090,-28.320,-81.543,0.000
1673144931.524,27.344,-601.562,-18.555,60.547,0.000
1673144931.528,46.387,-301.270,-23.926,93.750,0.000
1673144931.532,-66.406,-662.109,-33.691,-15.625,0.000
1673144931.536,-98.145,-1000.000,-30.273,-80.566,0.000
1673144931.540,13.184,-509.277,-22.461,-6.348,0.000
1673144931.544,70.312,132.812,-26.855,67.383,0.000
1673144931.548,-22.949,-177.246,-41.992,-14.160,0.000
1673144931.551,-104.492,-897.461,-45.898,-104.492,0.000
1673144931.555,-47.852,-598.145,-31.250,-34.180,0.000
1673144931.559,45.410,77.148,-28.809,85.938,0.000
1673144931.563,3.418,-122.070,-40.527,41.016,0.000
1673144931.567,-102.539,-679.688,-44.922,-104.492,0.000
1673144931.571,-68.848,-926.270,-37.598,-62.500,0.000
1673144931.575,44.434,-513.184,-30.273,82.520,0.000
1673144931.579,40.527,-328.125,-40.527,34.668,0.000
1673144931.583,-146.973,-940.918,-50.781,-129.883,0.000
1673144931.587,-127.441,-947.754,-34.668,-102.539,0.000
1673144931.591,135.742,135.742,-23.926,102.539,0.000
1673144931.594,104.004,67.871,-36.621,94.727,0.000
1673144931.598,-172.852,-931.641,-45.410,-119.629,0.000
1673144931.602,-197.266,-995.117,-35.645,-141.113,0.000
1673144931.606,91.797,-273.926,-20.020,71.289,0.000
1673144931.610,146.973,353.027,-22.461,168.457,0.000
1673144931.614,-125.000,-114.746,-38.574,-24.414,0.000
1673144931.618,-201.660,-928.711,-35.645,-162.109,0.000
1673144931.622,21.484,-874.023,-19.043,7.324,0.000
1673144931.626,160.156,-125.488,-17.578,159.668,0.000
1673144931.630,-33.691,62.012,-32.227,18.555,0.000
1673144931.633,-224.609,-774.414,-38.574,-163.086,0.000
1673144931.637,-58.105,-1000.000,-31.250,-59.082,0.000
1673144931.641,167.969,-528.809,-26.367,128.906,0.000
1673144931.645,66.895,188.477,-30.762,57.617,0.000
1673144931.649,-223.633,-605.957,-45.410,-184.082,0.000
1673144931.653,-160.156,-1000.000,-34.668,-150.879,0.000
1673144931.657,249.512,270.020,-12.695,182.129,0.000
1673144931.661,180.176,902.344,-28.809,149.902,0.000
1673144931.665,-280.762,-621.582,-53.711,-216.797,0.000
1673144931.669,-291.016,-1000.000,-40.527,-241.699,0.000
1673144931.673,157.227,-54.199,-12.207,97.168,0.000
1673144931.676,250.488,919.434,-19.531,198.730,0.000
1673144931.680,-183.105,-30.762,-54.688,-110.840,0.000
1673144931.684,-363.281,-1000.000,-59.570,-270.508,0.000
1673144931.688,37.109,-498.047,-20.996,10.742,0.000
1673144931.692,292.969,802.734,-15.137,230.957,0.000
1673144931.696,-42.480,190.918,-48.340,22.949,0.000
1673144931.700,-355.469,-1000.000,-57.617,-240.723,0.000
1673144931.704,-96.191,-808.105,-29.785,-69.824,0.000
1673144931.708,270.996,619.629,-15.625,200.684,0.000
1673144931.712,87.402,499.023,-42.480,73.242,0.000
1673144931.715,-316.406,-888.184,-58.105,-227.051,0.000
1673144931.719,-206.055,-1000.000,-34.668,-166.016,0.000
1673144931.723,222.168,265.137,-10.742,175.781,0.000
1673144931.727,198.730,793.457,-27.832,187.012,0.000
1673144931.731,-243.164,-699.707,-55.176,-148.926,0.000
1673144931.735,-287.109,-1000.000,-40.039,-221.680,0.000
1673144931.739,142.090,-67.383,-19.043,103.027,0.000
1673144931.743,266.113,895.508,-24.902,230.957,0.000
1673144931.747,-140.625,-72.266,-44.922,-70.312,0.000
1673144931.751,-354.492,-1000.000,-51.270,-225.586,0.000
1673144931.755,16.113,-465.820,-24.414,26.367,0.000
1673144931.758,307.617,639.160,-20.508,209.961,0.000
1673144931.762,-3.906,166.992,-46.387,-1.953,0.000
1673144931.766,-353.027,-938.965,-52.246,-270.996,0.000
1673144931.770,-122.070,-863.770,-30.273,-116.699,0.000
1673144931.774,268.066,177.734,-23.926,199.707,0.000
1673144931.778,129.395,513.672,-39.062,119.629,0.000
1673144931.782,-293.945,-593.750,-52.246,-206.543,0.000
1673144931.786,-225.586,-1000.000,-41.992,-195.801,0.000
1673144931.790,215.332,-134.766,-20.020,139.160,0.000
1673144931.794,220.703,888.184,-23.926,200.195,0.000
1673144931.798,-215.332,-125.977,-51.270,-139.160,0.000
1673144931.801,-284.668,-1000.000,-47.852,-228.027,0.000
1673144931.805,131.836,-464.844,-18.555,93.262,0.000
1673144931.809,285.645,676.270,-19.043,236.328,0.000
1673144931.813,-95.215,-11.230,-46.875,-48.340,0.000
1673144931.817,-336.426,-1000.000,-54.688,-257.812,0.000
1673144931.821,-4.883,-825.195,-23.438,-16.113,0.000
1673144931.825,297.363,684.570,-4.883,232.422,0.000
1673144931.829,26.367,757.812,-38.574,38.086,0.000
1673144931.833,-336.914,-827.148,-61.523,-250.000,0.000
1673144931.837,-146.973,-983.398,-32.227,-123.047,0.000
1673144931.840,251.465,530.762,-9.766,195.801,0.000
1673144931.844,151.855,920.898,-26.855,147.949,0.000
1673144931.848,-274.902,-596.680,-51.270,-162.109,0.000
1673144931.852,-252.930,-1000.000,-39.551,-178.711,0.000
1673144931.856,205.078,-59.570,-8.789,125.000,0.000
1673144931.860,271.973,876.953,-19.043,209.473,0.000
1673144931.864,-180.664,-370.117,-54.688,-93.750,0.000
1673144931.868,-332.520,-1000.000,-41.504,-244.629,0.000
1673144931.872,84.961,-282.227,-10.742,51.758,0.000
1673144931.876,307.617,856.445,-17.090,243.164,0.000
1673144931.880,-51.270,44.434,-44.922,-11.719,0.000
1673144931.883,-330.566,-1000.000,-52.246,-261.719,0.000
1673144931.887,-40.039,-722.656,-28.809,-79.590,0.000
1673144931.891,293.457,673.340,-19.043,214.844,0.000
1673144931.895,52.734,466.797,-46.875,53.223,0.000
1673144931.899,-317.871,-905.273,-55.176,-249.512,0.000
1673144931.903,-155.762,-1000.000,-32.227,-158.203,0.000
1673144931.907,252.441,29.785,-17.090,158.691,0.000
1673144931.911,180.664,88.867,-31.250,159.668,0.000
1673144931.915,-257.812,-843.262,-45.898,-164.062,0.000
1673144931.919,-277.832,-1000.000,-37.109,-219.727,0.000
1673144931.923,164.551,-264.160,-13.184,100.586,0.000
1673144931.926,256.836,821.777,-15.137,205.566,0.000
1673144931.930,-180.664,57.617,-44.922,-88.867,0.000
1673144931.934,-358.398,-1000.000,-49.316,-245.117,0.000
1673144931.938,39.062,-711.426,-25.879,10.742,0.000
1673144931.942,310.059,644.531,-20.996,218.262,0.000
1673144931.946,-19.043,149.414,-50.293,-5.859,0.000
1673144931.950,-350.098,-1000.000,-60.547,-268.066,0.000
1673144931.954,-84.473,-1000.000,-39.062,-83.984,0.000
1673144931.958,277.344,64.453,-19.531,206.543,0.000
1673144931.962,93.750,821.777,-36.133,80.078,0.000
1673144931.965,-304.688,-649.902,-61.523,-236.816,0.000
1673144931.969,-199.219,-1000.000,-41.992,-175.293,0.000
1673144931.973,231.445,191.406,-15.625,171.875,0.000
1673144931.977,198.242,954.590,-27.832,171.875,0.000
1673144931.981,-248.047,-273.926,-57.617,-168.945,0.000
1673144931.985,-307.617,-1000.000,-56.152,-250.488,0.000
1673144931.989,122.559,-115.723,-22.461,71.289,0.000
1673144931.993,255.371,854.980,-24.414,217.773,0.000
1673144931.997,-150.879,-168.457,-59.082,-65.430,0.000
1673144932.001,-356.934,-1000.000,-62.012,-268.066,0.000
1673144932.005,10.742,-492.676,-22.461,-32.227,0.000
1673144932.008,296.387,860.840,-20.020,218.262,0.000
1673144932.012,-9.766,501.953,-50.293,44.922,0.000
1673144932.016,-347.168,-956.055,-56.641,-253.906,0.000
1673144932.020,-102.539,-905.273,-38.574,-128.906,0.000
1673144932.024,282.715,624.512,-21.973,190.430,0.000
1673144932.028,120.605,630.859,-43.945,112.793,0.000
1673144932.032,-307.129,-836.426,-64.941,-209.473,0.000
1673144932.036,-240.234,-1000.000,-51.758,-191.406,0.000
1673144932.040,203.613,-36.133,-31.250,132.324,0.000
1673144932.044,213.379,508.789,-41.504,170.410,0.000
1673144932.047,-231.934,-746.582,-62.012,-145.508,0.000
1673144932.051,-327.637,-1000.000,-49.316,-233.398,0.000
1673144932.055,101.562,-211.426,-22.949,63.965,0.000
1673144932.059,287.598,788.574,-30.273,221.191,0.000
1673144932.063,-104.980,232.422,-58.594,-33.203,0.000
1673144932.067,-357.422,-972.656,-61.523,-266.113,0.000
1673144932.071,-19.043,-777.832,-35.645,-37.598,0.000
1673144932.075,293.945,553.223,-24.414,228.516,0.000
1673144932.079,37.598,638.184,-46.875,58.105,0.000
1673144932.083,-325.684,-751.465,-59.570,-234.375,0.000
1673144932.087,-133.789,-1000.000,-34.668,-126.953,0.000
1673144932.090,263.672,-475.586,-16.602,189.941,0.000
1673144932.094,145.020,141.602,-27.344,127.441,0.000
1673144932.098,-283.203,-676.270,-46.875,-205.078,0.000
1673144932.102,-253.906,-1000.000,-33.691,-193.359,0.000
1673144932.106,194.336,-61.523,-8.301,142.578,0.000
1673144932.110,251.953,938.477,-20.508,188.477,0.000
1673144932.114,-193.359,-63.965,-48.828,-133.301,0.000
1673144932.118,-335.938,-1000.000,-49.805,-258.301,0.000
1673144932.122,83.984,-416.992,-22.949,34.180,0.000
1673144932.126,295.410,898.926,-13.184,240.234,0.000
1673144932.130,-69.824,382.324,-40.039,-5.371,0.000
1673144932.133,-351.562,-997.070,-51.270,-249.512,0.000
1673144932.137,-51.270,-824.219,-17.578,-47.363,0.000
1673144932.141,288.574,641.113,-3.418,223.145,0.000
1673144932.145,67.871,550.781,-31.738,79.102,0.000
1673144932.149,-314.453,-867.676,-48.340,-211.914,0.000
1673144932.153,-172.852,-1000.000,-22.949,-135.742,0.000
1673144932.157,255.371,296.875,-1.953,173.340,0.000
1673144932.161,199.219,897.461,-20.508,170.410,0.000
1673144932.165,-248.047,-581.055,-51.758,-194.336,0.000
1673144932.169,-264.648,-1000.000,-45.898,-264.160,0.000
1673144932.172,177.734,-13.184,-14.648,75.684,0.000
1673144932.176,259.766,848.145,-16.113,194.336,0.000
1673144932.180,-167.480,-360.840,-50.781,-100.098,0.000
1673144932.184,-344.727,-1000.000,-48.828,-250.488,0.000
1673144932.188,56.152,-599.609,-13.184,12.207,0.000
1673144932.192,313.477,545.410,-12.207,215.332,0.000
1673144932.196,-18.066,-304.688,-44.434,-3.418,0.000
1673144932.200,-334.961,-1000.000,-46.387,-267.578,0.000
1673144932.204,-74.219,-732.910,-20.020,-103.027,0.000
1673144932.208,291.016,528.320,-8.301,202.148,0.000
1673144932.212,98.633,767.090,-24.414,93.262,0.000
1673144932.215,-316.895,-705.566,-41.504,-216.309,0.000
1673144932.219,-197.754,-1000.000,-27.832,-137.207,0.000
1673144932.223,234.863,117.676,-10.742,145.020,0.000
1673144932.227,176.758,664.551,-26.367,121.094,0.000
1673144932.231,-258.301,-599.121,-52.246,-181.152,0.000
1673144932.235,-312.988,-1000.000,-46.387,-253.418,0.000
1673144932.239,120.117,-606.445,-22.461,63.477,0.000
1673144932.243,281.250,325.195,-19.043,207.031,0.000
1673144932.247,-127.930,144.043,-41.992,-85.938,0.000
1673144932.251,-353.027,-1000.000,-50.293,-273.438,0.000
1673144932.255,11.230,-861.816,-24.414,-5.859,0.000
1673144932.258,285.645,688.965,-13.672,222.656,0.000
1673144932.262,-14.648,639.648,-39.062,2.930,0.000
1673144932.266,-358.887,-881.836,-51.270,-251.953,0.000
1673144932.270,-128.906,-989.258,-28.809,-109.375,0.000
1673144932.274,274.414,306.152,-6.348,191.406,0.000
1673144932.278,124.512,556.641,-26.367,99.609,0.000
1673144932.282,-228.516,-772.949,-53.711,-181.641,0.000
1673144932.286,-170.898,-1000.000,-49.805,-159.668,0.000
1673144932.290,35.645,-416.504,-26.367,20.020,0.000
1673144932.294,66.406,210.449,-25.391,68.848,0.000
1673144932.297,-4.883,-121.094,-38.086,-15.625,0.000
1673144932.301,-93.262,-835.938,-39.062,-81.055,0.000
1673144932.305,-40.039,-561.035,-30.273,-31.250,0.000
1673144932.309,63.965,-46.387,-23.438,44.434,0.000
1673144932.313,7.812,-260.254,-26.855,8.301,0.000
1673144932.317,-109.375,-736.328,-31.250,-110.352,0.000
1673144932.321,-81.055,-960.449,-23.926,-86.914,0.000
1673144932.325,47.363,-512.695,-16.602,45.898,0.000
1673144932.329,42.969,-382.812,-23.926,56.641,0.000
1673144932.333,-80.078,-852.051,-25.391,-55.176,0.000
1673144932.337,-74.219,-639.648,-19.043,-76.172,0.000
1673144932.340,47.363,-165.527,-13.672,43.945,0.000
1673144932.344,48.340,-160.645,-19.043,75.195,0.000
1673144932.348,-65.430,-292.480,-29.785,-25.879,0.000
1673144932.352,-111.816,-514.160,-30.762,-83.008,0.000
1673144932.356,-18.066,-497.559,-29.297,-17.090,0.000
1673144932.360,59.570,-171.875,-29.785,44.922,0.000
1673144932.364,-20.508,-155.762,-34.180,-38.086,0.000
1673144932.368,-125.488,-786.621,-35.156,-125.000,0.000
1673144932.372,-70.312,-1000.000,-30.762,-63.965,0.000
1673144932.376,46.875,-902.832,-29.297,50.293,0.000
1673144932.379,20.996,-542.480,-29.785,21.973,0.000
1673144932.383,-102.539,-513.184,-32.715,-97.168,0.000
1673144932.387,-90.820,-799.316,-29.297,-80.566,0.000
1673144932.391,31.738,-379.883,-18.066,58.105,0.000
1673144932.395,41.992,139.648,-21.973,84.473,0.000
1673144932.399,-73.730,-227.051,-30.273,-57.129,0.000
1673144932.403,-91.797,-838.867,-28.320,-107.422,0.000
1673144932.407,35.645,-475.098,-18.066,10.742,0.000
1673144932.411,65.430,145.020,-18.555,56.641,0.000
1673144932.415,-54.199,-355.469,-36.621,-45.410,0.000
1673144932.419,-106.934,-1000.000,-41.504,-105.469,0.000
1673144932.422,-6.836,-866.211,-22.461,-23.926,0.000
1673144932.426,73.730,-43.457,-19.043,63.477,0.000
1673144932.430,-9.277,102.539,-33.691,6.836,0.000
1673144932.434,-120.605,-796.387,-41.504,-103.516,0.000
1673144932.438,-69.336,-838.867,-31.250,-50.781,0.000
1673144932.442,48.828,19.531,-21.484,78.613,0.000
1673144932.446,23.438,152.832,-33.203,52.734,0.000
1673144932.450,-113.770,-693.848,-38.574,-79.102,0.000
1673144932.454,-105.469,-803.711,-31.738,-84.473,0.000
1673144932.458,20.996,-237.793,-23.926,20.508,0.000
1673144932.462,30.762,-317.871,-24.902,31.250,0.000
1673144932.465,-76.172,-904.297,-38.086,-77.148,0.000
1673144932.469,-99.121,-1000.000,-29.297,-109.863,0.000
1673144932.473,2.930,-381.348,-16.113,12.695,0.000
1673144932.477,36.621,-8.789,-22.461,71.289,0.000
1673144932.481,-56.152,-429.199,-35.645,-25.391,0.000
1673144932.485,-110.352,-740.234,-36.621,-91.797,0.000
1673144932.489,-39.551,-552.734,-30.762,-39.062,0.000
1673144932.493,51.758,-165.527,-29.297,51.758,0.000
1673144932.497,-8.789,-200.195,-28.809,11.230,0.000
1673144932.501,-182.617,-876.953,-31.250,-164.062,0.000
1673144932.504,-33.691,-729.004,-16.602,-55.664,0.000
1673144932.508,194.824,-99.609,-15.137,143.066,0.000
1673144932.512,33.203,-439.941,-27.832,26.367,0.000
1673144932.516,-207.520,-912.598,-33.691,-171.387,0.000
1673144932.520,-82.520,-921.387,-26.367,-94.727,0.000
1673144932.524,163.574,-223.145,-14.160,131.348,0.000
1673144932.528,81.543,328.613,-23.438,117.676,0.000
1673144932.532,-177.734,-449.219,-40.527,-109.863,0.000
1673144932.536,-163.574,-1000.000,-37.598,-143.555,0.000
1673144932.540,112.793,-471.191,-16.113,71.777,0.000
1673144932.544,158.691,601.562,-14.160,128.906,0.000
1673144932.547,-111.328,50.781,-33.691,-67.383,0.000
1673144932.551,-198.730,-1000.000,-37.109,-172.363,0.000
1673144932.555,47.852,-748.535,-20.996,0.488,0.000
1673144932.559,173.828,219.238,-14.160,139.648,0.000
1673144932.563,-50.781,-60.547,-32.227,-3.906,0.000
1673144932.567,-236.816,-999.512,-42.480,-179.199,0.000
1673144932.571,-55.664,-774.902,-24.414,-48.828,0.000
1673144932.575,174.805,401.367,-10.254,158.691,0.000
1673144932.579,40.527,425.293,-28.320,53.711,0.000
1673144932.583,-217.285,-734.863,-47.852,-167.480,0.000
1673144932.586,-128.418,-1000.000,-37.109,-115.234,0.000
1673144932.590,143.555,-121.094,-20.020,111.328,0.000
1673144932.594,111.816,504.883,-29.785,121.582,0.000
1673144932.598,-167.969,-407.227,-41.016,-114.746,0.000
1673144932.602,-180.176,-1000.000,-32.227,-163.574,0.000
1673144932.606,92.285,-525.391,-16.602,41.992,0.000
1673144932.610,154.785,505.371,-21.484,129.395,0.000
1673144932.614,-103.516,-222.168,-45.898,-52.734,0.000
1673144932.618,-227.539,-1000.000,-40.039,-193.359,0.000
1673144932.622,14.160,-487.793,-19.531,-26.367,0.000
1673144932.626,189.453,494.629,-20.020,132.812,0.000
1673144932.629,-9.277,-192.383,-38.574,-3.906,0.000
1673144932.633,-220.703,-1000.000,-41.016,-193.848,0.000
1673144932.637,-71.289,-790.039,-25.879,-90.332,0.000
1673144932.641,164.062,232.910,-24.414,111.816,0.000
1673144932.645,59.082,88.379,-39.551,68.359,0.000
1673144932.649,-198.242,-902.832,-50.293,-136.230,0.000
1673144932.653,-140.625,-1000.000,-38.086,-156.738,0.000
1673144932.657,137.695,-412.109,-23.926,57.129,0.000
1673144932.661,123.047,50.781,-30.273,83.984,0.000
1673144932.665,-162.598,-433.594,-41.992,-122.559,0.000
1673144932.669,-204.102,-949.707,-34.180,-172.852,0.000
1673144932.672,70.312,-584.961,-20.996,34.668,0.000
1673144932.676,166.504,-139.648,-20.996,144.043,0.000
1673144932.680,-94.727,-140.625,-38.086,-44.434,0.000
1673144932.684,-245.605,-919.434,-47.363,-183.594,0.000
1673144932.688,-17.090,-895.996,-28.320,-25.391,0.000
1673144932.692,176.758,262.207,-20.508,143.555,0.000
1673144932.696,-12.207,65.430,-35.156,36.133,0.000
1673144932.700,-228.027,-975.098,-45.410,-167.480,0.000
1673144932.704,-82.520,-1000.000,-30.762,-106.934,0.000
1673144932.708,161.133,104.004,-9.766,108.887,0.000
1673144932.711,72.266,673.828,-23.438,74.707,0.000
1673144932.715,-176.270,-439.453,-41.992,-141.113,0.000
1673144932.719,-155.273,-1000.000,-37.109,-127.441,0.000
1673144932.723,98.633,-157.715,-18.066,104.492,0.000
1673144932.727,128.906,694.336,-26.367,122.070,0.000
1673144932.731,-132.324,-148.438,-47.363,-101.562,0.000
1673144932.735,-198.242,-1000.000,-40.039,-175.781,0.000
1673144932.739,57.617,-457.520,-23.926,17.090,0.000
1673144932.743,178.711,276.855,-25.391,143.066,0.000
1673144932.747,-50.293,-308.594,-43.945,6.348,0.000
1673144932.751,-219.238,-1000.000,-42.480,-161.133,0.000
1673144932.754,-29.297,-666.016,-23.438,-62.988,0.000
1673144932.758,169.434,211.914,-22.949,128.906,0.000
1673144932.762,20.508,93.262,-43.457,35.156,0.000
1673144932.766,-209.473,-897.461,-50.293,-178.223,0.000
1673144932.770,-109.863,-939.453,-29.785,-113.281,0.000
1673144932.774,140.137,186.523,-19.043,114.746,0.000
1673144932.778,74.219,455.566,-26.367,95.215,0.000
1673144932.782,-200.195,-591.797,-38.086,-129.395,0.000
1673144932.786,-186.523,-1000.000,-30.762,-142.578,0.000
1673144932.790,88.867,-466.797,-16.602,78.125,0.000
1673144932.793,136.230,28.320,-22.949,131.836,0.000
1673144932.797,-124.023,-416.992,-32.715,-44.434,0.000
1673144932.801,-222.168,-997.559,-26.367,-130.859,0.000
1673144932.805,22.461,-461.426,-14.648,3.906,0.000
1673144932.809,169.922,121.582,-18.555,127.930,0.000
1673144932.813,-38.086,-376.465,-31.250,-16.602,0.000
1673144932.817,-212.891,-941.895,-32.715,-190.918,0.000
1673144932.821,-43.457,-820.312,-25.391,-66.895,0.000
1673144932.825,164.062,21.484,-19.043,131.836,0.000
1673144932.829,23.438,339.355,-27.832,44.434,0.000
1673144932.833,-231.934,-602.051,-38.086,-175.781,0.000
1673144932.836,-138.672,-1000.000,-31.250,-116.699,0.000
1673144932.840,141.602,-566.406,-16.113,113.281,0.000
1673144932.844,107.422,108.887,-22.949,88.867,0.000
1673144932.848,-166.504,-412.598,-36.133,-121.094,0.000
1673144932.852,-185.059,-1000.000,-33.203,-151.855,0.000
1673144932.856,81.055,-751.953,-17.578,58.594,0.000
1673144932.860,159.668,484.375,-11.719,130.371,0.000
1673144932.864,-81.543,135.742,-36.621,-65.918,0.000
1673144932.868,-221.191,-1000.000,-41.016,-170.410,0.000
1673144932.872,4.395,-708.008,-19.043,1.953,0.000
1673144932.876,184.082,576.172,-13.672,151.367,0.000
1673144932.879,-11.719,427.734,-31.250,10.254,0.000
1673144932.883,-229.980,-882.812,-41.992,-178.711,0.000
1673144932.887,-76.660,-955.566,-26.855,-83.984,0.000
1673144932.891,165.527,334.473,-17.090,130.859,0.000
1673144932.895,48.340,618.164,-26.367,73.242,0.000
1673144932.899,-214.355,-693.848,-40.039,-147.949,0.000
1673144932.903,-148.438,-1000.000,-27.832,-121.094,0.000
1673144932.907,137.207,82.031,-9.766,76.172,0.000
1673144932.911,119.629,665.039,-22.949,95.703,0.000
1673144932.915,-167.969,-539.062,-43.457,-114.258,0.000
1673144932.918,-219.727,-1000.000,-29.785,-185.059,0.000
1673144932.922,45.410,-306.152,-8.301,28.809,0.000
1673144932.926,149.902,298.828,-20.020,135.254,0.000
1673144932.930,-95.703,-537.109,-35.645,-37.109,0.000
1673144932.934,-225.098,-1000.000,-30.273,-175.781,0.000
1673144932.938,-38.086,-780.273,-14.160,-49.316,0.000
1673144932.942,78.613,-305.176,-15.625,83.008,0.000
1673144932.946,12.207,-655.273,-23.438,53.711,0.000
1673144932.950,-98.633,-696.289,-22.949,-89.844,0.000
1673144932.954,-84.961,-515.625,-21.973,-114.746,0.000
1673144932.958,34.668,-306.152,-17.578,27.344,0.000
1673144932.961,50.781,-21.973,-14.160,52.246,0.000
1673144932.965,-78.125,-193.359,-20.020,-60.547,0.000
1673144932.969,-114.258,-553.223,-23.438,-89.844,0.000
1673144932.973,11.230,-525.391,-17.578,0.488,0.000
1673144932.977,58.594,-365.234,-15.625,39.551,0.000
1673144932.981,-37.598,-509.766,-23.926,-50.781,0.000
1673144932.985,-114.746,-779.297,-27.344,-125.000,0.000
1673144932.989,-51.758,-959.473,-25.391,-43.457,0.000
1673144932.993,49.316,-577.148,-17.090,74.707,0.000
1673144932.997,6.348,-18.066,-20.020,14.648,0.000
1673144933.001,-102.539,-747.070,-28.809,-104.492,0.000
1673144933.004,-72.754,-999.023,-25.879,-84.473,0.000
1673144933.008,47.852,-120.117,-15.625,35.156,0.000
1673144933.012,30.273,264.160,-20.020,41.504,0.000
1673144933.016,-101.562,-365.234,-36.133,-82.031,0.000
1673144933.020,-101.074,-898.926,-27.344,-70.312,0.000
1673144933.024,24.414,-578.125,-12.207,43.945,0.000
1673144933.028,56.152,-238.281,-16.602,55.176,0.000
1673144933.032,-61.035,-564.941,-23.438,-38.574,0.000
1673144933.036,-110.840,-1000.000,-23.926,-90.820,0.000
1673144933.040,-0.977,-677.246,-7.324,-7.324,0.000
1673144933.043,63.965,213.379,-10.254,69.336,0.000
1673144933.047,-32.227,-0.977,-29.297,-10.742,0.000
1673144933.051,-113.770,-735.840,-28.809,-106.934,0.000
1673144933.055,-44.922,-547.852,-18.555,-30.762,0.000
1673144933.059,65.430,129.395,-14.160,77.148,0.000
1673144933.063,14.648,45.410,-24.902,4.883,0.000
1673144933.067,-117.676,-619.141,-28.320,-123.535,0.000
1673144933.071,-92.285,-927.246,-20.996,-85.449,0.000
1673144933.075,39.551,-465.332,-15.137,50.781,0.000
1673144933.079,50.293,-288.086,-14.648,65.430,0.000
1673144933.083,-156.738,-978.516,-18.555,-107.910,0.000
1673144933.086,-140.625,-907.715,-12.207,-105.469,0.000
1673144933.090,147.949,158.691,-3.906,120.117,0.000
1673144933.094,107.422,153.320,-20.020,111.816,0.000
1673144933.098,-174.805,-733.887,-29.297,-105.957,0.000
1673144933.102,-175.293,-906.738,-23.438,-139.648,0.000
1673144933.106,42.969,-425.781,-15.137,26.367,0.000
1673144933.110,91.309,-103.027,-14.160,99.121,0.000
1673144933.114,-2.930,-77.637,-30.273,-3.906,0.000
1673144933.118,-79.102,-718.262,-38.086,-104.004,0.000
1673144933.122,-26.367,-1000.000,-30.273,-32.227,0.000
1673144933.125,73.730,-896.484,-27.832,64.941,0.000
1673144933.129,27.344,-291.504,-21.973,25.879,0.000
1673144933.133,-105.469,-259.277,-30.762,-97.168,0.000
1673144933.137,-80.078,-724.609,-31.738,-88.867,0.000
1673144933.141,51.758,-315.918,-17.578,53.223,0.000
1673144933.145,58.594,221.680,-18.066,69.824,0.000
1673144933.149,-64.453,-362.793,-33.203,-60.547,0.000
1673144933.153,-106.934,-1000.000,-31.738,-98.145,0.000
1673144933.157,9.277,-464.844,-15.625,20.996,0.000
1673144933.161,65.430,170.410,-17.090,78.125,0.000
1673144933.165,-30.273,-407.227,-35.156,-51.270,0.000
1673144933.168,-92.285,-1000.000,-42.969,-122.559,0.000
1673144933.172,-11.719,-735.840,-25.879,-27.832,0.000
1673144933.176,70.312,96.191,-22.949,62.500,0.000
1673144933.180,8.301,118.164,-37.598,27.832,0.000
1673144933.184,-93.262,-778.320,-44.922,-85.449,0.000
1673144933.188,-60.547,-770.020,-36.621,-63.477,0.000
1673144933.192,46.387,76.660,-26.367,61.035,0.000
1673144933.196,27.344,159.180,-29.297,34.180,0.000
1673144933.200,-106.934,-706.055,-32.227,-94.727,0.000
1673144933.204,-97.656,-919.434,-25.391,-87.402,0.000
1673144933.208,38.086,-495.117,-20.508,56.641,0.000
1673144933.211,55.176,-343.750,-22.949,95.215,0.000
1673144933.215,-113.770,-835.449,-40.039,-62.500,0.000
1673144933.219,-154.785,-1000.000,-29.785,-121.582,0.000
1673144933.223,108.398,-127.930,-10.742,70.801,0.000
1673144933.227,135.742,575.195,-21.484,131.836,0.000
1673144933.231,-144.043,-342.773,-40.039,-61.523,0.000
1673144933.235,-212.891,-1000.000,-35.645,-161.133,0.000
1673144933.239,45.898,-389.160,-20.020,40.039,0.000
1673144933.243,175.781,419.922,-24.414,164.551,0.000
1673144933.247,-51.758,-53.711,-43.457,-27.344,0.000
1673144933.250,-225.098,-944.336,-47.852,-175.781,0.000
1673144933.254,-29.297,-690.918,-27.344,-40.527,0.000
1673144933.258,144.531,-86.914,-25.391,124.512,0.000
1673144933.262,-16.113,-357.910,-40.527,29.297,0.000
1673144933.266,-231.934,-939.941,-44.922,-171.387,0.000
1673144933.270,-125.000,-907.227,-30.762,-109.863,0.000
1673144933.274,136.230,-326.660,-23.926,107.422,0.000
1673144933.278,80.566,76.172,-33.691,76.172,0.000
1673144933.282,-192.383,-431.152,-48.340,-140.137,0.000
1673144933.286,-180.176,-1000.000,-41.016,-148.438,0.000
1673144933.290,94.727,-559.082,-22.461,68.359,0.000
1673144933.293,150.879,470.215,-31.738,121.582,0.000
1673144933.297,-108.887,-90.820,-48.828,-65.918,0.000
1673144933.301,-206.055,-1000.000,-48.340,-166.992,0.000
1673144933.305,23.926,-799.805,-34.180,-0.977,0.000
1673144933.309,167.480,40.039,-32.715,136.719,0.000
1673144933.313,-38.574,-197.754,-49.316,-13.672,0.000
1673144933.317,-231.934,-1000.000,-55.664,-186.523,0.000
1673144933.321,-50.781,-956.055,-41.016,-62.500,0.000
1673144933.325,167.480,233.887,-23.438,130.371,0.000
1673144933.329,35.156,568.359,-38.086,46.875,0.000
1673144933.333,-208.496,-692.871,-52.246,-146.973,0.000
1673144933.336,-122.559,-1000.000,-34.668,-90.820,0.000
1673144933.340,143.555,89.355,-20.996,105.957,0.000
1673144933.344,114.746,631.836,-35.156,79.590,0.000
1673144933.348,-165.039,-439.453,-54.199,-149.414,0.000
1673144933.352,-187.988,-1000.000,-48.340,-197.754,0.000
1673144933.356,94.238,-441.895,-29.297,18.555,0.000
1673144933.360,143.066,535.645,-36.621,108.887,0.000
1673144933.364,-72.754,-224.609,-57.617,-40.527,0.000
1673144933.368,-150.879,-1000.000,-49.316,-133.789,0.000
1673144933.372,-94.238,-713.379,-38.086,-60.059,0.000
1673144933.375,6.348,-383.301,-36.133,62.012,0.000
1673144933.379,-13.672,-316.406,-39.551,38.086,0.000
1673144933.383,-129.395,-564.941,-47.363,-94.727,0.000
1673144933.387,-101.074,-641.113,-41.016,-79.590,0.000
1673144933.391,29.297,-244.629,-33.203,61.035,0.000
1673144933.395,30.273,-158.691,-40.527,58.594,0.000
1673144933.399,-85.449,-673.828,-48.828,-91.309,0.000
1673144933.403,-92.285,-975.586,-40.039,-130.371,0.000
1673144933.407,16.113,-815.918,-30.762,-13.184,0.000
1673144933.411,50.781,-847.168,-34.668,49.805,0.000
1673144933.415,-46.875,-495.117,-33.203,-53.711,0.000
1673144933.418,-98.633,-512.207,-34.668,-136.230,0.000
1673144933.422,4.395,-735.352,-32.227,-48.340,0.000
1673144933.426,77.148,-195.312,-28.320,44.922,0.000
1673144933.430,-0.488,-176.270,-37.109,3.418,0.000
1673144933.434,-107.422,-679.688,-43.945,-95.215,0.000
1673144933.438,-58.594,-794.434,-38.086,-85.938,0.000
1673144933.442,56.641,-267.090,-30.273,19.043,0.000
1673144933.446,19.043,-243.652,-40.527,7.324,0.000
1673144933.450,-101.074,-770.508,-48.828,-109.863,0.000
1673144933.454,-100.586,-1000.000,-39.551,-120.117,0.000
1673144933.457,25.391,-594.238,-20.508,10.742,0.000
1673144933.461,43.457,195.801,-20.508,29.785,0.000
1673144933.465,-75.195,-163.086,-37.598,-90.332,0.000
1673144933.469,-103.516,-912.109,-40.527,-130.371,0.000
1673144933.473,12.695,-493.652,-30.273,-24.902,0.000
1673144933.477,69.336,190.918,-26.367,36.621,0.000
1673144933.481,-35.156,-84.473,-37.598,-54.199,0.000
1673144933.485,-119.629,-896.484,-44.922,-116.699,0.000
1673144933.489,-50.781,-757.812,-36.621,-57.129,0.000
1673144933.493,48.340,-196.289,-28.320,7.812,0.000
1673144933.497,4.395,-333.984,-37.598,-30.762,0.000
1673144933.500,-125.488,-911.621,-48.828,-141.113,0.000
1673144933.504,-94.238,-770.020,-32.715,-139.648,0.000
1673144933.508,34.668,44.434,-21.973,-12.695,0.000
1673144933.512,35.645,148.926,-28.320,-3.418,0.000
1673144933.516,-86.426,-513.672,-36.133,-125.977,0.000
1673144933.520,-105.469,-702.148,-30.762,-134.766,0.000
1673144933.524,22.461,-170.410,-20.996,-7.812,0.000
1673144933.528,53.711,8.301,-27.344,28.809,0.000
1673144933.532,-52.246,-390.137,-39.551,-93.750,0.000
1673144933.536,-86.914,-702.148,-40.527,-145.508,0.000
1673144933.540,8.789,-672.363,-37.109,-69.336,0.000
1673144933.543,62.012,-522.461,-40.039,-13.672,0.000
1673144933.547,-31.738,-743.164,-37.109,-57.617,0.000
1673144933.551,-100.098,-681.641,-36.621,-156.250,0.000
1673144933.555,-32.715,-502.930,-40.527,-122.070,0.000
1673144933.559,62.988,-368.652,-38.574,1.465,0.000
1673144933.563,30.762,-72.754,-38.086,-19.531,0.000
1673144933.567,-96.680,-309.082,-39.551,-136.230,0.000
1673144933.571,-85.938,-695.801,-37.598,-119.141,0.000
1673144933.575,41.504,-496.582,-34.180,6.836,0.000
1673144933.579,38.086,4.883,-34.668,16.113,0.000
1673144933.582,-92.773,-269.043,-41.016,-118.164,0.000
1673144933.586,-108.398,-959.473,-43.945,-134.766,0.000
1673144933.590,18.066,-1000.000,-40.039,-7.324,0.000
1673144933.594,51.758,-444.824,-33.691,33.691,0.000
1673144933.598,-61.035,-415.527,-42.480,-75.684,0.000
1673144933.602,-108.887,-975.586,-42.969,-141.113,0.000
1673144933.606,-8.789,-676.758,-27.832,-38.086,0.000
1673144933.610,55.664,133.789,-26.367,35.156,0.000
1673144933.614,-22.461,106.445,-33.691,-39.062,0.000
1673144933.618,-118.652,-686.523,-41.992,-139.648,0.000
1673144933.622,-60.547,-800.781,-35.156,-83.496,0.000
1673144933.625,45.898,-0.977,-25.879,64.453,0.000
1673144933.629,13.672,161.621,-33.203,59.570,0.000
1673144933.633,-106.445,-761.230,-46.875,-97.168,0.000
1673144933.637,-93.750,-1000.000,-41.016,-110.352,0.000
1673144933.641,37.109,-286.133,-32.227,-4.883,0.000
1673144933.645,52.246,204.102,-37.109,10.742,0.000
1673144933.649,-123.047,-516.602,-51.758,-135.254,0.000
1673144933.653,-161.133,-1000.000,-44.434,-179.688,0.000
1673144933.657,101.074,-156.738,-21.973,40.039,0.000
1673144933.661,118.164,638.672,-37.598,83.984,0.000
1673144933.664,-153.320,-535.645,-58.105,-138.184,0.000
1673144933.668,-194.336,-1000.000,-43.945,-204.590,0.000
1673144933.672,64.941,-252.441,-23.926,-0.977,0.000
1673144933.676,159.668,516.602,-30.762,120.605,0.000
1673144933.680,-77.637,-431.152,-46.875,-27.832,0.000
1673144933.684,-211.426,-1000.000,-42.969,-174.316,0.000
1673144933.688,-31.738,-812.012,-26.855,-75.684,0.000
1673144933.692,86.914,-295.410,-24.902,49.316,0.000
1673144933.696,29.785,-257.812,-29.297,25.879,0.000
1673144933.700,-77.637,-480.957,-34.668,-81.055,0.000
1673144933.704,-74.219,-546.875,-32.227,-83.984,0.000
1673144933.707,33.691,-484.375,-27.344,34.180,0.000
1673144933.711,40.527,-464.844,-21.484,77.148,0.000
1673144933.715,-71.777,-368.164,-27.832,-44.922,0.000
1673144933.719,-96.191,-574.219,-34.668,-124.512,0.000
1673144933.723,12.695,-602.051,-27.344,-17.090,0.000
1673144933.727,56.152,-417.480,-31.738,52.246,0.000
1673144933.731,-24.414,-430.664,-41.504,-51.758,0.000
1673144933.735,-88.379,-672.363,-46.875,-137.695,0.000
1673144933.739,-7.324,-832.031,-40.039,-57.617,0.000
1673144933.743,82.520,-227.051,-29.785,31.738,0.000
1673144933.747,0.488,175.781,-33.691,-20.996,0.000
1673144933.750,-119.629,-449.707,-39.551,-124.512,0.000
1673144933.754,-80.566,-958.984,-35.645,-74.219,0.000
1673144933.758,25.879,-330.566,-23.926,52.246,0.000
1673144933.762,8.301,122.559,-27.832,52.246,0.000
1673144933.766,-108.398,-656.738,-46.875,-80.078,0.000
1673144933.770,-110.352,-1000.000,-41.504,-90.332,0.000
1673144933.774,23.926,-590.332,-30.273,19.043,0.000
1673144933.778,61.523,-293.945,-36.133,21.973,0.000
1673144933.782,-64.453,-662.109,-43.945,-66.895,0.000
1673144933.786,-110.352,-960.449,-39.551,-122.070,0.000
1673144933.789,-3.906,-434.082,-25.879,-31.250,0.000
1673144933.793,53.711,222.656,-26.855,47.363,0.000
1673144933.797,-23.926,-76.172,-40.527,-39.062,0.000
1673144933.801,-116.699,-895.508,-43.457,-129.395,0.000
1673144933.805,-55.664,-635.254,-31.738,-69.824,0.000
1673144933.809,57.129,91.797,-28.809,41.992,0.000
1673144933.813,8.301,-46.387,-37.598,6.836,0.000
1673144933.817,-109.375,-681.152,-44.434,-116.211,0.000
1673144933.821,-77.637,-967.285,-42.969,-82.031,0.000
1673144933.825,52.246,-553.223,-34.668,46.387,0.000
1673144933.829,45.898,-390.625,-36.621,46.875,0.000
1673144933.832,-96.191,-775.391,-39.551,-82.520,0.000
1673144933.836,-108.887,-700.684,-37.109,-112.305,0.000
1673144933.840,21.484,-270.020,-33.691,13.672,0.000
1673144933.844,56.641,-393.555,-36.621,52.734,0.000
1673144933.848,-45.898,-626.953,-39.551,-57.617,0.000
1673144933.852,-98.633,-554.688,-42.969,-115.723,0.000
1673144933.856,-0.977,-536.133,-36.133,-19.043,0.000
1673144933.860,70.312,-241.211,-34.180,70.801,0.000
1673144933.864,-13.184,-90.820,-45.898,-3.906,0.000
1673144933.868,-111.816,-757.812,-47.852,-105.957,0.000
1673144933.872,-50.781,-1000.000,-36.133,-49.805,0.000
1673144933.875,49.316,-713.379,-28.320,77.637,0.000
1673144933.879,-4.395,-350.098,-33.203,36.621,0.000
1673144933.883,-125.000,-387.207,-43.945,-109.863,0.000
1673144933.887,-99.609,-776.855,-45.410,-104.980,0.000
1673144933.891,29.785,-789.062,-38.086,37.109,0.000
1673144933.895,35.156,-58.594,-34.180,47.852,0.000
1673144933.899,-84.961,-139.648,-44.922,-93.262,0.000
1673144933.903,-112.793,-795.410,-48.828,-114.258,0.000
1673144933.907,-6.836,-480.469,-34.180,10.254,0.000
1673144933.911,45.898,130.371,-34.668,61.523,0.000
1673144933.914,-47.363,-326.660,-47.852,-23.926,0.000
1673144933.918,-110.840,-986.328,-48.340,-89.355,0.000
1673144933.922,-14.648,-639.648,-34.668,-31.250,0.000
1673144933.926,50.781,153.809,-29.297,54.199,0.000
1673144933.930,-21.484,119.141,-40.039,2.441,0.000
1673144933.934,-104.492,-817.383,-46.875,-105.469,0.000
1673144933.938,-58.594,-896.484,-27.344,-76.660,0.000
1673144933.942,52.246,33.203,-12.695,51.758,0.000
1673144933.946,26.855,202.637,-27.832,44.434,0.000
1673144933.950,-99.121,-742.676,-39.062,-82.520,0.000
1673144933.954,-103.027,-844.238,-27.344,-78.613,0.000
1673144933.957,22.949,-104.980,-19.043,44.434,0.000
1673144933.961,41.992,-101.562,-30.273,62.500,0.000
1673144933.965,-58.594,-837.891,-43.945,-35.645,0.000
1673144933.969,-67.383,-1000.000,-34.668,-76.660,0.000
1673144933.973,22.461,-339.355,-28.320,15.625,0.000
1673144933.977,62.012,-29.785,-34.668,67.383,0.000
1673144933.981,-32.715,-756.348,-40.527,-29.785,0.000
1673144933.985,-112.305,-835.938,-35.156,-119.141,0.000
1673144933.989,-47.363,-648.926,-32.227,-51.758,0.000
1673144933.993,59.570,-365.234,-29.297,62.988,0.000
1673144933.996,0.488,-134.277,-33.691,5.859,0.000
1673144934.000,-197.754,-786.621,-39.062,-169.922,0.000
1673144934.004,-65.918,-766.113,-20.020,-72.754,0.000
1673144934.008,166.992,-24.414,-15.137,132.812,0.000
1673144934.012,21.484,-88.379,-27.832,28.320,0.000
1673144934.016,-216.309,-753.418,-37.598,-178.711,0.000
1673144934.020,-104.980,-865.723,-33.691,-118.164,0.000
1673144934.024,153.809,-342.773,-25.391,101.074,0.000
1673144934.028,76.660,9.277,-27.832,92.285,0.000
1673144934.032,-189.941,-369.141,-42.480,-140.137,0.000
1673144934.036,-167.480,-1000.000,-41.992,-164.551,0.000
1673144934.039,89.355,-547.363,-23.438,43.457,0.000
1673144934.043,122.559,357.422,-24.414,92.773,0.000
1673144934.047,-123.047,-264.648,-36.621,-83.984,0.000
1673144934.051,-215.820,-1000.000,-39.062,-173.828,0.000
1673144934.055,34.668,-793.945,-21.484,-8.789,0.000
1673144934.059,188.477,53.223,-18.066,125.977,0.000
1673144934.063,-15.137,-166.992,-43.457,-20.508,0.000
1673144934.067,-205.078,-1000.000,-54.199,-190.918,0.000
1673144934.071,-41.016,-963.379,-40.039,-74.707,0.000
1673144934.075,194.824,294.922,-26.367,121.582,0.000
1673144934.079,82.031,645.020,-41.992,53.223,0.000
1673144934.082,-196.289,-702.148,-55.664,-147.461,0.000
1673144934.086,-151.855,-1000.000,-40.527,-103.027,0.000
1673144934.090,120.605,111.816,-24.902,109.375,0.000
1673144934.094,110.840,622.070,-36.621,84.961,0.000
1673144934.098,-155.762,-494.629,-54.688,-139.648,0.000
1673144934.102,-171.875,-1000.000,-44.922,-148.438,0.000
1673144934.106,84.961,-569.336,-26.367,53.711,0.000
1673144934.110,158.203,181.152,-27.344,127.930,0.000
1673144934.114,-81.543,-353.027,-49.316,-53.711,0.000
1673144934.118,-216.797,-1000.000,-44.434,-184.082,0.000
1673144934.121,14.648,-526.367,-15.625,-25.391,0.000
1673144934.125,188.965,541.504,-20.508,134.766,0.000
1673144934.129,-15.625,110.352,-45.410,6.348,0.000
1673144934.133,-228.516,-961.426,-49.805,-180.664,0.000
1673144934.137,-81.543,-839.844,-31.738,-88.379,0.000
1673144934.141,156.250,217.285,-21.484,110.352,0.000
1673144934.145,60.547,185.059,-34.180,66.895,0.000
1673144934.149,-194.336,-846.680,-47.852,-136.719,0.000
1673144934.153,-155.762,-1000.000,-41.016,-145.020,0.000
1673144934.157,104.980,-417.480,-26.855,73.242,0.000
1673144934.161,117.188,-381.836,-33.691,115.234,0.000
1673144934.164,-149.902,-719.727,-41.016,-112.793,0.000
1673144934.168,-202.637,-938.477,-40.527,-189.453,0.000
1673144934.172,52.734,-555.176,-34.668,2.930,0.000
1673144934.176,145.508,365.723,-34.668,116.699,0.000
1673144934.180,-80.566,119.629,-45.410,-40.527,0.000
1673144934.184,-229.492,-925.781,-48.828,-190.430,0.000
1673144934.188,-25.879,-879.883,-31.738,-55.664,0.000
1673144934.192,170.898,201.172,-25.391,122.070,0.000
1673144934.196,11.719,70.312,-46.387,13.672,0.000
1673144934.200,-208.984,-893.066,-56.641,-188.477,0.000
1673144934.203,-86.426,-1000.000,-41.504,-89.355,0.000
1673144934.207,155.762,-392.090,-23.926,131.836,0.000
1673144934.211,70.801,340.820,-34.180,68.848,0.000
1673144934.215,-181.641,-643.555,-49.316,-127.441,0.000
1673144934.219,-163.574,-1000.000,-38.086,-129.883,0.000
1673144934.223,107.422,-94.727,-17.090,85.449,0.000
1673144934.227,150.391,722.656,-18.066,127.930,0.000
1673144934.231,-125.488,-125.488,-42.480,-82.520,0.000
1673144934.235,-207.520,-1000.000,-43.945,-159.180,0.000
1673144934.239,49.805,-393.555,-22.949,26.855,0.000
1673144934.243,177.246,367.188,-17.578,151.855,0.000
1673144934.246,-44.922,-227.539,-38.086,-21.973,0.000
1673144934.250,-218.262,-1000.000,-50.293,-168.457,0.000
1673144934.254,-32.227,-727.539,-19.531,-24.902,0.000
1673144934.258,187.012,471.680,-11.230,129.395,0.000
1673144934.262,51.270,453.613,-35.645,23.926,0.000
1673144934.266,-204.102,-842.773,-42.969,-177.246,0.000
1673144934.270,-126.953,-1000.000,-30.273,-127.441,0.000
1673144934.274,129.883,47.852,-19.043,88.867,0.000
1673144934.278,95.215,465.820,-33.203,83.984,0.000
1673144934.282,-164.062,-587.891,-47.852,-133.301,0.000
1673144934.286,-172.852,-1000.000,-38.574,-161.133,0.000
1673144934.289,90.820,-454.102,-22.461,37.598,0.000
1673144934.293,135.254,9.277,-31.738,119.629,0.000
1673144934.297,-114.258,-757.812,-44.434,-49.805,0.000
1673144934.301,-209.473,-1000.000,-38.574,-200.684,0.000
1673144934.305,21.484,-575.684,-23.926,-31.738,0.000
1673144934.309,170.898,206.055,-20.996,133.301,0.000
1673144934.313,-41.504,92.773,-34.180,-7.324,0.000
1673144934.317,-251.953,-842.773,-44.434,-178.223,0.000
1673144934.321,-81.055,-872.070,-34.668,-67.871,0.000
1673144934.325,155.273,-92.773,-25.879,130.859,0.000
1673144934.328,48.828,226.074,-31.250,62.988,0.000
1673144934.332,-197.754,-539.551,-39.551,-144.531,0.000
1673144934.336,-127.441,-1000.000,-33.203,-105.469,0.000
1673144934.340,133.789,-912.109,-25.879,122.559,0.000
1673144934.344,99.609,-230.469,-25.391,127.930,0.000
1673144934.348,-166.504,-373.535,-37.598,-93.750,0.000
1673144934.352,-187.500,-1000.000,-41.504,-140.625,0.000
1673144934.356,80.078,-481.445,-21.973,37.109,0.000
1673144934.360,167.480,600.586,-22.461,108.398,0.000
1673144934.364,-70.312,94.238,-41.992,-63.477,0.000
1673144934.368,-201.660,-986.816,-41.504,-177.246,0.000
1673144934.371,14.648,-664.551,-23.438,-32.227,0.000
1673144934.375,194.336,517.090,-14.648,113.281,0.000
1673144934.379,6.836,308.594,-34.180,-7.812,0.000
1673144934.383,-224.609,-882.812,-54.199,-188.477,0.000
1673144934.387,-101.074,-1000.000,-36.621,-77.637,0.000
1673144934.391,145.508,80.566,-14.648,136.719,0.000
1673144934.395,57.129,558.594,-27.344,72.266,0.000
1673144934.399,-211.426,-679.199,-49.805,-161.621,0.000
1673144934.403,-164.062,-1000.000,-35.645,-138.672,0.000
1673144934.407,107.910,64.941,-16.602,90.332,0.000
1673144934.411,121.094,674.316,-28.320,119.141,0.000
1673144934.414,-145.508,-494.141,-49.316,-98.145,0.000
1673144934.418,-210.938,-1000.000,-46.875,-175.781,0.000
1673144934.422,50.293,-313.477,-26.855,24.414,0.000
1673144934.426,162.598,536.621,-27.344,147.461,0.000
1673144934.430,-64.941,-363.281,-47.363,-24.902,0.000
1673144934.434,-216.309,-1000.000,-48.340,-195.312,0.000
1673144934.438,-11.230,-794.922,-28.809,-54.688,0.000
1673144934.442,187.012,-54.688,-22.949,131.348,0.000
1673144934.446,13.184,-438.965,-33.691,43.945,0.000
1673144934.450,-224.121,-1000.000,-35.156,-167.480,0.000
1673144934.453,-103.516,-849.609,-30.273,-107.910,0.000
1673144934.457,151.855,81.543,-19.531,113.770,0.000
1673144934.461,94.727,459.961,-27.832,84.961,0.000
1673144934.465,-173.340,-455.566,-46.387,-145.996,0.000
1673144934.469,-169.434,-998.047,-38.574,-152.344,0.000
1673144934.473,93.262,-379.883,-28.320,65.918,0.000
1673144934.477,139.648,124.512,-36.621,117.188,0.000
1673144934.481,-127.441,-542.969,-45.898,-76.172,0.000
1673144934.485,-268.555,-1000.000,-47.852,-212.402,0.000
1673144934.489,81.543,-693.359,-34.180,26.855,0.000
1673144934.493,274.414,49.805,-28.320,201.172,0.000
1673144934.496,-104.492,-54.199,-48.828,-66.406,0.000
1673144934.500,-345.703,-1000.000,-56.152,-252.441,0.000
1673144934.504,-21.973,-890.137,-36.133,-45.410,0.000
1673144934.508,288.574,669.922,-29.297,182.129,0.000
1673144934.512,12.207,677.734,-50.293,20.020,0.000
1673144934.516,-355.469,-840.820,-63.965,-260.254,0.000
1673144934.520,-137.695,-978.027,-42.969,-119.141,0.000
1673144934.524,261.230,221.191,-23.926,184.570,0.000
1673144934.528,151.367,592.773,-39.551,117.676,0.000
1673144934.532,-273.438,-721.680,-65.430,-208.984,0.000
1673144934.535,-262.695,-1000.000,-53.223,-208.496,0.000
1673144934.539,184.570,121.582,-13.184,134.277,0.000
1673144934.543,242.188,984.375,-22.461,207.520,0.000
1673144934.547,-203.613,-222.168,-58.594,-133.789,0.000
1673144934.551,-333.008,-1000.000,-52.246,-282.227,0.000
1673144934.555,85.938,-313.965,-21.973,24.902,0.000
1673144934.559,299.316,918.945,-20.508,237.793,0.000
1673144934.563,-55.664,227.051,-45.898,-18.555,0.000
1673144934.567,-341.309,-1000.000,-52.734,-261.719,0.000
1673144934.571,-57.617,-889.648,-27.832,-54.688,0.000
1673144934.575,209.961,102.539,-14.648,172.363,0.000
1673144934.578,55.664,100.586,-32.715,70.801,0.000
1673144934.582,-185.059,-956.543,-41.016,-143.555,0.000
1673144934.586,-116.211,-945.801,-24.902,-108.398,0.000
1673144934.590,142.090,120.117,-14.160,129.395,0.000
1673144934.594,123.047,408.203,-25.879,134.277,0.000
1673144934.598,-142.090,-412.598,-42.969,-109.375,0.000
1673144934.602,-171.875,-995.605,-37.598,-167.480,0.000
1673144934.606,97.656,-617.188,-21.484,55.664,0.000
1673144934.610,170.410,191.406,-22.461,137.695,0.000
1673144934.614,-85.938,-46.875,-36.621,-64.941,0.000
1673144934.618,-216.797,-927.246,-41.016,-171.875,0.000
1673144934.621,-10.742,-908.203,-23.926,-10.742,0.000
1673144934.625,154.297,-495.605,-19.043,145.508,0.000
1673144934.629,-20.508,-154.297,-24.902,20.996,0.000
1673144934.633,-228.027,-702.637,-30.762,-176.270,0.000
1673144934.637,-90.332,-1000.000,-19.043,-78.613,0.000
1673144934.641,155.762,-26.367,-8.789,146.973,0.000
1673144934.645,69.336,561.035,-25.391,96.680,0.000
1673144934.649,-196.289,-435.547,-41.504,-143.555,0.000
1673144934.653,-158.691,-1000.000,-36.133,-152.832,0.000
1673144934.657,125.000,-166.992,-19.043,61.035,0.000
1673144934.660,128.418,464.355,-27.832,117.676,0.000
1673144934.664,-143.066,-507.812,-53.223,-85.449,0.000
1673144934.668,-192.871,-1000.000,-48.340,-179.688,0.000
1673144934.672,62.500,-596.191,-20.020,21.973,0.000
1673144934.676,167.480,558.594,-19.531,132.324,0.000
1673144934.680,-70.801,204.102,-46.875,-45.898,0.000
1673144934.684,-231.934,-981.445,-54.199,-186.035,0.000
1673144934.688,-34.668,-790.527,-33.203,-50.781,0.000
1673144934.692,164.062,458.984,-22.461,133.789,0.000
1673144934.696,12.207,443.848,-40.527,47.363,0.000
1673144934.700,-221.191,-853.027,-57.129,-170.898,0.000
1673144934.703,-114.258,-950.684,-39.062,-109.375,0.000
1673144934.707,138.184,188.965,-25.879,110.352,0.000
1673144934.711,75.195,220.703,-47.363,82.031,0.000
1673144934.715,-174.805,-823.242,-67.383,-127.441,0.000
1673144934.719,-151.367,-1000.000,-49.805,-142.578,0.000
1673144934.723,106.934,-250.977,-32.227,64.941,0.000
1673144934.727,142.090,605.469,-43.945,124.023,0.000
1673144934.731,-107.422,-265.137,-54.688,-77.637,0.000
1673144934.735,-187.012,-1000.000,-42.480,-170.410,0.000
1673144934.739,51.758,-435.547,-25.391,27.344,0.000
1673144934.742,177.734,472.168,-29.297,155.273,0.000
1673144934.746,-47.852,57.129,-42.969,-10.742,0.000
1673144934.750,-227.539,-944.336,-44.922,-153.809,0.000
1673144934.754,-50.293,-727.539,-26.367,-28.809,0.000
1673144934.758,153.809,49.316,-22.461,117.188,0.000
1673144934.762,39.062,-166.992,-36.621,25.391,0.000
1673144934.766,-196.777,-787.109,-45.898,-166.016,0.000
1673144934.770,-122.070,-957.520,-43.945,-113.281,0.000
1673144934.774,137.695,-379.883,-35.156,95.703,0.000
1673144934.778,104.492,223.633,-40.527,90.332,0.000
1673144934.782,-155.762,-339.844,-51.758,-125.977,0.000
1673144934.785,-157.715,-1000.000,-39.551,-156.738,0.000
1673144934.789,113.770,-708.984,-25.391,69.336,0.000
1673144934.793,172.363,350.098,-28.320,142.578,0.000
1673144934.797,-85.938,8.301,-42.969,-48.340,0.000
1673144934.801,-199.707,-1000.000,-46.387,-130.371,0.000
1673144934.805,20.020,-861.328,-29.785,29.297,0.000
1673144934.809,178.711,40.527,-21.484,144.043,0.000
1673144934.813,-0.977,-106.445,-41.504,-1.953,0.000
1673144934.817,-198.242,-996.582,-51.758,-174.316,0.000
1673144934.821,-59.570,-859.375,-34.180,-67.871,0.000
1673144934.825,162.109,336.914,-25.879,115.234,0.000
1673144934.828,38.086,374.023,-44.922,49.316,0.000
1673144934.832,-222.656,-849.609,-59.570,-162.109,0.000
1673144934.836,-158.203,-1000.000,-42.969,-130.859,0.000
1673144934.840,119.141,43.457,-20.020,102.051,0.000
1673144934.844,118.652,603.027,-27.344,122.070,0.000
1673144934.848,-150.391,-405.273,-47.363,-81.543,0.000
1673144934.852,-194.824,-1000.000,-40.039,-133.301,0.000
1673144934.856,61.523,-459.473,-16.113,53.711,0.000
1673144934.860,152.344,595.703,-18.555,159.668,0.000
1673144934.864,-92.285,-158.691,-45.898,-21.973,0.000
1673144934.867,-229.004,-1000.000,-46.387,-171.875,0.000
1673144934.871,-0.488,-583.496,-29.785,-28.320,0.000
1673144934.875,172.363,481.445,-28.809,122.070,0.000
1673144934.879,2.930,-76.660,-45.898,14.160,0.000
1673144934.883,-134.766,-1000.000,-47.852,-130.859,0.000
1673144934.887,-71.777,-895.508,-39.551,-96.680,0.000
1673144934.891,41.016,-295.898,-31.738,31.738,0.000
1673144934.895,53.711,-145.508,-35.156,36.621,0.000
1673144934.899,-55.176,-647.461,-44.434,-76.172,0.000
1673144934.903,-96.680,-965.332,-41.504,-103.027,0.000
1673144934.907,6.348,-860.352,-36.621,10.254,0.000
1673144934.910,57.617,-511.230,-37.109,83.984,0.000
1673144934.914,-31.738,-204.590,-41.992,-20.508,0.000
1673144934.918,-92.285,-464.355,-44.434,-106.934,0.000
1673144934.922,-40.527,-745.117,-42.969,-25.391,0.000
1673144934.926,36.133,-699.707,-36.621,86.426,0.000
1673144934.930,-10.742,-146.973,-35.645,46.387,0.000
1673144934.934,-120.605,-409.668,-44.922,-98.145,0.000
1673144934.938,-83.984,-878.418,-39.062,-82.520,0.000
1673144934.942,38.086,-533.691,-29.297,50.293,0.000
1673144934.946,30.273,-279.297,-34.668,40.527,0.000
1673144934.950,-81.543,-779.297,-46.875,-95.215,0.000
1673144934.953,-74.707,-1000.000,-44.922,-85.449,0.000
1673144934.957,53.223,-399.902,-29.297,54.688,0.000
1673144934.961,61.523,233.398,-27.344,59.082,0.000
1673144934.965,-80.078,-123.047,-39.062,-49.316,0.000
1673144934.969,-120.605,-892.090,-44.922,-87.402,0.000
1673144934.973,-6.836,-645.996,-35.156,-10.742,0.000
1673144934.977,66.895,112.305,-29.785,49.316,0.000
1673144934.981,-9.277,-23.926,-41.016,-25.391,0.000
1673144934.985,-98.145,-815.918,-47.363,-99.121,0.000
1673144934.989,-46.387,-669.434,-38.086,-28.809,0.000
1673144934.992,50.781,-188.477,-33.203,55.664,0.000
1673144934.996,7.812,-368.652,-38.574,11.719,0.000
1673144935.000,-101.562,-913.574,-44.434,-100.098,0.000
1673144935.004,-83.984,-1000.000,-28.320,-77.637,0.000
1673144935.008,37.598,-127.441,-13.672,61.035,0.000
1673144935.012,38.086,93.262,-28.809,65.430,0.000
1673144935.016,-86.914,-833.008,-39.551,-52.734,0.000
1673144935.020,-94.238,-814.453,-23.438,-56.641,0.000
1673144935.024,28.809,-115.723,-17.090,43.945,0.000
1673144935.028,64.453,66.406,-23.926,63.477,0.000
1673144935.032,-50.781,-313.477,-28.320,-31.250,0.000
1673144935.035,-107.422,-599.609,-34.180,-101.074,0.000
1673144935.039,-1.953,-653.809,-34.180,-35.645,0.000
1673144935.043,63.477,-436.035,-28.320,47.852,0.000
1673144935.047,-29.297,-268.066,-30.273,-29.785,0.000
1673144935.051,-110.352,-645.508,-39.551,-133.789,0.000
1673144935.055,-41.016,-848.145,-34.180,-64.453,0.000
1673144935.059,65.430,-540.039,-29.297,58.105,0.000
1673144935.063,18.066,-364.746,-30.273,34.180,0.000
1673144935.067,-110.840,-443.848,-32.715,-86.914,0.000
1673144935.071,-86.914,-725.586,-34.180,-57.617,0.000
1673144935.074,43.457,-507.324,-30.273,70.312,0.000
1673144935.078,52.246,57.617,-29.785,67.383,0.000
1673144935.082,-80.078,-222.656,-37.109,-49.805,0.000
1673144935.086,-106.445,-961.914,-39.062,-73.730,0.000
1673144935.090,4.395,-905.273,-29.297,36.133,0.000
1673144935.094,48.340,-327.637,-24.414,82.031,0.000
1673144935.098,-39.551,-120.117,-32.227,-1.465,0.000
1673144935.102,-105.469,-608.887,-40.527,-71.777,0.000
1673144935.106,-34.668,-925.781,-30.762,19.043,0.000
1673144935.110,54.688,-347.168,-21.484,125.000,0.000
1673144935.114,-4.883,-45.898,-27.344,38.086,0.000
1673144935.117,-180.176,-792.969,-40.039,-127.930,0.000
1673144935.121,-36.133,-747.070,-26.855,-22.949,0.000
1673144935.125,177.734,485.352,-17.578,175.293,0.000
1673144935.129,3.906,437.500,-36.133,68.359,0.000
1673144935.133,-216.797,-842.773,-50.781,-160.645,0.000
1673144935.137,-93.750,-956.055,-29.785,-79.102,0.000
1673144935.141,150.879,305.664,-15.137,157.227,0.000
1673144935.145,70.801,664.551,-36.621,94.727,0.000
1673144935.149,-211.426,-593.750,-47.852,-124.023,0.000
1673144935.153,-189.941,-1000.000,-29.297,-109.375,0.000
1673144935.157,97.168,3.906,-10.254,114.746,0.000
1673144935.160,130.371,651.855,-18.555,177.246,0.000
1673144935.164,-143.066,-465.332,-40.039,-58.105,0.000
1673144935.168,-229.492,-1000.000,-37.109,-161.133,0.000
1673144935.172,33.203,-290.039,-14.160,49.316,0.000
1673144935.176,169.434,595.703,-13.672,179.688,0.000
1673144935.180,-61.523,-316.406,-35.645,12.207,0.000
1673144935.184,-238.770,-1000.000,-38.574,-144.531,0.000
1673144935.188,-49.805,-770.996,-20.996,-15.137,0.000
1673144935.192,160.156,206.543,-20.020,169.922,0.000
1673144935.196,8.789,-332.031,-37.109,95.703,0.000
1673144935.199,-214.355,-1000.000,-37.598,-130.859,0.000
1673144935.203,-92.773,-833.496,-19.531,-76.660,0.000
1673144935.207,147.461,-3.906,-10.742,164.551,0.000
1673144935.211,87.402,406.738,-26.855,127.930,0.000
1673144935.215,-172.363,-395.020,-39.551,-97.168,0.000
1673144935.219,-162.598,-1000.000,-33.203,-110.840,0.000
1673144935.223,112.305,-513.672,-22.461,94.238,0.000
1673144935.227,145.996,26.367,-29.297,150.879,0.000
1673144935.231,-118.164,-539.062,-42.969,-47.363,0.000
1673144935.235,-208.496,-996.582,-41.992,-181.152,0.000
1673144935.239,36.133,-931.152,-26.855,13.184,0.000
1673144935.242,182.129,-297.852,-18.555,181.641,0.000
1673144935.246,-31.738,110.352,-40.039,-1.953,0.000
1673144935.250,-228.027,-836.426,-54.688,-175.293,0.000
1673144935.254,-54.199,-1000.000,-36.621,-35.645,0.000
1673144935.258,171.875,207.031,-23.438,143.066,0.000
1673144935.262,48.828,574.219,-42.480,63.965,0.000
1673144935.266,-207.031,-594.727,-58.594,-125.000,0.000
1673144935.270,-143.066,-1000.000,-41.504,-83.008,0.000
1673144935.274,110.840,-196.777,-26.855,115.234,0.000
1673144935.278,93.262,214.355,-30.273,123.535,0.000
1673144935.281,-170.898,-678.223,-43.945,-99.121,0.000
1673144935.285,-204.102,-1000.000,-44.434,-157.227,0.000
1673144935.289,76.660,-245.605,-24.902,54.199,0.000
1673144935.293,157.227,648.926,-32.715,143.555,0.000
1673144935.297,-101.074,-44.922,-58.105,-42.969,0.000
1673144935.301,-229.492,-1000.000,-54.688,-171.875,0.000
1673144935.305,1.465,-523.926,-33.691,-0.488,0.000
1673144935.309,181.152,605.469,-31.250,165.039,0.000
1673144935.313,-9.277,147.949,-47.363,45.898,0.000
1673144935.317,-226.562,-976.074,-51.758,-141.602,0.000
1673144935.321,-76.660,-1000.000,-38.086,-68.359,0.000
1673144935.324,166.016,-70.801,-31.738,124.023,0.000
1673144935.328,66.406,84.473,-47.852,77.148,0.000
1673144935.332,-199.219,-939.941,-52.734,-132.812,0.000
1673144935.336,-143.555,-980.469,-37.598,-136.230,0.000
1673144935.340,135.742,52.734,-26.855,75.684,0.000
1673144935.344,129.883,420.410,-32.715,115.234,0.000
1673144935.348,-147.461,-389.648,-43.457,-102.539,0.000
1673144935.352,-200.684,-982.422,-36.133,-175.293,0.000
1673144935.356,64.453,-379.395,-19.531,36.621,0.000
1673144935.360,155.273,334.473,-22.949,152.344,0.000
1673144935.364,-90.332,-64.453,-45.410,-46.387,0.000
1673144935.367,-219.727,-924.316,-52.246,-203.125,0.000
1673144935.371,-6.836,-899.902,-31.738,-49.316,0.000
1673144935.375,172.852,-467.773,-26.367,128.906,0.000
1673144935.379,-3.418,-166.992,-30.762,6.836,0.000
1673144935.383,-231.445,-692.383,-37.109,-192.383,0.000
1673144935.387,-103.027,-1000.000,-31.250,-111.328,0.000
1673144935.391,161.133,-137.207,-18.066,96.680,0.000
1673144935.395,101.562,567.383,-28.809,62.988,0.000
1673144935.399,-165.527,-379.395,-47.363,-150.879,0.000
1673144935.403,-151.367,-1000.000,-38.086,-161.133,0.000
1673144935.406,43.457,-459.473,-23.926,22.949,0.000
1673144935.410,71.777,187.988,-26.855,107.910,0.000
1673144935.414,-22.949,-237.793,-32.715,-19.043,0.000
1673144935.418,-122.559,-1000.000,-38.086,-144.531,0.000
1673144935.422,35.156,-721.680,-21.484,-2.930,0.000
1673144935.426,166.504,517.578,-15.625,130.859,0.000
1673144935.430,-68.359,238.281,-41.016,-35.645,0.000
1673144935.434,-238.281,-968.750,-48.340,-208.008,0.000
1673144935.438,-35.645,-718.750,-28.320,-75.684,0.000
1673144935.442,178.711,393.066,-17.578,106.934,0.000
1673144935.446,30.273,171.387,-28.809,17.578,0.000
1673144935.449,-208.984,-933.594,-40.039,-162.109,0.000
1673144935.453,-112.793,-920.898,-25.391,-124.512,0.000
1673144935.457,127.930,183.105,-15.625,50.293,0.000
1673144935.461,56.641,196.289,-37.598,35.156,0.000
1673144935.465,-189.941,-845.703,-57.617,-161.133,0.000
1673144935.469,-176.758,-1000.000,-40.527,-179.688,0.000
1673144935.473,78.613,-113.281,-21.973,31.738,0.000
1673144935.477,135.742,643.555,-38.574,77.148,0.000
1673144935.481,-112.793,-269.531,-58.105,-117.676,0.000
1673144935.485,-214.355,-1000.000,-44.922,-203.125,0.000
1673144935.489,20.996,-449.219,-25.391,-2.930,0.000
1673144935.492,167.480,465.332,-26.855,149.414,0.000
1673144935.496,-40.039,58.594,-44.922,-38.086,0.000
1673144935.500,-239.746,-957.031,-50.781,-222.168,0.000
1673144935.504,-67.383,-772.461,-25.879,-85.938,0.000
1673144935.508,154.785,-73.730,-25.391,113.770,0.000
1673144935.512,27.344,-271.973,-39.062,39.551,0.000
1673144935.516,-210.449,-777.832,-41.504,-162.109,0.000
1673144935.520,-132.812,-944.824,-29.785,-110.352,0.000
1673144935.524,130.859,-258.301,-12.695,114.746,0.000
1673144935.528,110.352,270.996,-23.926,110.352,0.000
1673144935.531,-161.133,-538.086,-41.016,-118.164,0.000
1673144935.535,-188.965,-1000.000,-37.109,-177.734,0.000
1673144935.539,80.566,-697.754,-22.949,22.949,0.000
1673144935.543,167.480,300.293,-22.461,115.234,0.000
1673144935.547,-68.359,-36.621,-40.527,-70.312,0.000
1673144935.551,-210.449,-1000.000,-40.527,-187.500,0.000
1673144935.555,-11.230,-862.305,-21.484,-22.461,0.000
1673144935.559,181.152,82.520,-18.555,113.281,0.000
1673144935.563,0.488,-83.984,-35.645,-28.320,0.000
1673144935.567,-268.555,-1000.000,-34.668,-235.352,0.000
1673144935.571,-44.434,-975.098,-20.508,-73.730,0.000
1673144935.574,299.805,529.297,-11.230,200.195,0.000
1673144935.578,98.633,873.047,-30.762,72.266,0.000
1673144935.582,-302.246,-729.492,-50.293,-248.047,0.000
1673144935.586,-187.988,-1000.000,-35.156,-193.359,0.000
1673144935.590,254.395,385.254,-13.672,136.230,0.000
1673144935.594,211.914,989.746,-28.320,140.625,0.000
1673144935.598,-253.418,-415.039,-52.734,-178.223,0.000
1673144935.602,-292.480,-1000.000,-38.574,-229.004,0.000
1673144935.606,148.438,-174.805,-4.883,84.473,0.000
1673144935.610,257.812,906.738,-11.719,189.453,0.000
1673144935.613,-160.645,-128.418,-49.316,-108.887,0.000
1673144935.617,-351.562,-1000.000,-45.898,-283.691,0.000
1673144935.621,33.203,-467.773,-9.766,-22.949,0.000
1673144935.625,293.945,832.520,-11.230,202.637,0.000
1673144935.629,-10.742,231.934,-46.387,12.695,0.000
1673144935.633,-260.742,-1000.000,-50.781,-195.312,0.000
1673144935.637,-89.844,-855.469,-27.832,-83.984,0.000
1673144935.641,154.297,186.035,-22.461,110.352,0.000
1673144935.645,84.961,183.105,-42.969,67.871,0.000
1673144935.649,-174.805,-838.867,-54.688,-141.602,0.000
1673144935.653,-156.250,-1000.000,-43.457,-176.270,0.000
1673144935.656,92.285,-436.523,-31.250,32.715,0.000
1673144935.660,113.281,-347.168,-40.039,88.379,0.000
1673144935.664,-151.367,-645.508,-50.781,-127.930,0.000
1673144935.668,-271.973,-1000.000,-54.199,-247.070,0.000
1673144935.672,89.355,-507.324,-27.832,23.926,0.000
1673144935.676,281.250,802.246,-18.066,194.824,0.000
1673144935.680,-111.328,261.230,-47.852,-93.262,0.000
1673144935.684,-349.609,-1000.000,-53.223,-285.645,0.000
1673144935.688,-21.484,-842.285,-20.996,-8.789,0.000
1673144935.692,286.621,611.328,-7.812,205.566,0.000
1673144935.696,26.367,417.969,-37.109,1.465,0.000
1673144935.699,-331.055,-889.648,-57.129,-268.555,0.000
1673144935.703,-128.418,-1000.000,-39.551,-128.418,0.000
1673144935.707,276.367,-190.918,-15.137,191.406,0.000
1673144935.711,160.156,837.402,-29.297,107.422,0.000
1673144935.715,-272.949,-455.566,-55.176,-193.359,0.000
1673144935.719,-231.934,-1000.000,-41.992,-202.637,0.000
1673144935.723,216.797,37.109,-15.625,100.586,0.000
1673144935.727,276.367,929.199,-22.949,177.734,0.000
1673144935.731,-147.949,-91.309,-47.363,-119.141,0.000
1673144935.735,-315.430,-1000.000,-42.480,-238.770,0.000
1673144935.738,75.195,-346.191,-11.719,54.688,0.000
1673144935.742,283.691,805.176,-13.184,229.004,0.000
1673144935.746,-86.914,52.734,-41.016,-33.203,0.000
1673144935.750,-365.234,-1000.000,-49.316,-265.137,0.000
1673144935.754,-50.781,-709.961,-19.043,-69.336,0.000
1673144935.758,286.133,741.211,-0.977,214.844,0.000
1673144935.762,46.875,669.922,-26.855,60.547,0.000
