timestamp,TP9,AF7,AF8,TP10,Right AUX
1673144894.994,121.094,743.652,-42.969,133.301,0.000
1673144894.998,-158.203,-72.754,-65.430,-103.027,0.000
1673144895.002,-229.492,-1000.000,-62.988,-195.312,0.000
1673144895.006,41.016,-364.258,-36.133,17.090,0.000
1673144895.009,162.598,665.527,-29.297,141.113,0.000
1673144895.013,-73.730,-69.824,-60.059,-34.180,0.000
1673144895.017,-245.117,-1000.000,-72.266,-169.922,0.000
1673144895.021,-44.922,-733.887,-45.898,-42.480,0.000
1673144895.025,179.199,495.605,-34.180,140.625,0.000
1673144895.029,29.785,517.090,-50.781,53.223,0.000
1673144895.033,-229.004,-787.598,-67.383,-157.227,0.000
1673144895.037,-118.652,-1000.000,-53.223,-87.402,0.000
1673144895.041,158.203,-73.730,-36.621,129.395,0.000
1673144895.045,98.145,414.551,-50.293,94.727,0.000
1673144895.048,-192.871,-672.363,-65.918,-118.164,0.000
1673144895.052,-186.035,-1000.000,-55.664,-135.742,0.000
1673144895.056,99.121,-93.750,-37.109,66.895,0.000
1673144895.060,155.273,297.363,-45.410,154.297,0.000
1673144895.064,-110.352,-718.750,-66.406,-44.922,0.000
1673144895.068,-228.516,-1000.000,-60.547,-176.758,0.000
1673144895.072,17.578,-713.379,-47.363,5.371,0.000
1673144895.076,170.410,129.883,-41.504,149.414,0.000
1673144895.080,-58.594,60.059,-53.223,-4.883,0.000
1673144895.084,-253.906,-908.203,-60.059,-169.434,0.000
1673144895.088,-64.941,-813.965,-42.969,-61.523,0.000
1673144895.091,153.320,97.656,-36.621,116.211,0.000
1673144895.095,13.672,94.727,-52.246,45.410,0.000
1673144895.099,-239.258,-753.418,-66.406,-178.711,0.000
1673144895.103,-149.902,-930.176,-62.500,-145.508,0.000
1673144895.107,145.996,-502.930,-55.664,83.984,0.000
1673144895.111,104.980,-73.242,-55.664,84.961,0.000
1673144895.115,-193.848,-362.305,-68.359,-126.953,0.000
1673144895.119,-202.637,-1000.000,-66.895,-148.926,0.000
1673144895.123,84.473,-859.375,-46.387,73.730,0.000
1673144895.127,159.668,249.512,-44.434,138.672,0.000
1673144895.131,-111.816,23.438,-65.918,-71.289,0.000
1673144895.134,-244.141,-1000.000,-66.406,-178.711,0.000
1673144895.138,2.441,-722.168,-42.480,-18.066,0.000
1673144895.142,171.387,458.008,-41.016,139.648,0.000
1673144895.146,-31.250,341.797,-64.453,20.508,0.000
1673144895.150,-239.258,-836.914,-73.730,-177.734,0.000
1673144895.154,-76.172,-1000.000,-59.570,-92.773,0.000
1673144895.158,185.059,-94.238,-41.504,126.953,0.000
1673144895.162,71.289,285.156,-56.641,76.660,0.000
1673144895.166,-206.543,-769.531,-81.055,-148.438,0.000
1673144895.170,-139.160,-1000.000,-61.523,-115.234,0.000
1673144895.173,140.625,-70.801,-32.715,123.535,0.000
1673144895.177,120.605,573.730,-45.410,118.652,0.000
1673144895.181,-154.297,-435.059,-65.918,-110.840,0.000
1673144895.185,-187.988,-1000.000,-57.129,-161.621,0.000
1673144895.189,76.660,-361.816,-40.527,25.391,0.000
1673144895.193,175.781,511.230,-44.922,135.254,0.000
1673144895.197,-84.473,-264.160,-65.430,-35.156,0.000
1673144895.201,-260.254,-1000.000,-68.848,-182.129,0.000
1673144895.205,-32.715,-798.828,-46.875,-22.949,0.000
1673144895.209,177.246,44.434,-43.457,149.414,0.000
1673144895.213,-6.836,-303.223,-66.406,12.695,0.000
1673144895.216,-246.094,-1000.000,-66.895,-186.035,0.000
1673144895.220,-104.980,-845.215,-47.852,-85.449,0.000
1673144895.224,157.227,41.016,-45.898,142.090,0.000
1673144895.228,65.918,193.359,-59.570,76.660,0.000
1673144895.232,-206.055,-659.668,-64.941,-157.227,0.000
1673144895.236,-156.738,-930.664,-60.059,-133.789,0.000
1673144895.240,55.664,-377.930,-51.270,42.969,0.000
1673144895.244,82.520,-44.922,-47.852,85.449,0.000
1673144895.248,-51.270,-380.371,-59.570,-33.691,0.000
1673144895.252,-185.547,-948.242,-63.965,-151.855,0.000
1673144895.255,28.809,-762.207,-50.781,20.020,0.000
1673144895.259,175.293,-466.309,-53.223,149.414,0.000
1673144895.263,-59.082,-424.316,-66.406,-25.879,0.000
1673144895.267,-235.840,-932.617,-71.289,-184.570,0.000
1673144895.271,-38.574,-898.438,-52.734,-44.922,0.000
1673144895.275,188.477,289.062,-35.645,145.508,0.000
1673144895.279,34.668,501.465,-48.828,46.875,0.000
1673144895.283,-210.449,-678.711,-64.941,-170.898,0.000
1673144895.287,-94.238,-1000.000,-50.293,-111.328,0.000
1673144895.291,170.410,107.422,-37.598,127.930,0.000
1673144895.295,92.285,385.742,-50.293,132.812,0.000
1673144895.298,-192.871,-743.652,-65.430,-110.840,0.000
1673144895.302,-184.082,-1000.000,-59.570,-155.762,0.000
1673144895.306,111.328,-333.984,-35.156,75.684,0.000
1673144895.310,158.203,678.223,-38.086,124.512,0.000
1673144895.314,-65.918,145.020,-55.664,-41.992,0.000
1673144895.318,-153.320,-932.129,-54.199,-120.117,0.000
1673144895.322,-62.500,-821.777,-43.457,-47.363,0.000
1673144895.326,47.363,64.941,-36.621,69.824,0.000
1673144895.330,10.254,59.082,-50.781,5.859,0.000
1673144895.334,-112.305,-750.977,-62.012,-129.883,0.000
1673144895.338,-96.191,-802.246,-54.688,-93.262,0.000
1673144895.341,32.227,-435.547,-48.340,46.875,0.000
1673144895.345,30.273,-333.008,-52.734,60.059,0.000
1673144895.349,-104.004,-842.773,-69.336,-78.125,0.000
1673144895.353,-117.676,-1000.000,-61.523,-105.957,0.000
1673144895.357,14.160,-338.379,-46.387,23.926,0.000
1673144895.361,42.969,81.055,-53.711,63.965,0.000
1673144895.365,-62.988,-250.000,-64.941,-67.383,0.000
1673144895.369,-102.051,-544.922,-62.500,-137.207,0.000
1673144895.373,-7.812,-404.297,-48.828,-17.090,0.000
1673144895.377,63.965,-156.738,-48.340,89.355,0.000
1673144895.380,-24.902,-90.820,-51.758,7.812,0.000
1673144895.384,-116.699,-487.305,-53.223,-100.586,0.000
1673144895.388,-34.668,-842.285,-56.152,-50.781,0.000
1673144895.392,83.008,-773.926,-51.270,49.805,0.000
1673144895.396,27.344,-578.125,-53.223,31.738,0.000
1673144895.400,-107.910,-458.984,-66.406,-91.309,0.000
1673144895.404,-87.891,-660.156,-63.477,-94.238,0.000
1673144895.408,43.457,-504.395,-47.852,36.133,0.000
1673144895.412,53.711,-7.812,-53.223,36.133,0.000
1673144895.416,-67.871,-189.453,-62.012,-82.520,0.000
1673144895.420,-100.586,-768.555,-55.664,-88.867,0.000
1673144895.423,9.766,-632.324,-43.945,39.551,0.000
1673144895.427,41.992,-19.531,-47.363,69.824,0.000
1673144895.431,-62.012,-354.492,-62.988,-27.344,0.000
1673144895.435,-115.234,-1000.000,-65.430,-111.816,0.000
1673144895.439,-25.879,-963.867,-55.664,-37.109,0.000
1673144895.443,67.871,-216.309,-41.992,64.941,0.000
1673144895.447,-0.977,-238.281,-52.734,-5.371,0.000
1673144895.451,-110.352,-864.258,-59.082,-113.281,0.000
1673144895.455,-69.824,-781.250,-50.781,-64.453,0.000
1673144895.459,50.293,-134.766,-49.316,38.574,0.000
1673144895.462,27.832,149.902,-56.641,25.879,0.000
1673144895.466,-108.887,-585.938,-63.965,-90.820,0.000
1673144895.470,-104.492,-803.711,-60.547,-93.750,0.000
1673144895.474,27.344,-99.609,-48.340,36.133,0.000
1673144895.478,48.828,184.570,-50.293,61.523,0.000
1673144895.482,-74.219,-575.684,-64.941,-64.453,0.000
1673144895.486,-108.887,-1000.000,-57.129,-107.910,0.000
1673144895.490,20.508,-580.566,-41.016,22.949,0.000
1673144895.494,74.219,67.383,-50.781,95.215,0.000
1673144895.498,-38.086,-529.785,-65.918,-15.625,0.000
1673144895.502,-115.234,-961.914,-52.246,-100.586,0.000
1673144895.505,-23.926,-489.746,-38.574,-15.625,0.000
1673144895.509,79.102,-39.551,-38.574,67.383,0.000
1673144895.513,17.090,-317.383,-46.387,1.953,0.000
1673144895.517,-101.562,-684.082,-49.805,-107.422,0.000
1673144895.521,-63.965,-581.055,-45.898,-76.660,0.000
1673144895.525,64.453,-219.238,-41.504,41.992,0.000
1673144895.529,44.434,-445.801,-42.480,41.992,0.000
1673144895.533,-93.262,-743.164,-47.363,-82.031,0.000
1673144895.537,-86.914,-697.266,-43.945,-73.730,0.000
1673144895.541,50.293,-709.473,-36.133,49.316,0.000
1673144895.545,60.059,-593.750,-35.645,55.664,0.000
1673144895.548,-77.148,-423.340,-45.898,-62.012,0.000
1673144895.552,-103.516,-566.406,-45.898,-94.238,0.000
1673144895.556,15.137,-749.023,-40.039,20.508,0.000
1673144895.560,75.684,-521.484,-38.086,59.082,0.000
1673144895.564,-31.250,-219.238,-46.387,-36.133,0.000
1673144895.568,-118.652,-656.250,-54.199,-109.375,0.000
1673144895.572,-38.086,-937.988,-48.340,-48.340,0.000
1673144895.576,58.105,-558.594,-40.527,61.523,0.000
1673144895.580,3.906,-380.371,-39.551,32.227,0.000
1673144895.584,-110.352,-723.633,-47.852,-92.773,0.000
1673144895.587,-75.684,-962.402,-50.781,-93.262,0.000
1673144895.591,54.688,-245.117,-42.480,41.504,0.000
1673144895.595,38.086,216.797,-46.387,33.203,0.000
1673144895.599,-93.262,-545.410,-58.594,-86.426,0.000
1673144895.603,-113.281,-1000.000,-61.523,-85.449,0.000
1673144895.607,23.438,-359.863,-43.945,32.715,0.000
1673144895.611,58.105,249.023,-45.898,64.941,0.000
1673144895.615,-64.941,-231.934,-59.570,-49.805,0.000
1673144895.619,-106.445,-893.555,-54.688,-99.121,0.000
1673144895.623,-10.254,-808.105,-45.410,-15.625,0.000
1673144895.627,51.270,-206.543,-40.527,56.641,0.000
1673144895.630,-30.762,-168.945,-52.246,-1.465,0.000
1673144895.634,-126.953,-924.805,-56.152,-100.586,0.000
1673144895.638,-60.547,-704.590,-42.969,-57.129,0.000
1673144895.642,57.617,157.715,-40.527,62.012,0.000
1673144895.646,30.762,-30.273,-49.316,31.738,0.000
1673144895.650,-109.375,-782.227,-54.199,-91.797,0.000
1673144895.654,-95.703,-797.363,-50.293,-76.660,0.000
1673144895.658,50.781,-332.031,-43.457,32.715,0.000
1673144895.662,40.527,-43.945,-47.852,40.527,0.000
1673144895.666,-97.168,-404.297,-60.059,-57.129,0.000
1673144895.669,-88.379,-860.840,-57.617,-74.707,0.000
1673144895.673,30.273,-711.426,-53.223,22.949,0.000
1673144895.677,54.688,-400.879,-52.246,75.684,0.000
1673144895.681,-49.316,-339.355,-53.711,-20.020,0.000
1673144895.685,-112.305,-525.391,-56.641,-112.793,0.000
1673144895.689,-25.879,-525.391,-47.363,-23.438,0.000
1673144895.693,58.105,-590.332,-47.363,77.637,0.000
1673144895.697,-2.930,-365.234,-47.363,14.160,0.000
1673144895.701,-105.957,-380.371,-52.734,-111.816,0.000
1673144895.705,-56.641,-608.398,-49.805,-62.988,0.000
1673144895.709,63.965,-257.324,-40.527,102.051,0.000
1673144895.712,20.996,-210.938,-47.363,58.105,0.000
1673144895.716,-98.633,-782.715,-54.199,-85.449,0.000
1673144895.720,-87.891,-1000.000,-55.176,-67.383,0.000
1673144895.724,35.156,-820.312,-49.316,38.574,0.000
1673144895.728,46.387,-367.188,-46.875,48.828,0.000
1673144895.732,-84.961,-281.738,-53.223,-65.430,0.000
1673144895.736,-112.305,-816.895,-56.152,-93.262,0.000
1673144895.740,12.695,-701.660,-44.922,14.648,0.000
1673144895.744,85.449,158.691,-36.621,82.031,0.000
1673144895.748,-15.137,8.301,-48.340,6.348,0.000
1673144895.752,-148.926,-890.625,-53.711,-122.070,0.000
1673144895.755,15.137,-389.160,-37.109,-11.230,0.000
1673144895.759,157.715,682.129,-36.621,125.000,0.000
1673144895.763,-74.219,-101.074,-61.035,-40.039,0.000
1673144895.767,-277.344,-1000.000,-69.336,-215.820,0.000
1673144895.771,-41.504,-608.398,-40.039,-42.480,0.000
1673144895.775,250.977,809.082,-24.414,213.867,0.000
1673144895.779,-34.668,612.793,-57.617,34.180,0.000
1673144895.783,-376.465,-898.926,-77.148,-245.605,0.000
1673144895.787,-117.188,-924.805,-41.992,-98.145,0.000
1673144895.791,282.227,618.164,-26.855,190.918,0.000
1673144895.794,104.492,803.223,-57.129,100.098,0.000
1673144895.798,-328.125,-760.254,-74.707,-228.027,0.000
1673144895.802,-232.422,-1000.000,-58.105,-195.312,0.000
1673144895.806,228.516,228.516,-31.738,155.273,0.000
1673144895.810,240.234,809.082,-41.016,210.449,0.000
1673144895.814,-224.609,-610.352,-63.477,-116.699,0.000
1673144895.818,-319.336,-1000.000,-59.570,-252.441,0.000
1673144895.822,135.742,-425.293,-33.203,62.988,0.000
1673144895.826,328.613,547.852,-35.156,230.957,0.000
1673144895.830,-91.309,-415.527,-67.383,-62.988,0.000
1673144895.834,-375.488,-1000.000,-65.918,-275.879,0.000
1673144895.837,-20.020,-676.758,-42.480,-45.410,0.000
1673144895.841,309.570,493.652,-36.621,219.727,0.000
1673144895.845,26.855,488.281,-56.152,40.039,0.000
1673144895.849,-351.562,-839.844,-64.453,-253.906,0.000
1673144895.853,-143.555,-986.328,-42.969,-125.000,0.000
1673144895.857,268.066,53.223,-31.738,184.570,0.000
1673144895.861,145.020,435.059,-42.480,126.465,0.000
1673144895.865,-303.223,-602.051,-62.012,-194.824,0.000
1673144895.869,-273.926,-1000.000,-51.758,-196.289,0.000
1673144895.873,183.105,-564.941,-28.320,125.977,0.000
1673144895.876,249.023,455.566,-37.598,199.707,0.000
1673144895.880,-210.938,-276.367,-68.359,-136.719,0.000
1673144895.884,-361.816,-1000.000,-71.289,-274.902,0.000
1673144895.888,76.172,-506.836,-38.574,28.320,0.000
1673144895.892,299.805,809.570,-33.691,211.914,0.000
1673144895.896,-81.055,354.004,-62.500,-46.387,0.000
1673144895.900,-375.977,-980.469,-73.242,-283.691,0.000
1673144895.904,-45.898,-898.926,-47.363,-53.711,0.000
1673144895.908,311.035,579.102,-30.273,232.422,0.000
1673144895.912,62.500,717.285,-61.523,48.340,0.000
1673144895.916,-337.402,-857.910,-78.125,-267.578,0.000
1673144895.919,-192.871,-1000.000,-51.758,-169.922,0.000
1673144895.923,244.629,470.703,-28.320,157.715,0.000
1673144895.927,169.922,994.141,-45.410,134.277,0.000
1673144895.931,-287.109,-508.789,-73.242,-193.359,0.000
1673144895.935,-285.645,-1000.000,-61.523,-227.051,0.000
1673144895.939,117.188,-97.168,-34.180,64.453,0.000
1673144895.943,183.594,813.477,-41.992,147.949,0.000
1673144895.947,-96.680,-84.961,-68.848,-43.457,0.000
1673144895.951,-229.004,-1000.000,-67.383,-167.480,0.000
1673144895.955,3.906,-677.246,-41.016,-19.531,0.000
1673144895.959,196.289,526.367,-40.527,144.531,0.000
1673144895.962,-7.324,-37.109,-63.477,50.781,0.000
1673144895.966,-241.211,-1000.000,-59.570,-148.438,0.000
1673144895.970,-81.543,-787.598,-39.551,-83.496,0.000
1673144895.974,175.781,246.582,-33.691,131.836,0.000
1673144895.978,72.754,221.680,-44.434,75.195,0.000
1673144895.982,-208.008,-683.594,-56.152,-132.812,0.000
1673144895.986,-158.203,-921.387,-53.711,-125.488,0.000
1673144895.990,129.883,-171.875,-38.574,83.496,0.000
1673144895.994,115.234,215.332,-43.457,104.980,0.000
1673144895.998,-149.414,-628.418,-61.035,-107.422,0.000
1673144896.001,-192.383,-991.699,-47.363,-161.621,0.000
1673144896.005,19.531,-679.688,-36.133,2.441,0.000
1673144896.009,105.957,-818.359,-44.434,74.219,0.000
1673144896.013,9.766,-273.926,-44.434,-1.953,0.000
1673144896.017,-112.793,-342.773,-49.316,-104.492,0.000
1673144896.021,-76.660,-790.527,-48.340,-63.477,0.000
1673144896.025,55.664,-235.840,-36.133,71.777,0.000
1673144896.029,51.270,205.566,-37.598,57.129,0.000
1673144896.033,-81.543,-301.758,-53.711,-87.891,0.000
1673144896.037,-82.031,-843.262,-55.664,-97.168,0.000
1673144896.041,61.523,-350.098,-38.574,42.480,0.000
1673144896.044,54.688,-113.770,-38.574,78.613,0.000
1673144896.048,-86.914,-620.117,-54.688,-54.199,0.000
1673144896.052,-119.141,-1000.000,-59.570,-118.652,0.000
1673144896.056,-13.184,-663.086,-45.898,-15.625,0.000
1673144896.060,50.781,152.344,-39.551,56.152,0.000
1673144896.064,-35.156,-35.645,-52.246,-20.996,0.000
1673144896.068,-119.629,-839.844,-55.176,-108.398,0.000
1673144896.072,-46.387,-637.695,-40.527,-41.504,0.000
1673144896.076,67.871,161.621,-35.156,78.613,0.000
1673144896.080,19.531,59.082,-47.363,32.715,0.000
1673144896.083,-111.328,-771.973,-56.152,-87.402,0.000
1673144896.087,-80.078,-747.559,-48.828,-74.219,0.000
1673144896.091,41.504,-330.566,-43.457,27.832,0.000
1673144896.095,50.781,-337.891,-49.316,39.551,0.000
1673144896.099,-99.121,-867.676,-60.547,-84.961,0.000
1673144896.103,-124.023,-1000.000,-49.805,-111.816,0.000
1673144896.107,121.094,-240.234,-33.203,87.891,0.000
1673144896.111,112.305,248.047,-41.016,96.680,0.000
1673144896.115,-189.941,-567.871,-60.059,-144.043,0.000
1673144896.119,-199.707,-1000.000,-54.688,-163.086,0.000
1673144896.123,93.750,-146.973,-34.180,85.938,0.000
1673144896.126,149.902,505.371,-41.992,130.371,0.000
1673144896.130,-110.352,-183.594,-61.523,-101.074,0.000
1673144896.134,-221.191,-1000.000,-62.012,-201.660,0.000
1673144896.138,37.598,-842.285,-45.898,-8.789,0.000
1673144896.142,204.590,-340.820,-38.574,133.301,0.000
1673144896.146,-33.203,-607.910,-46.875,-15.137,0.000
1673144896.150,-239.746,-967.285,-50.293,-185.547,0.000
1673144896.154,-63.965,-802.246,-41.504,-66.895,0.000
1673144896.158,157.227,-116.211,-42.480,130.859,0.000
1673144896.162,22.461,199.707,-56.641,44.922,0.000
1673144896.166,-247.070,-548.340,-71.289,-160.156,0.000
1673144896.169,-153.320,-1000.000,-62.012,-120.605,0.000
1673144896.173,148.438,-274.414,-41.504,83.984,0.000
1673144896.177,103.516,543.945,-48.340,89.844,0.000
1673144896.181,-185.547,-180.176,-64.941,-125.488,0.000
1673144896.185,-202.637,-1000.000,-62.012,-173.340,0.000
1673144896.189,92.285,-892.578,-42.480,54.199,0.000
1673144896.193,171.875,131.348,-41.992,152.832,0.000
1673144896.197,-106.934,-203.125,-66.895,-41.504,0.000
1673144896.201,-241.699,-1000.000,-67.871,-167.969,0.000
1673144896.205,1.953,-617.188,-46.387,-9.766,0.000
1673144896.208,182.129,572.754,-42.480,152.344,0.000
1673144896.212,-12.695,375.488,-64.453,-0.488,0.000
1673144896.216,-233.398,-891.602,-76.172,-205.078,0.000
1673144896.220,-87.891,-892.090,-54.688,-100.586,0.000
1673144896.224,162.109,354.004,-43.945,109.863,0.000
1673144896.228,49.805,577.637,-62.500,54.199,0.000
1673144896.232,-230.469,-736.328,-76.660,-159.668,0.000
1673144896.236,-174.316,-1000.000,-57.617,-160.156,0.000
1673144896.240,108.887,27.832,-39.551,88.867,0.000
1673144896.244,112.305,677.246,-54.688,150.391,0.000
1673144896.248,-166.992,-519.531,-77.148,-116.211,0.000
1673144896.251,-216.797,-1000.000,-65.430,-213.867,0.000
1673144896.255,76.660,-253.906,-40.527,1.465,0.000
1673144896.259,187.988,611.328,-47.363,116.699,0.000
1673144896.263,-80.566,-126.465,-67.383,-55.664,0.000
1673144896.267,-239.258,-1000.000,-67.871,-187.012,0.000
1673144896.271,-29.297,-857.910,-53.223,-36.133,0.000
1673144896.275,168.457,51.758,-42.480,152.344,0.000
1673144896.279,2.441,-88.379,-53.223,54.199,0.000
1673144896.283,-239.746,-987.793,-60.547,-151.367,0.000
1673144896.287,-103.516,-940.430,-40.527,-72.266,0.000
1673144896.290,174.805,-285.156,-35.156,134.766,0.000
1673144896.294,101.562,-446.289,-55.176,89.844,0.000
1673144896.298,-174.805,-814.453,-60.059,-136.230,0.000
1673144896.302,-162.109,-926.270,-50.781,-149.902,0.000
1673144896.306,115.723,-414.062,-40.039,74.707,0.000
1673144896.310,153.809,439.941,-46.387,127.441,0.000
1673144896.314,-139.160,-81.055,-64.941,-83.008,0.000
1673144896.318,-234.863,-1000.000,-63.477,-166.016,0.000
1673144896.322,43.945,-750.488,-52.734,32.227,0.000
1673144896.326,163.086,-3.418,-48.828,126.465,0.000
1673144896.330,-59.570,-265.625,-57.129,-36.621,0.000
1673144896.333,-228.027,-979.492,-64.453,-187.988,0.000
1673144896.337,-31.738,-1000.000,-53.223,-59.570,0.000
1673144896.341,188.477,-144.531,-37.598,142.090,0.000
1673144896.345,9.277,447.754,-49.805,39.551,0.000
1673144896.349,-242.188,-592.285,-67.383,-166.992,0.000
1673144896.353,-130.371,-988.770,-55.176,-95.215,0.000
1673144896.357,141.113,164.062,-45.410,93.262,0.000
1673144896.361,92.773,656.250,-56.641,64.941,0.000
1673144896.365,-196.289,-405.273,-71.777,-131.348,0.000
1673144896.369,-198.730,-1000.000,-60.547,-150.391,0.000
1673144896.373,88.379,-493.652,-38.086,55.664,0.000
1673144896.376,147.949,319.824,-39.551,107.422,0.000
1673144896.380,-128.906,-217.773,-59.570,-84.473,0.000
1673144896.384,-239.746,-1000.000,-65.430,-189.453,0.000
1673144896.388,19.531,-669.434,-41.992,-19.043,0.000
1673144896.392,180.664,537.109,-41.504,140.625,0.000
1673144896.396,-44.922,184.082,-65.430,2.441,0.000
1673144896.400,-259.277,-1000.000,-71.289,-202.637,0.000
1673144896.404,-77.148,-795.898,-52.246,-94.727,0.000
1673144896.408,162.109,415.527,-38.574,130.371,0.000
1673144896.412,35.156,306.152,-55.176,61.523,0.000
1673144896.415,-224.609,-813.965,-67.383,-149.414,0.000
1673144896.419,-142.578,-1000.000,-58.105,-136.719,0.000
1673144896.423,122.559,-237.305,-45.410,90.332,0.000
1673144896.427,91.797,-16.113,-49.805,106.445,0.000
1673144896.431,-183.105,-911.133,-56.641,-121.582,0.000
1673144896.435,-184.570,-1000.000,-46.875,-145.020,0.000
1673144896.439,99.121,-511.230,-37.598,53.223,0.000
1673144896.443,169.922,227.539,-37.109,139.648,0.000
1673144896.447,-114.746,-2.441,-47.363,-29.785,0.000
1673144896.451,-250.488,-915.527,-50.781,-189.453,0.000
1673144896.455,21.484,-750.977,-37.598,-29.297,0.000
1673144896.458,201.660,235.840,-29.297,164.062,0.000
1673144896.462,-10.254,253.906,-42.480,22.949,0.000
1673144896.466,-223.633,-797.363,-48.828,-173.828,0.000
1673144896.470,-73.242,-1000.000,-35.156,-62.988,0.000
1673144896.474,170.410,-788.574,-36.133,143.066,0.000
1673144896.478,63.477,-222.168,-42.480,77.148,0.000
1673144896.482,-215.820,-615.723,-51.758,-122.559,0.000
1673144896.486,-149.902,-1000.000,-45.898,-114.258,0.000
1673144896.490,143.066,-91.797,-26.367,85.449,0.000
1673144896.494,120.605,562.012,-36.621,101.074,0.000
1673144896.497,-160.156,-403.809,-50.293,-118.652,0.000
1673144896.501,-205.078,-1000.000,-46.875,-179.688,0.000
1673144896.505,72.266,-318.848,-32.227,35.156,0.000
1673144896.509,176.758,616.699,-29.297,147.949,0.000
1673144896.513,-83.984,-155.762,-57.129,-37.598,0.000
1673144896.517,-242.188,-1000.000,-70.312,-196.289,0.000
1673144896.521,-3.906,-712.891,-37.109,-19.531,0.000
1673144896.525,210.938,493.652,-24.902,205.566,0.000
1673144896.529,24.414,436.523,-48.340,29.785,0.000
1673144896.533,-222.656,-855.957,-61.035,-203.613,0.000
1673144896.537,-96.191,-906.738,-43.945,-93.262,0.000
1673144896.540,166.504,334.961,-26.855,136.719,0.000
1673144896.544,79.102,580.078,-40.527,83.496,0.000
1673144896.548,-202.637,-739.746,-55.664,-155.273,0.000
1673144896.552,-168.945,-1000.000,-36.133,-122.070,0.000
1673144896.556,123.535,-74.707,-13.184,107.422,0.000
1673144896.560,130.859,258.789,-26.367,100.098,0.000
1673144896.564,-153.320,-757.812,-49.316,-115.234,0.000
1673144896.568,-225.098,-1000.000,-42.969,-188.965,0.000
1673144896.572,44.434,-647.949,-23.926,5.371,0.000
1673144896.576,187.988,189.453,-25.879,125.000,0.000
1673144896.580,-72.266,-5.371,-44.922,-32.715,0.000
1673144896.583,-271.484,-937.500,-45.410,-177.246,0.000
1673144896.587,-54.688,-754.395,-25.879,-50.781,0.000
1673144896.591,173.340,191.895,-20.996,109.863,0.000
1673144896.595,11.230,206.543,-35.156,15.137,0.000
1673144896.599,-242.676,-753.906,-50.781,-189.941,0.000
1673144896.603,-130.371,-997.559,-40.039,-145.508,0.000
1673144896.607,165.039,-321.777,-22.949,105.469,0.000
1673144896.611,112.305,-65.918,-31.738,108.887,0.000
1673144896.615,-200.684,-681.152,-46.875,-148.438,0.000
1673144896.619,-200.195,-1000.000,-37.598,-168.457,0.000
1673144896.622,99.609,-688.477,-27.832,84.473,0.000
1673144896.626,155.273,313.965,-30.273,146.973,0.000
1673144896.630,-114.258,47.852,-42.480,-82.031,0.000
1673144896.634,-221.191,-1000.000,-41.504,-178.223,0.000
1673144896.638,35.645,-901.367,-22.461,4.395,0.000
1673144896.642,192.383,322.266,-13.672,149.902,0.000
1673144896.646,-40.039,276.855,-30.762,-3.418,0.000
1673144896.650,-240.234,-895.508,-37.598,-185.547,0.000
1673144896.654,-42.969,-1000.000,-20.996,-59.082,0.000
1673144896.658,187.012,51.758,-7.812,132.324,0.000
1673144896.662,48.828,283.203,-24.414,61.035,0.000
1673144896.665,-290.527,-881.348,-44.922,-191.895,0.000
1673144896.669,-165.527,-1000.000,-18.555,-116.211,0.000
1673144896.673,275.879,463.379,-0.488,198.242,0.000
1673144896.677,173.828,939.941,-28.809,149.414,0.000
1673144896.681,-271.973,-576.660,-51.758,-195.312,0.000
1673144896.685,-252.930,-1000.000,-29.297,-218.750,0.000
1673144896.689,193.359,36.133,-1.465,136.230,0.000
1673144896.693,261.719,926.758,-21.484,206.543,0.000
1673144896.697,-189.941,-244.141,-51.758,-120.117,0.000
1673144896.701,-351.074,-1000.000,-41.992,-254.883,0.000
1673144896.704,82.520,-599.121,-7.812,46.875,0.000
1673144896.708,332.520,746.582,-8.301,219.727,0.000
1673144896.712,-43.457,35.645,-48.340,-15.625,0.000
1673144896.716,-365.723,-1000.000,-55.176,-264.648,0.000
1673144896.720,-57.129,-850.586,-27.832,-95.703,0.000
1673144896.724,301.270,446.289,-14.160,200.195,0.000
1673144896.728,69.336,195.801,-44.922,66.406,0.000
1673144896.732,-335.449,-1000.000,-62.012,-260.742,0.000
1673144896.736,-187.500,-957.031,-40.527,-178.711,0.000
1673144896.740,263.184,301.758,-27.344,172.363,0.000
1673144896.744,196.289,785.156,-37.598,156.250,0.000
1673144896.747,-281.250,-628.906,-55.176,-185.059,0.000
1673144896.751,-294.922,-1000.000,-45.898,-229.004,0.000
1673144896.755,116.211,-396.484,-26.367,66.895,0.000
1673144896.759,194.336,81.055,-32.227,166.016,0.000
1673144896.763,-79.102,-60.059,-48.828,-34.668,0.000
1673144896.767,-234.863,-823.730,-52.734,-189.941,0.000
1673144896.771,-13.184,-937.988,-36.133,-15.625,0.000
1673144896.775,192.871,-287.598,-30.762,169.434,0.000
1673144896.779,-0.488,186.523,-48.340,13.672,0.000
1673144896.783,-240.234,-690.430,-62.012,-173.828,0.000
1673144896.787,-95.703,-1000.000,-43.457,-86.914,0.000
1673144896.790,162.598,35.645,-28.320,122.559,0.000
1673144896.794,82.031,269.531,-39.062,92.773,0.000
1673144896.798,-195.312,-812.500,-51.270,-130.859,0.000
1673144896.802,-159.180,-1000.000,-42.969,-127.441,0.000
1673144896.806,138.184,-61.035,-20.508,102.539,0.000
1673144896.810,150.391,692.383,-25.391,160.645,0.000
1673144896.814,-141.113,-118.652,-50.781,-70.312,0.000
1673144896.818,-212.402,-1000.000,-52.246,-165.527,0.000
1673144896.822,44.434,-382.324,-21.973,38.086,0.000
1673144896.826,167.969,715.820,-20.996,154.297,0.000
1673144896.829,-66.406,101.074,-44.434,-5.371,0.000
1673144896.833,-240.723,-1000.000,-47.363,-175.293,0.000
1673144896.837,-37.598,-709.961,-29.785,-58.594,0.000
1673144896.841,192.383,132.324,-22.461,137.695,0.000
1673144896.845,41.992,14.160,-35.156,66.406,0.000
1673144896.849,-218.750,-893.555,-47.852,-146.973,0.000
1673144896.853,-112.793,-1000.000,-36.621,-104.004,0.000
1673144896.857,155.273,143.066,-21.973,114.746,0.000
1673144896.861,93.750,471.191,-41.504,97.656,0.000
1673144896.865,-184.570,-811.035,-61.523,-118.652,0.000
1673144896.869,-171.387,-1000.000,-49.805,-133.301,0.000
1673144896.872,120.117,-85.449,-37.109,70.312,0.000
1673144896.876,160.645,393.555,-46.387,124.023,0.000
1673144896.880,-131.348,-377.930,-62.500,-75.195,0.000
1673144896.884,-232.422,-1000.000,-57.129,-176.758,0.000
1673144896.888,36.621,-768.066,-39.062,19.531,0.000
1673144896.892,177.734,-111.328,-38.574,169.922,0.000
1673144896.896,-63.477,-181.641,-56.641,-19.531,0.000
1673144896.900,-245.117,-877.930,-65.918,-222.168,0.000
1673144896.904,-52.734,-793.945,-56.152,-83.008,0.000
1673144896.908,165.527,-207.031,-52.246,156.738,0.000
1673144896.911,37.109,46.387,-59.570,59.082,0.000
1673144896.915,-225.098,-516.602,-69.824,-204.102,0.000
1673144896.919,-146.973,-1000.000,-61.035,-150.391,0.000
1673144896.923,132.324,-277.832,-41.992,89.844,0.000
1673144896.927,87.891,505.859,-49.805,86.426,0.000
1673144896.931,-196.777,-260.254,-63.965,-127.930,0.000
1673144896.935,-194.824,-1000.000,-54.199,-162.598,0.000
1673144896.939,88.867,-667.480,-33.203,52.734,0.000
1673144896.943,148.438,147.949,-38.086,139.648,0.000
1673144896.947,-120.117,-362.793,-57.617,-55.664,0.000
1673144896.951,-256.348,-1000.000,-56.641,-155.273,0.000
1673144896.954,-13.672,-739.258,-38.086,12.695,0.000
1673144896.958,174.805,485.352,-27.832,129.883,0.000
1673144896.962,-20.996,446.777,-46.875,-2.930,0.000
1673144896.966,-247.070,-850.098,-62.500,-178.711,0.000
1673144896.970,-81.055,-843.750,-45.410,-78.613,0.000
1673144896.974,185.059,407.227,-30.762,126.953,0.000
1673144896.978,62.500,559.570,-46.387,63.965,0.000
1673144896.982,-212.402,-728.027,-62.500,-142.578,0.000
1673144896.986,-134.766,-1000.000,-50.781,-102.051,0.000
1673144896.990,133.301,88.379,-35.156,116.699,0.000
1673144896.994,113.770,659.180,-42.969,134.277,0.000
1673144896.997,-154.785,-551.758,-62.988,-82.520,0.000
1673144897.001,-186.035,-1000.000,-47.852,-149.414,0.000
1673144897.005,89.844,-227.051,-21.973,41.504,0.000
1673144897.009,187.012,631.348,-29.297,145.508,0.000
1673144897.013,-65.918,-155.273,-50.781,-41.016,0.000
1673144897.017,-208.496,-1000.000,-47.852,-188.477,0.000
1673144897.021,13.672,-527.832,-29.297,-27.832,0.000
1673144897.025,189.453,449.219,-27.344,146.973,0.000
1673144897.029,0.977,-139.648,-45.410,31.250,0.000
1673144897.033,-225.098,-1000.000,-49.805,-178.223,0.000
1673144897.036,-89.844,-913.086,-28.320,-85.449,0.000
1673144897.040,162.598,-264.648,-18.066,148.438,0.000
1673144897.044,67.383,-267.578,-32.227,88.867,0.000
1673144897.048,-209.473,-722.656,-45.898,-159.180,0.000
1673144897.052,-158.203,-991.211,-40.039,-152.832,0.000
1673144897.056,130.371,-427.734,-24.902,75.195,0.000
1673144897.060,126.953,415.527,-33.691,121.094,0.000
1673144897.064,-150.879,-149.414,-56.641,-77.637,0.000
1673144897.068,-210.938,-1000.000,-55.664,-164.551,0.000
1673144897.072,66.895,-737.793,-39.062,19.531,0.000
1673144897.076,193.848,58.594,-36.133,117.188,0.000
1673144897.079,-56.641,-180.176,-50.781,-48.340,0.000
1673144897.083,-238.281,-921.387,-50.293,-190.918,0.000
1673144897.087,-38.086,-1000.000,-37.109,-48.828,0.000
1673144897.091,178.711,-209.961,-28.320,139.160,0.000
1673144897.095,14.648,367.676,-45.410,8.301,0.000
1673144897.099,-229.980,-685.547,-67.383,-187.500,0.000
1673144897.103,-107.910,-1000.000,-47.852,-89.355,0.000
1673144897.107,142.578,153.809,-32.227,110.840,0.000
1673144897.111,75.684,357.910,-47.852,76.660,0.000
1673144897.115,-193.848,-750.488,-62.988,-136.230,0.000
1673144897.119,-170.410,-1000.000,-47.852,-136.230,0.000
1673144897.122,126.953,-364.258,-26.855,104.980,0.000
1673144897.126,156.738,233.398,-41.016,138.672,0.000
1673144897.130,-130.859,-289.551,-67.871,-94.238,0.000
1673144897.134,-225.586,-1000.000,-66.895,-185.059,0.000
1673144897.138,42.480,-385.254,-34.668,20.508,0.000
1673144897.142,181.152,660.645,-36.133,161.621,0.000
1673144897.146,-53.223,-4.395,-61.035,-10.254,0.000
1673144897.150,-243.164,-1000.000,-63.477,-188.965,0.000
1673144897.154,-56.152,-711.426,-44.434,-55.176,0.000
1673144897.158,180.176,437.500,-32.227,158.203,0.000
1673144897.161,46.387,252.441,-48.340,63.965,0.000
1673144897.165,-230.469,-892.090,-61.523,-163.574,0.000
1673144897.169,-134.277,-1000.000,-43.945,-116.211,0.000
1673144897.173,157.227,-226.074,-27.832,103.027,0.000
1673144897.177,107.910,42.480,-42.480,108.887,0.000
1673144897.181,-171.387,-901.855,-49.316,-120.605,0.000
1673144897.185,-189.941,-1000.000,-39.551,-166.992,0.000
1673144897.189,86.426,-142.578,-28.320,62.012,0.000
1673144897.193,152.344,449.219,-31.738,136.230,0.000
1673144897.197,-119.141,-50.781,-51.270,-61.523,0.000
1673144897.201,-229.492,-900.391,-51.758,-172.363,0.000
1673144897.204,16.602,-644.043,-34.180,-8.789,0.000
1673144897.208,179.199,291.016,-29.785,129.395,0.000
1673144897.212,-28.320,221.680,-49.805,-12.207,0.000
1673144897.216,-239.258,-820.312,-57.129,-187.012,0.000
1673144897.220,-80.566,-1000.000,-38.086,-62.988,0.000
1673144897.224,168.457,-717.773,-29.785,167.480,0.000
1673144897.228,61.523,-209.473,-36.133,68.848,0.000
1673144897.232,-203.613,-596.191,-48.828,-176.758,0.000
1673144897.236,-136.719,-1000.000,-42.969,-131.836,0.000
1673144897.240,137.207,-133.789,-21.973,101.074,0.000
1673144897.243,112.793,709.961,-26.367,119.629,0.000
1673144897.247,-168.945,-170.410,-49.316,-118.164,0.000
1673144897.251,-193.848,-1000.000,-51.270,-178.223,0.000
1673144897.255,93.750,-300.781,-33.203,46.875,0.000
1673144897.259,171.387,620.605,-40.527,132.324,0.000
1673144897.263,-100.586,-151.855,-66.895,-55.664,0.000
1673144897.267,-247.070,-1000.000,-68.848,-192.871,0.000
1673144897.271,-15.137,-651.367,-43.457,-29.785,0.000
1673144897.275,175.293,500.488,-35.156,176.270,0.000
1673144897.279,-25.391,174.316,-57.617,33.691,0.000
1673144897.283,-248.047,-958.008,-63.477,-182.617,0.000
1673144897.286,-94.727,-871.582,-49.316,-102.051,0.000
1673144897.290,156.738,355.957,-39.062,97.656,0.000
1673144897.294,57.617,608.398,-52.246,57.129,0.000
1673144897.298,-209.961,-749.023,-67.871,-158.203,0.000
1673144897.302,-158.203,-1000.000,-56.641,-144.043,0.000
1673144897.306,117.676,20.996,-43.457,83.984,0.000
1673144897.310,142.090,284.668,-54.688,137.695,0.000
1673144897.314,-136.230,-762.207,-71.289,-85.938,0.000
1673144897.318,-212.891,-1000.000,-57.129,-186.035,0.000
1673144897.322,60.547,-589.355,-39.551,18.066,0.000
1673144897.325,169.922,242.188,-43.457,139.648,0.000
1673144897.329,-80.566,-30.273,-62.988,-36.133,0.000
1673144897.333,-241.211,-977.051,-61.523,-184.570,0.000
1673144897.337,-26.367,-719.727,-39.551,-32.715,0.000
1673144897.341,191.895,289.062,-40.527,151.855,0.000
1673144897.345,26.855,286.621,-49.805,62.500,0.000
1673144897.349,-235.840,-678.711,-54.688,-137.207,0.000
1673144897.353,-121.582,-885.254,-49.316,-94.727,0.000
1673144897.357,149.902,-163.574,-42.480,129.395,0.000
1673144897.361,78.125,63.965,-43.945,109.375,0.000
1673144897.365,-205.078,-527.344,-52.734,-109.863,0.000
1673144897.368,-179.199,-997.070,-49.805,-137.207,0.000
1673144897.372,104.492,-722.656,-38.574,66.406,0.000
1673144897.376,137.207,173.828,-39.062,122.559,0.000
1673144897.380,-111.816,0.000,-58.105,-84.961,0.000
1673144897.384,-206.543,-1000.000,-64.453,-199.219,0.000
1673144897.388,26.367,-766.113,-51.758,-1.953,0.000
1673144897.392,170.410,285.156,-48.340,145.508,0.000
1673144897.396,-58.105,251.953,-60.547,-39.551,0.000
1673144897.400,-240.234,-838.867,-63.965,-207.031,0.000
1673144897.404,-43.457,-1000.000,-45.898,-63.477,0.000
1673144897.408,182.617,52.734,-36.621,144.043,0.000
1673144897.411,50.293,299.805,-52.246,49.805,0.000
1673144897.415,-192.871,-845.215,-68.359,-190.430,0.000
1673144897.419,-99.121,-1000.000,-51.270,-128.418,0.000
1673144897.423,155.762,95.703,-28.809,109.863,0.000
1673144897.427,99.609,647.461,-42.969,99.121,0.000
1673144897.431,-177.734,-423.828,-63.477,-109.375,0.000
1673144897.435,-186.035,-1000.000,-52.734,-143.066,0.000
1673144897.439,92.773,-174.316,-34.180,47.363,0.000
1673144897.443,145.996,620.117,-45.410,120.117,0.000
1673144897.447,-120.117,-265.137,-65.918,-59.082,0.000
1673144897.450,-219.727,-1000.000,-62.988,-168.945,0.000
1673144897.454,27.344,-713.867,-41.992,-5.859,0.000
1673144897.458,187.500,452.148,-42.480,166.992,0.000
1673144897.462,-29.297,-113.770,-68.848,33.203,0.000
1673144897.466,-229.004,-1000.000,-63.477,-148.926,0.000
1673144897.470,-53.711,-719.727,-41.992,-68.848,0.000
1673144897.474,176.270,318.359,-41.016,111.816,0.000
1673144897.478,59.082,243.164,-59.082,55.176,0.000
1673144897.482,-198.242,-758.789,-71.289,-162.598,0.000
1673144897.486,-119.141,-945.801,-61.523,-143.066,0.000
1673144897.490,156.738,-14.648,-44.434,86.914,0.000
1673144897.493,116.699,259.766,-47.363,118.652,0.000
1673144897.497,-154.785,-681.152,-63.965,-101.074,0.000
1673144897.501,-186.523,-1000.000,-51.270,-163.086,0.000
1673144897.505,67.383,-640.625,-39.062,57.617,0.000
1673144897.509,163.086,-449.219,-49.316,154.297,0.000
1673144897.513,-96.680,-392.578,-59.082,-51.270,0.000
1673144897.517,-244.141,-875.488,-62.012,-181.641,0.000
1673144897.521,-4.395,-814.453,-40.527,-28.320,0.000
1673144897.525,198.730,323.730,-30.273,134.277,0.000
1673144897.529,14.160,428.711,-50.781,12.695,0.000
1673144897.533,-226.562,-763.672,-59.082,-180.176,0.000
1673144897.536,-91.309,-1000.000,-50.781,-84.961,0.000
1673144897.540,169.922,110.840,-35.156,129.883,0.000
1673144897.544,83.008,270.508,-48.340,68.848,0.000
1673144897.548,-197.266,-821.289,-65.918,-140.137,0.000
1673144897.552,-167.969,-1000.000,-55.664,-123.535,0.000
1673144897.556,120.117,-432.129,-33.203,94.727,0.000
1673144897.560,130.859,334.961,-40.039,112.305,0.000
1673144897.564,-155.273,-248.047,-60.059,-116.211,0.000
1673144897.568,-207.031,-1000.000,-57.617,-183.105,0.000
1673144897.572,63.965,-372.559,-39.062,17.090,0.000
1673144897.575,178.711,662.598,-35.156,129.883,0.000
1673144897.579,-70.801,152.832,-60.059,-41.016,0.000
1673144897.583,-233.887,-955.566,-65.430,-187.988,0.000
1673144897.587,-0.977,-613.770,-48.340,-53.711,0.000
1673144897.591,178.223,195.801,-48.340,96.680,0.000
1673144897.595,4.395,-81.543,-62.500,0.977,0.000
1673144897.599,-229.980,-931.152,-72.266,-183.105,0.000
1673144897.603,-110.840,-996.094,-50.293,-112.793,0.000
1673144897.607,157.715,206.543,-43.457,126.953,0.000
1673144897.611,69.824,495.605,-66.895,74.707,0.000
1673144897.615,-224.121,-800.293,-77.637,-169.434,0.000
1673144897.618,-207.520,-1000.000,-65.430,-183.105,0.000
1673144897.622,87.891,-13.672,-52.246,34.668,0.000
1673144897.626,136.719,492.676,-61.035,93.262,0.000
1673144897.630,-142.090,-301.758,-71.777,-98.145,0.000
1673144897.634,-233.398,-1000.000,-62.500,-194.824,0.000
1673144897.638,25.879,-694.336,-46.875,-1.465,0.000
1673144897.642,145.996,-102.539,-47.363,146.484,0.000
1673144897.646,-84.473,-555.176,-59.082,-24.902,0.000
1673144897.650,-248.535,-982.910,-64.453,-190.918,0.000
1673144897.654,-60.547,-725.098,-53.711,-63.965,0.000
1673144897.657,159.668,74.707,-45.410,144.043,0.000
1673144897.661,24.414,316.406,-52.246,39.551,0.000
1673144897.665,-214.844,-582.031,-62.500,-168.457,0.000
1673144897.669,-113.281,-1000.000,-57.129,-107.910,0.000
1673144897.673,144.043,-318.359,-41.504,92.285,0.000
1673144897.677,91.309,496.094,-46.875,73.730,0.000
1673144897.681,-179.199,-267.578,-63.477,-137.207,0.000
1673144897.685,-181.152,-1000.000,-56.152,-155.273,0.000
1673144897.689,100.098,-887.207,-42.480,46.875,0.000
1673144897.693,165.527,148.926,-40.527,130.859,0.000
1673144897.697,-104.004,-231.934,-56.152,-60.547,0.000
1673144897.700,-228.027,-1000.000,-56.152,-204.590,0.000
1673144897.704,16.113,-561.523,-41.504,-49.805,0.000
1673144897.708,184.570,595.703,-41.504,114.258,0.000
1673144897.712,-33.203,419.922,-54.688,-12.695,0.000
1673144897.716,-234.863,-875.000,-62.012,-208.984,0.000
1673144897.720,-55.176,-831.055,-42.480,-89.355,0.000
1673144897.724,182.617,351.074,-32.715,100.586,0.000
1673144897.728,44.922,226.562,-56.152,7.324,0.000
1673144897.732,-221.191,-884.766,-68.848,-189.941,0.000
1673144897.736,-146.484,-966.797,-42.480,-115.234,0.000
1673144897.740,124.512,130.371,-24.902,76.172,0.000
1673144897.743,109.375,652.832,-52.246,58.594,0.000
1673144897.747,-157.715,-547.363,-73.242,-140.625,0.000
1673144897.751,-207.520,-1000.000,-58.594,-186.523,0.000
1673144897.755,70.801,-217.285,-41.504,50.781,0.000
1673144897.759,169.922,555.664,-47.363,138.672,0.000
1673144897.763,-104.980,-285.156,-69.824,-82.031,0.000
1673144897.767,-252.441,-1000.000,-70.312,-208.008,0.000
1673144897.771,-18.066,-545.410,-52.734,-31.738,0.000
1673144897.775,166.504,394.043,-55.664,145.508,0.000
1673144897.779,-29.297,-176.270,-73.242,-1.465,0.000
1673144897.782,-239.746,-1000.000,-73.730,-190.430,0.000
1673144897.786,-82.520,-919.922,-52.246,-88.867,0.000
1673144897.790,184.082,-173.340,-41.504,123.535,0.000
1673144897.794,89.844,106.445,-48.828,75.684,0.000
1673144897.798,-208.008,-669.434,-54.688,-141.113,0.000
1673144897.802,-166.504,-940.430,-46.387,-119.141,0.000
1673144897.806,118.652,-287.109,-30.762,97.168,0.000
1673144897.810,118.164,-43.945,-33.203,132.324,0.000
1673144897.814,-160.156,-408.203,-46.387,-97.656,0.000
1673144897.818,-207.031,-983.887,-47.852,-192.383,0.000
1673144897.822,66.406,-658.203,-39.062,9.277,0.000
1673144897.825,180.664,66.895,-39.062,127.441,0.000
1673144897.829,-57.129,-222.168,-53.711,-52.246,0.000
1673144897.833,-197.754,-960.938,-51.270,-204.590,0.000
1673144897.837,21.484,-1000.000,-33.203,-49.805,0.000
1673144897.841,212.891,100.586,-25.879,125.977,0.000
1673144897.845,10.254,426.758,-38.574,14.648,0.000
1673144897.849,-236.328,-723.145,-51.758,-193.359,0.000
1673144897.853,-103.516,-1000.000,-49.805,-109.375,0.000
1673144897.857,89.844,-274.902,-34.668,76.172,0.000
1673144897.861,66.895,314.941,-40.039,58.594,0.000
1673144897.864,-64.941,-163.574,-54.688,-84.961,0.000
1673144897.868,-94.727,-824.707,-48.828,-103.027,0.000
1673144897.872,23.438,-713.867,-42.969,11.230,0.000
1673144897.876,64.941,-140.137,-43.945,46.387,0.000
1673144897.880,-41.992,-162.109,-53.223,-44.434,0.000
1673144897.884,-119.629,-916.016,-59.082,-141.113,0.000
1673144897.888,-36.621,-651.855,-48.340,-74.707,0.000
1673144897.892,51.270,66.406,-47.363,42.969,0.000
1673144897.896,-4.883,-211.914,-54.688,5.859,0.000
1673144897.900,-113.281,-874.512,-51.270,-123.535,0.000
1673144897.904,-82.031,-643.066,-42.969,-124.023,0.000
1673144897.907,39.551,-21.484,-40.527,8.301,0.000
1673144897.911,15.137,-53.223,-48.340,9.277,0.000
1673144897.915,-107.422,-522.461,-61.035,-125.000,0.000
1673144897.919,-90.820,-934.570,-58.105,-143.555,0.000
1673144897.923,31.738,-620.117,-46.387,-28.809,0.000
1673144897.927,31.738,-311.523,-50.293,20.020,0.000
1673144897.931,-97.168,-464.355,-53.711,-61.523,0.000
1673144897.935,-136.230,-556.152,-45.898,-85.938,0.000
1673144897.939,-15.137,-353.027,-41.016,43.945,0.000
1673144897.943,53.223,-409.668,-50.781,96.680,0.000
1673144897.947,-35.156,-518.555,-54.199,-18.066,0.000
1673144897.950,-121.582,-749.023,-57.129,-118.652,0.000
1673144897.954,-55.176,-764.648,-50.293,-40.527,0.000
1673144897.958,70.312,-209.473,-38.086,75.684,0.000
1673144897.962,24.414,57.129,-44.434,36.621,0.000
1673144897.966,-122.070,-674.316,-54.199,-72.266,0.000
1673144897.970,-93.750,-1000.000,-46.387,-60.547,0.000
1673144897.974,44.434,-600.098,-33.691,68.848,0.000
1673144897.978,47.363,-223.145,-35.645,94.238,0.000
1673144897.982,-83.008,-347.656,-45.898,-34.180,0.000
1673144897.986,-91.797,-809.570,-43.945,-72.266,0.000
1673144897.989,41.504,-730.469,-33.203,42.480,0.000
1673144897.993,68.848,120.605,-33.203,85.938,0.000
1673144897.997,-44.434,19.531,-46.387,-7.812,0.000
1673144898.001,-98.145,-721.680,-55.176,-88.867,0.000
1673144898.005,-11.719,-693.848,-48.828,-15.137,0.000
1673144898.009,58.105,-28.809,-40.039,81.055,0.000
1673144898.013,-21.973,-166.992,-50.293,15.137,0.000
1673144898.017,-113.770,-905.273,-58.105,-85.449,0.000
1673144898.021,-53.711,-699.219,-49.316,-38.574,0.000
1673144898.025,63.477,81.543,-43.945,93.262,0.000
1673144898.029,29.297,235.840,-54.688,75.684,0.000
1673144898.032,-112.793,-668.457,-71.777,-84.473,0.000
1673144898.036,-100.586,-855.469,-60.059,-77.148,0.000
1673144898.040,47.363,-41.504,-45.410,68.359,0.000
1673144898.044,60.059,241.699,-48.828,76.660,0.000
1673144898.048,-80.078,-441.895,-59.082,-53.223,0.000
1673144898.052,-103.516,-714.844,-54.688,-81.055,0.000
1673144898.056,16.602,-239.258,-45.898,25.391,0.000
1673144898.060,53.223,-246.582,-54.199,62.500,0.000
1673144898.064,-49.316,-818.359,-62.500,-21.973,0.000
1673144898.068,-107.910,-1000.000,-57.129,-76.660,0.000
1673144898.071,-23.438,-794.922,-49.316,-22.949,0.000
1673144898.075,76.172,-403.320,-51.758,45.410,0.000
1673144898.079,10.742,-667.969,-56.641,4.883,0.000
1673144898.083,-116.211,-701.660,-57.617,-101.074,0.000
1673144898.087,-65.918,-516.602,-52.734,-55.664,0.000
1673144898.091,58.105,-250.000,-47.363,80.078,0.000
1673144898.095,27.832,-17.090,-49.316,60.059,0.000
1673144898.099,-100.098,-374.023,-57.129,-75.684,0.000
1673144898.103,-97.168,-623.047,-51.758,-78.125,0.000
1673144898.107,30.273,-645.020,-47.363,41.504,0.000
1673144898.111,56.641,-397.949,-51.758,75.195,0.000
1673144898.114,-74.219,-293.457,-55.664,-17.578,0.000
1673144898.118,-105.957,-883.789,-55.664,-96.680,0.000
1673144898.122,10.742,-994.629,-50.781,6.348,0.000
1673144898.126,53.711,-288.086,-43.457,74.707,0.000
1673144898.130,-31.738,14.648,-44.922,-36.621,0.000
1673144898.134,-118.164,-605.957,-48.828,-118.164,0.000
1673144898.138,-38.086,-758.789,-39.062,-35.156,0.000
1673144898.142,73.242,3.906,-34.668,76.660,0.000
1673144898.146,5.859,187.500,-52.246,26.367,0.000
1673144898.150,-125.488,-511.230,-64.941,-95.215,0.000
1673144898.154,-92.773,-993.164,-52.734,-66.406,0.000
1673144898.157,37.109,-424.805,-41.504,71.289,0.000
1673144898.161,32.227,104.492,-48.340,79.590,0.000
1673144898.165,-101.562,-636.230,-58.594,-71.777,0.000
1673144898.169,-111.816,-1000.000,-52.246,-71.289,0.000
1673144898.173,35.645,-441.406,-38.086,63.477,0.000
1673144898.177,59.570,23.438,-40.039,68.848,0.000
1673144898.181,-62.012,-297.852,-53.711,-36.133,0.000
1673144898.185,-107.422,-782.227,-53.223,-100.586,0.000
1673144898.189,-7.324,-458.984,-46.875,-15.625,0.000
1673144898.193,60.547,104.004,-46.875,72.754,0.000
1673144898.196,-29.785,-181.152,-55.176,-0.488,0.000
1673144898.200,-108.398,-965.332,-60.059,-90.820,0.000
1673144898.204,-38.574,-924.805,-47.852,-22.461,0.000
1673144898.208,63.477,-127.930,-41.504,90.332,0.000
1673144898.212,13.184,-306.641,-54.199,55.176,0.000
1673144898.216,-114.746,-933.594,-53.711,-58.105,0.000
1673144898.220,-72.266,-620.117,-46.875,-51.758,0.000
1673144898.224,47.363,-128.906,-45.410,63.477,0.000
1673144898.228,27.344,-239.746,-52.246,49.316,0.000
1673144898.232,-90.820,-630.371,-60.547,-87.891,0.000
1673144898.236,-97.656,-631.348,-51.758,-96.191,0.000
1673144898.239,28.320,-301.758,-47.363,25.879,0.000
1673144898.243,73.730,-122.070,-48.828,76.660,0.000
1673144898.247,-95.215,-662.598,-59.570,-74.707,0.000
1673144898.251,-171.387,-1000.000,-56.152,-156.250,0.000
1673144898.255,90.332,-395.996,-38.086,71.777,0.000
1673144898.259,173.340,-299.316,-44.434,161.621,0.000
1673144898.263,-104.980,-414.062,-59.570,-59.082,0.000
1673144898.267,-226.074,-887.207,-61.523,-188.965,0.000
1673144898.271,29.785,-866.211,-44.922,-6.836,0.000
1673144898.275,208.984,232.422,-35.645,181.641,0.000
1673144898.278,3.906,291.992,-52.734,25.391,0.000
1673144898.282,-226.562,-854.004,-69.336,-195.801,0.000
1673144898.286,-72.266,-1000.000,-59.082,-98.145,0.000
1673144898.290,182.617,104.004,-45.898,105.469,0.000
1673144898.294,68.359,181.152,-64.453,44.922,0.000
1673144898.298,-220.215,-842.773,-78.125,-166.992,0.000
1673144898.302,-160.645,-1000.000,-63.477,-131.348,0.000
1673144898.306,130.859,-403.809,-42.480,86.914,0.000
1673144898.310,127.441,588.379,-52.246,89.355,0.000
1673144898.314,-144.531,-145.020,-74.219,-119.629,0.000
1673144898.318,-192.383,-1000.000,-72.754,-184.570,0.000
1673144898.321,73.730,-328.125,-51.270,39.062,0.000
1673144898.325,169.434,786.133,-49.316,168.945,0.000
1673144898.329,-93.750,229.492,-69.824,-49.316,0.000
1673144898.333,-246.094,-957.520,-67.871,-207.520,0.000
1673144898.337,-16.113,-644.043,-45.410,-41.016,0.000
1673144898.341,181.152,257.324,-41.504,125.488,0.000
1673144898.345,-8.789,-5.371,-65.430,3.906,0.000
1673144898.349,-250.488,-957.031,-76.172,-185.059,0.000
1673144898.353,-104.492,-940.918,-50.293,-120.117,0.000
1673144898.357,164.551,241.211,-37.598,83.008,0.000
1673144898.361,67.383,507.812,-54.688,49.805,0.000
1673144898.364,-225.098,-668.945,-74.219,-174.316,0.000
1673144898.368,-179.688,-1000.000,-62.012,-162.598,0.000
1673144898.372,120.605,-35.645,-42.480,80.078,0.000
1673144898.376,140.625,422.852,-55.664,104.004,0.000
1673144898.380,-137.207,-345.215,-73.730,-111.816,0.000
1673144898.384,-204.102,-1000.000,-71.777,-203.613,0.000
1673144898.388,61.523,-660.645,-52.734,-22.949,0.000
1673144898.392,187.012,-47.363,-58.105,123.535,0.000
1673144898.396,-48.340,-673.340,-73.242,-61.523,0.000
1673144898.400,-219.727,-1000.000,-68.848,-242.676,0.000
1673144898.403,-20.996,-658.691,-58.105,-97.168,0.000
1673144898.407,190.918,120.117,-58.105,100.098,0.000
1673144898.411,33.691,242.188,-69.824,8.301,0.000
1673144898.415,-230.469,-670.410,-78.613,-197.754,0.000
1673144898.419,-128.906,-994.629,-70.801,-123.535,0.000
1673144898.423,145.508,-101.562,-59.082,94.727,0.000
1673144898.427,89.355,583.008,-64.941,63.965,0.000
1673144898.431,-189.941,-246.582,-81.055,-145.020,0.000
1673144898.435,-177.246,-1000.000,-81.055,-179.199,0.000
1673144898.439,115.723,-816.406,-62.012,53.223,0.000
1673144898.443,154.297,287.109,-56.152,117.188,0.000
1673144898.446,-132.324,-233.887,-75.195,-99.121,0.000
1673144898.450,-235.352,-1000.000,-74.707,-205.566,0.000
1673144898.454,22.461,-702.637,-56.152,-13.672,0.000
1673144898.458,179.688,521.484,-56.152,137.695,0.000
1673144898.462,-41.992,414.551,-78.125,-20.508,0.000
1673144898.466,-239.258,-881.348,-85.938,-195.801,0.000
1673144898.470,-60.059,-842.773,-67.383,-67.383,0.000
1673144898.474,173.340,474.121,-58.594,127.441,0.000
1673144898.478,41.016,596.191,-71.289,59.082,0.000
1673144898.482,-223.145,-751.465,-86.426,-122.559,0.000
1673144898.485,-138.672,-1000.000,-65.430,-102.539,0.000
1673144898.489,145.508,110.352,-37.598,89.355,0.000
1673144898.493,112.793,697.754,-48.340,99.609,0.000
1673144898.497,-185.059,-527.344,-69.336,-106.445,0.000
1673144898.501,-198.242,-1000.000,-54.199,-154.297,0.000
1673144898.505,101.562,-138.184,-33.691,56.152,0.000
1673144898.509,178.711,537.109,-47.852,157.715,0.000
1673144898.513,-106.445,-331.543,-67.383,-35.156,0.000
1673144898.517,-245.117,-1000.000,-69.824,-179.688,0.000
1673144898.521,3.418,-486.328,-52.734,-2.930,0.000
1673144898.525,172.363,334.961,-51.270,150.879,0.000
1673144898.528,-29.297,-323.730,-67.383,21.973,0.000
1673144898.532,-247.559,-1000.000,-66.895,-187.012,0.000
1673144898.536,-89.844,-859.863,-52.734,-92.285,0.000
1673144898.540,158.203,-236.816,-43.945,141.602,0.000
1673144898.544,51.758,-443.359,-53.711,82.520,0.000
1673144898.548,-216.309,-911.621,-62.988,-149.414,0.000
1673144898.552,-148.926,-931.641,-56.641,-131.836,0.000
1673144898.556,144.531,-229.492,-41.504,103.516,0.000
1673144898.560,142.090,449.707,-47.363,130.371,0.000
1673144898.564,-144.043,-306.152,-73.730,-104.492,0.000
1673144898.568,-197.266,-1000.000,-67.383,-161.133,0.000
1673144898.571,71.777,-610.352,-42.480,64.941,0.000
1673144898.575,167.480,71.777,-43.945,174.805,0.000
1673144898.579,-89.355,-277.832,-61.523,-2.930,0.000
1673144898.583,-243.652,-952.637,-65.918,-116.211,0.000
1673144898.587,-8.301,-1000.000,-51.758,46.875,0.000
1673144898.591,189.453,-163.086,-40.039,182.129,0.000
1673144898.595,0.977,353.027,-54.688,43.945,0.000
1673144898.599,-233.398,-754.883,-68.359,-161.133,0.000
1673144898.603,-87.402,-1000.000,-48.340,-68.848,0.000
1673144898.607,162.598,255.371,-29.297,166.504,0.000
1673144898.610,69.824,664.062,-45.898,111.816,0.000
1673144898.614,-201.172,-487.305,-69.824,-131.836,0.000
1673144898.618,-159.180,-1000.000,-58.105,-124.512,0.000
1673144898.622,120.117,-361.328,-41.504,101.074,0.000
1673144898.626,131.836,210.938,-51.758,149.902,0.000
1673144898.630,-147.949,-566.406,-68.848,-61.523,0.000
1673144898.634,-219.727,-1000.000,-63.477,-158.691,0.000
1673144898.638,66.406,-399.902,-41.016,29.785,0.000
1673144898.642,186.523,654.785,-42.480,146.484,0.000
1673144898.646,-72.266,134.766,-65.918,-28.809,0.000
1673144898.650,-246.582,-1000.000,-69.336,-190.918,0.000
1673144898.653,-35.645,-657.227,-50.781,-55.176,0.000
1673144898.657,171.875,449.219,-44.434,131.836,0.000
1673144898.661,4.883,235.352,-57.617,27.344,0.000
1673144898.665,-229.004,-876.465,-63.477,-178.223,0.000
1673144898.669,-101.074,-1000.000,-51.270,-85.938,0.000
1673144898.673,153.320,-167.969,-42.969,130.859,0.000
1673144898.677,79.590,12.207,-56.641,104.004,0.000
1673144898.681,-206.543,-943.848,-63.965,-121.094,0.000
1673144898.685,-182.129,-990.234,-54.199,-168.457,0.000
1673144898.689,118.652,-82.031,-44.434,46.387,0.000
1673144898.692,153.320,287.109,-49.805,114.258,0.000
1673144898.696,-126.465,-298.828,-66.895,-81.055,0.000
1673144898.700,-223.633,-931.152,-65.430,-173.828,0.000
1673144898.704,41.016,-561.523,-47.852,17.090,0.000
1673144898.708,195.312,305.176,-44.434,167.969,0.000
1673144898.712,-25.879,102.539,-60.059,4.883,0.000
1673144898.716,-219.727,-877.930,-66.895,-173.828,0.000
1673144898.720,-36.133,-985.352,-54.199,-32.715,0.000
1673144898.724,186.035,-613.770,-48.828,170.410,0.000
1673144898.728,55.664,-278.320,-52.734,61.523,0.000
1673144898.732,-190.430,-723.145,-66.406,-176.758,0.000
1673144898.735,-108.398,-1000.000,-55.176,-123.535,0.000
1673144898.739,171.875,-99.121,-33.203,103.027,0.000
1673144898.743,130.859,717.773,-46.875,89.355,0.000
1673144898.747,-158.691,-173.828,-71.777,-142.578,0.000
1673144898.751,-174.805,-1000.000,-70.312,-181.641,0.000
1673144898.755,106.445,-251.953,-49.316,49.316,0.000
1673144898.759,173.828,733.887,-48.828,163.574,0.000
1673144898.763,-95.703,-177.246,-69.824,-39.062,0.000
1673144898.767,-225.098,-1000.000,-70.801,-202.637,0.000
1673144898.771,23.438,-635.254,-43.457,-35.156,0.000
1673144898.775,200.195,574.707,-40.039,128.418,0.000
1673144898.778,-22.461,405.273,-68.848,-15.137,0.000
1673144898.782,-247.070,-865.234,-80.566,-208.008,0.000
1673144898.786,-73.730,-887.207,-59.082,-102.051,0.000
1673144898.790,167.969,121.582,-48.828,105.469,0.000
1673144898.794,49.805,379.883,-56.152,44.434,0.000
1673144898.798,-218.262,-751.465,-65.430,-155.762,0.000
1673144898.802,-154.297,-1000.000,-58.594,-138.672,0.000
1673144898.806,132.324,36.621,-44.922,68.359,0.000
1673144898.810,117.676,274.902,-58.594,79.102,0.000
1673144898.814,-177.734,-790.527,-80.566,-126.953,0.000
1673144898.817,-207.520,-1000.000,-62.012,-153.809,0.000
1673144898.821,16.602,-725.098,-49.316,-13.184,0.000
1673144898.825,69.336,-278.320,-46.387,54.199,0.000
1673144898.829,-21.484,-168.457,-48.828,-12.695,0.000
1673144898.833,-109.375,-624.023,-59.082,-126.953,0.000
1673144898.837,-64.453,-579.590,-53.711,-86.426,0.000
1673144898.841,61.035,-133.301,-46.387,42.969,0.000
1673144898.845,28.809,-153.809,-50.781,21.484,0.000
1673144898.849,-117.188,-561.523,-58.105,-84.473,0.000
1673144898.853,-109.375,-588.379,-51.270,-84.473,0.000
1673144898.857,22.949,-552.246,-45.410,23.926,0.000
1673144898.860,33.691,-464.355,-46.387,60.059,0.000
1673144898.864,-103.027,-281.738,-54.688,-68.359,0.000
1673144898.868,-125.488,-525.879,-54.199,-109.863,0.000
1673144898.872,-4.883,-690.430,-46.387,2.930,0.000
1673144898.876,43.457,-113.770,-48.828,55.664,0.000
1673144898.880,-53.711,21.973,-52.734,-27.832,0.000
1673144898.884,-130.859,-657.715,-50.781,-95.215,0.000
1673144898.888,-41.504,-835.449,-48.828,-18.555,0.000
1673144898.892,64.941,-95.215,-41.016,81.055,0.000
1673144898.896,-4.883,149.414,-41.016,40.039,0.000
1673144898.899,-120.605,-599.609,-50.293,-71.777,0.000
1673144898.903,-82.031,-984.863,-46.875,-45.898,0.000
1673144898.907,50.293,-465.820,-38.574,65.918,0.000
1673144898.911,54.199,-131.836,-41.016,46.387,0.000
1673144898.915,-95.215,-693.359,-47.852,-64.941,0.000
1673144898.919,-106.934,-934.082,-43.457,-73.242,0.000
1673144898.923,38.086,-249.512,-29.785,58.594,0.000
1673144898.927,56.641,253.418,-34.668,85.938,0.000
1673144898.931,-74.707,-308.105,-54.688,-40.527,0.000
1673144898.935,-110.840,-945.801,-54.688,-90.820,0.000
1673144898.939,10.742,-445.312,-41.992,4.883,0.000
1673144898.942,77.637,255.371,-45.898,91.309,0.000
1673144898.946,0.000,-178.711,-61.035,16.602,0.000
1673144898.950,-100.586,-1000.000,-68.359,-114.258,0.000
1673144898.954,-40.527,-829.590,-49.805,-50.781,0.000
1673144898.958,63.965,-199.707,-43.945,73.242,0.000
1673144898.962,11.719,-375.977,-57.617,34.668,0.000
1673144898.966,-111.328,-791.992,-59.082,-101.562,0.000
1673144898.970,-86.426,-594.727,-54.199,-93.750,0.000
1673144898.974,36.621,-122.559,-52.246,31.738,0.000
1673144898.978,44.922,-383.789,-60.547,51.270,0.000
1673144898.982,-133.301,-872.070,-67.871,-106.445,0.000
1673144898.985,-137.695,-847.168,-58.594,-121.094,0.000
1673144898.989,139.160,-13.184,-41.992,107.910,0.000
1673144898.993,110.840,210.449,-46.387,122.070,0.000
1673144898.997,-185.547,-757.812,-65.430,-111.816,0.000
1673144899.001,-193.359,-1000.000,-58.105,-175.293,0.000
1673144899.005,92.773,-331.543,-43.457,36.133,0.000
1673144899.009,152.344,21.484,-51.758,117.676,0.000
1673144899.013,-104.492,-393.555,-64.941,-79.102,0.000
1673144899.017,-216.309,-936.035,-63.965,-198.730,0.000
1673144899.021,27.832,-777.344,-51.758,-18.066,0.000
1673144899.024,201.172,-191.406,-43.457,151.367,0.000
1673144899.028,-8.301,92.773,-52.246,-0.977,0.000
1673144899.032,-218.262,-801.270,-62.500,-166.992,0.000
1673144899.036,-54.688,-1000.000,-51.758,-51.758,0.000
1673144899.040,169.922,136.230,-40.039,129.395,0.000
1673144899.044,56.152,277.344,-50.781,80.566,0.000
1673144899.048,-248.535,-864.258,-63.477,-144.531,0.000
1673144899.052,-213.867,-1000.000,-50.781,-135.254,0.000
1673144899.056,189.453,292.480,-29.785,157.715,0.000
1673144899.060,164.062,982.910,-45.898,140.625,0.000
1673144899.064,-296.387,-403.320,-77.637,-200.195,0.000
1673144899.067,-304.199,-1000.000,-71.289,-237.305,0.000
1673144899.071,172.852,-222.168,-27.344,95.703,0.000
1673144899.075,275.879,924.805,-26.855,227.539,0.000
1673144899.079,-188.965,106.445,-66.406,-98.633,0.000
1673144899.083,-367.188,-1000.000,-66.406,-259.766,0.000
1673144899.087,50.781,-490.234,-33.203,28.809,0.000
1673144899.091,289.062,685.059,-30.273,194.824,0.000
1673144899.095,-48.828,150.391,-60.547,-24.414,0.000
1673144899.099,-354.004,-1000.000,-69.336,-262.695,0.000
1673144899.103,-60.547,-945.801,-39.062,-84.473,0.000
1673144899.106,307.617,570.801,-27.832,201.172,0.000
1673144899.110,97.168,751.465,-63.965,79.102,0.000
1673144899.114,-329.590,-835.449,-80.078,-234.863,0.000
1673144899.118,-229.492,-1000.000,-52.734,-181.152,0.000
1673144899.122,221.680,360.352,-34.668,156.250,0.000
1673144899.126,191.895,819.336,-54.199,174.805,0.000
1673144899.130,-267.090,-496.582,-77.148,-141.602,0.000
1673144899.134,-317.383,-1000.000,-65.430,-241.211,0.000
1673144899.138,138.184,-399.902,-39.062,51.270,0.000
1673144899.142,269.531,533.691,-48.828,193.359,0.000
1673144899.146,-159.668,-110.352,-74.219,-89.844,0.000
1673144899.149,-373.047,-1000.000,-69.824,-283.203,0.000
1673144899.153,15.625,-556.152,-41.016,-26.855,0.000
1673144899.157,310.059,412.598,-38.574,214.355,0.000
1673144899.161,-9.766,125.000,-53.223,13.672,0.000
1673144899.165,-364.746,-865.723,-59.570,-265.625,0.000
1673144899.169,-121.582,-961.914,-37.598,-120.117,0.000
1673144899.173,275.879,316.406,-24.902,194.824,0.000
1673144899.177,111.328,784.180,-45.410,91.309,0.000
1673144899.181,-322.266,-590.332,-64.453,-225.586,0.000
1673144899.185,-236.816,-1000.000,-52.734,-181.152,0.000
1673144899.189,219.238,-361.328,-25.391,141.113,0.000
1673144899.192,234.375,718.750,-31.250,171.875,0.000
1673144899.196,-206.055,-362.793,-60.059,-155.762,0.000
1673144899.200,-321.289,-1000.000,-57.617,-251.953,0.000
1673144899.204,108.398,-597.168,-30.273,78.125,0.000
1673144899.208,303.223,786.133,-31.738,231.934,0.000
1673144899.212,-97.656,357.422,-67.871,-72.266,0.000
1673144899.216,-356.445,-1000.000,-73.242,-274.902,0.000
1673144899.220,-2.930,-668.945,-46.875,-22.949,0.000
1673144899.224,306.152,817.871,-41.504,228.516,0.000
1673144899.228,21.484,657.715,-69.824,24.902,0.000
1673144899.231,-355.469,-827.637,-85.938,-259.766,0.000
1673144899.235,-151.367,-1000.000,-59.082,-127.930,0.000
1673144899.239,277.344,238.281,-35.156,185.547,0.000
1673144899.243,153.809,864.258,-48.828,136.230,0.000
1673144899.247,-296.387,-577.148,-80.078,-187.500,0.000
1673144899.251,-250.488,-1000.000,-62.988,-196.289,0.000
1673144899.255,212.402,-31.250,-24.414,151.855,0.000
1673144899.259,261.719,898.438,-35.645,233.887,0.000
1673144899.263,-200.195,-335.449,-68.359,-101.074,0.000
1673144899.267,-332.031,-1000.000,-65.918,-249.512,0.000
1673144899.271,115.234,-279.297,-37.109,30.762,0.000
1673144899.274,299.805,818.848,-38.086,208.496,0.000
1673144899.278,-70.801,-119.629,-70.312,-27.832,0.000
1673144899.282,-285.156,-1000.000,-68.848,-206.543,0.000
1673144899.286,-73.730,-770.996,-46.387,-57.129,0.000
1673144899.290,162.598,-165.039,-50.293,127.441,0.000
1673144899.294,59.570,-466.309,-67.383,57.129,0.000
1673144899.298,-229.492,-967.773,-74.707,-183.105,0.000
1673144899.302,-170.898,-943.359,-62.988,-154.785,0.000
1673144899.306,230.469,217.773,-37.109,192.383,0.000
1673144899.310,166.504,866.699,-44.922,158.203,0.000
1673144899.313,-300.781,-437.500,-74.707,-209.473,0.000
1673144899.317,-293.457,-1000.000,-65.918,-227.539,0.000
1673144899.321,165.039,-265.137,-36.133,97.168,0.000
1673144899.325,258.301,534.668,-40.527,193.848,0.000
1673144899.329,-178.711,-362.793,-62.500,-103.027,0.000
1673144899.333,-350.586,-1000.000,-61.035,-250.977,0.000
1673144899.337,69.824,-927.246,-37.598,47.852,0.000
1673144899.341,316.406,186.523,-26.855,261.230,0.000
1673144899.345,-41.504,460.449,-56.152,12.207,0.000
1673144899.349,-370.605,-933.594,-70.312,-249.023,0.000
1673144899.353,-102.051,-953.125,-36.133,-50.293,0.000
1673144899.356,283.691,614.258,-16.602,245.117,0.000
1673144899.360,87.891,836.914,-41.504,85.938,0.000
1673144899.364,-332.520,-701.660,-60.547,-236.816,0.000
1673144899.368,-182.129,-1000.000,-41.504,-156.738,0.000
1673144899.372,252.930,20.996,-20.508,166.504,0.000
1673144899.376,199.707,803.223,-33.203,152.344,0.000
1673144899.380,-251.465,-378.418,-62.500,-184.082,0.000
1673144899.384,-302.246,-1000.000,-58.594,-245.117,0.000
1673144899.388,167.480,-32.227,-21.973,95.215,0.000
1673144899.392,312.500,979.004,-28.809,245.605,0.000
1673144899.396,-136.719,25.879,-68.359,-78.125,0.000
1673144899.399,-363.281,-1000.000,-64.453,-273.926,0.000
1673144899.403,33.691,-606.445,-33.691,20.996,0.000
1673144899.407,311.523,619.141,-33.203,228.027,0.000
1673144899.411,-27.832,280.762,-58.594,5.859,0.000
1673144899.415,-379.395,-965.820,-67.383,-270.996,0.000
1673144899.419,-120.605,-1000.000,-45.898,-124.512,0.000
1673144899.423,293.457,193.848,-23.926,186.035,0.000
1673144899.427,133.301,463.867,-48.828,102.051,0.000
1673144899.431,-328.125,-895.996,-69.336,-206.543,0.000
1673144899.435,-253.906,-1000.000,-52.734,-192.383,0.000
1673144899.438,208.008,190.918,-35.645,132.812,0.000
1673144899.442,212.402,837.891,-47.363,177.734,0.000
1673144899.446,-241.211,-299.316,-73.242,-163.086,0.000
1673144899.450,-320.801,-1000.000,-66.895,-270.020,0.000
1673144899.454,134.766,-245.605,-41.992,50.293,0.000
1673144899.458,299.805,778.320,-37.598,216.797,0.000
1673144899.462,-112.793,-23.926,-65.430,-62.012,0.000
1673144899.466,-377.441,-1000.000,-76.660,-290.039,0.000
1673144899.470,-26.855,-810.059,-50.293,-55.664,0.000
1673144899.474,307.617,-92.773,-47.852,207.031,0.000
1673144899.478,24.414,-46.387,-64.941,40.527,0.000
1673144899.481,-352.051,-891.602,-74.707,-228.027,0.000
1673144899.485,-142.090,-1000.000,-53.223,-134.277,0.000
1673144899.489,288.574,338.379,-26.367,163.086,0.000
1673144899.493,165.039,942.383,-47.852,126.465,0.000
1673144899.497,-299.805,-560.547,-74.707,-190.918,0.000
1673144899.501,-267.090,-1000.000,-55.176,-203.125,0.000
1673144899.505,204.590,104.980,-26.367,128.418,0.000
1673144899.509,252.441,949.707,-41.992,183.594,0.000
1673144899.513,-203.613,-279.297,-79.102,-144.043,0.000
1673144899.517,-338.379,-1000.000,-74.707,-246.582,0.000
1673144899.520,83.008,-459.961,-35.645,63.965,0.000
1673144899.524,300.293,868.652,-28.809,219.238,0.000
1673144899.528,-81.055,417.480,-65.430,-37.598,0.000
1673144899.532,-362.305,-987.793,-77.148,-261.719,0.000
1673144899.536,-33.691,-766.602,-42.969,-58.594,0.000
1673144899.540,292.480,753.906,-30.273,209.473,0.000
1673144899.544,41.016,715.332,-60.059,62.988,0.000
1673144899.548,-343.750,-833.008,-79.590,-237.305,0.000
1673144899.552,-175.293,-1000.000,-48.828,-133.789,0.000
1673144899.556,262.695,439.453,-25.391,209.473,0.000
1673144899.560,181.641,735.840,-46.387,155.273,0.000
1673144899.563,-274.414,-733.887,-71.289,-185.547,0.000
1673144899.567,-285.156,-1000.000,-50.781,-210.938,0.000
1673144899.571,171.875,-293.945,-21.484,118.164,0.000
1673144899.575,258.789,678.223,-25.391,230.469,0.000
1673144899.579,-186.523,-159.180,-50.293,-78.613,0.000
1673144899.583,-344.727,-1000.000,-50.781,-254.395,0.000
1673144899.587,69.824,-403.320,-25.391,15.625,0.000
1673144899.591,303.711,823.730,-26.855,229.492,0.000
1673144899.595,-56.641,361.328,-50.293,2.441,0.000
1673144899.599,-364.258,-960.938,-53.223,-260.254,0.000
1673144899.603,-62.988,-808.105,-34.668,-68.848,0.000
1673144899.606,313.477,220.215,-36.133,211.914,0.000
1673144899.610,82.520,128.906,-55.664,66.895,0.000
1673144899.614,-345.703,-798.828,-69.336,-244.141,0.000
1673144899.618,-214.355,-1000.000,-50.293,-157.715,0.000
1673144899.622,236.328,-19.531,-26.855,173.340,0.000
1673144899.626,195.312,786.621,-42.969,150.391,0.000
1673144899.630,-273.438,-437.012,-69.336,-182.129,0.000
1673144899.634,-306.152,-1000.000,-61.523,-245.605,0.000
1673144899.638,163.574,-344.727,-31.738,77.148,0.000
1673144899.642,268.555,851.074,-31.738,194.824,0.000
1673144899.645,-176.758,115.234,-60.059,-111.328,0.000
1673144899.649,-389.160,-1000.000,-63.965,-285.156,0.000
1673144899.653,10.742,-765.137,-33.691,4.883,0.000
1673144899.657,303.711,634.277,-23.438,232.422,0.000
1673144899.661,-25.879,589.355,-54.199,-3.418,0.000
1673144899.665,-366.211,-924.316,-68.359,-273.438,0.000
1673144899.669,-119.141,-985.840,-43.945,-92.773,0.000
1673144899.673,270.020,545.898,-28.320,200.684,0.000
1673144899.677,99.609,825.684,-53.223,82.031,0.000
1673144899.681,-322.754,-681.152,-74.219,-240.234,0.000
1673144899.685,-224.121,-1000.000,-57.617,-203.125,0.000
1673144899.688,231.445,116.699,-27.832,143.066,0.000
1673144899.692,217.773,943.359,-37.109,181.641,0.000
1673144899.696,-238.281,-337.402,-70.801,-144.531,0.000
1673144899.700,-240.234,-1000.000,-60.547,-200.195,0.000
1673144899.704,169.922,-361.328,-26.367,66.406,0.000
1673144899.708,277.344,819.336,-32.227,182.129,0.000
1673144899.712,-124.512,-3.906,-70.312,-83.984,0.000
1673144899.716,-378.418,-1000.000,-66.406,-267.090,0.000
1673144899.720,-10.254,-631.836,-27.832,-25.879,0.000
1673144899.724,308.594,746.582,-20.996,212.891,0.000
1673144899.727,19.043,409.180,-49.316,41.992,0.000
1673144899.731,-336.914,-958.984,-63.965,-250.977,0.000
1673144899.735,-118.164,-911.133,-43.945,-126.953,0.000
1673144899.739,287.598,453.613,-28.809,194.824,0.000
1673144899.743,153.320,630.371,-47.363,139.648,0.000
1673144899.747,-304.688,-782.227,-64.941,-186.035,0.000
1673144899.751,-266.602,-1000.000,-49.805,-191.406,0.000
1673144899.755,201.172,24.902,-32.227,136.719,0.000
1673144899.759,238.770,151.855,-44.434,190.918,0.000
1673144899.763,-221.191,-590.332,-61.523,-131.348,0.000
1673144899.767,-335.938,-1000.000,-59.570,-263.184,0.000
1673144899.770,101.074,-464.355,-34.668,35.156,0.000
1673144899.774,318.359,817.871,-31.738,219.727,0.000
1673144899.778,-69.824,415.527,-62.012,-46.875,0.000
1673144899.782,-372.559,-969.238,-74.219,-280.762,0.000
1673144899.786,-38.086,-873.047,-44.922,-61.523,0.000
1673144899.790,313.965,584.961,-29.297,226.074,0.000
1673144899.794,38.086,347.168,-60.059,41.504,0.000
1673144899.798,-355.469,-919.434,-74.707,-268.066,0.000
1673144899.802,-171.387,-1000.000,-53.711,-153.320,0.000
1673144899.806,264.160,-139.648,-29.785,173.828,0.000
1673144899.810,173.828,881.836,-47.852,145.996,0.000
1673144899.813,-294.434,-416.016,-76.172,-187.012,0.000
1673144899.817,-294.434,-1000.000,-62.988,-211.426,0.000
1673144899.821,178.711,93.750,-33.203,124.023,0.000
1673144899.825,252.930,990.234,-40.039,205.078,0.000
1673144899.829,-206.055,-71.289,-71.777,-113.281,0.000
1673144899.833,-366.211,-1000.000,-66.406,-280.273,0.000
1673144899.837,68.848,-451.660,-30.273,2.441,0.000
1673144899.841,317.383,696.777,-31.250,221.680,0.000
1673144899.845,-62.500,108.887,-69.824,-18.555,0.000
1673144899.849,-376.465,-1000.000,-83.496,-278.809,0.000
1673144899.852,-66.406,-872.559,-40.039,-83.008,0.000
1673144899.856,304.688,409.668,-25.879,207.520,0.000
1673144899.860,94.238,544.434,-53.711,74.219,0.000
1673144899.864,-312.012,-844.727,-64.941,-218.262,0.000
1673144899.868,-191.895,-1000.000,-50.781,-155.273,0.000
1673144899.872,250.000,399.902,-27.344,160.156,0.000
1673144899.876,199.219,880.371,-46.387,165.527,0.000
1673144899.880,-277.832,-516.602,-70.312,-170.898,0.000
1673144899.884,-310.059,-1000.000,-57.617,-236.328,0.000
1673144899.888,167.969,-341.797,-32.715,83.008,0.000
1673144899.892,283.691,419.922,-38.574,208.008,0.000
1673144899.895,-154.297,-645.996,-60.059,-83.008,0.000
1673144899.899,-348.633,-1000.000,-51.758,-244.629,0.000
1673144899.903,38.086,-433.105,-25.879,11.719,0.000
1673144899.907,302.734,580.078,-23.438,227.539,0.000
1673144899.911,-26.367,269.531,-47.363,12.695,0.000
1673144899.915,-351.074,-891.113,-54.199,-264.160,0.000
1673144899.919,-111.816,-922.363,-31.250,-84.961,0.000
1673144899.923,270.020,333.496,-15.625,217.285,0.000
1673144899.927,104.492,750.977,-37.109,97.656,0.000
1673144899.931,-319.824,-591.309,-52.734,-224.609,0.000
1673144899.934,-223.633,-1000.000,-35.645,-183.105,0.000
1673144899.938,229.980,-608.398,-16.113,156.738,0.000
1673144899.942,218.750,431.152,-21.484,190.918,0.000
1673144899.946,-244.629,-418.457,-52.734,-152.344,0.000
1673144899.950,-318.359,-1000.000,-45.410,-253.418,0.000
1673144899.954,149.414,-218.262,-14.648,75.195,0.000
1673144899.958,311.035,927.246,-27.344,222.168,0.000
1673144899.962,-123.535,160.156,-50.293,-69.824,0.000
1673144899.966,-358.398,-1000.000,-49.316,-251.465,0.000
1673144899.970,27.344,-619.141,-22.461,-21.484,0.000
1673144899.974,332.520,831.543,-14.648,209.473,0.000
1673144899.977,23.926,678.223,-41.504,26.367,0.000
1673144899.981,-340.332,-864.746,-58.594,-253.906,0.000
1673144899.985,-119.141,-951.660,-29.785,-120.605,0.000
1673144899.989,288.086,611.816,-8.789,200.684,0.000
1673144899.993,138.672,957.520,-38.574,146.484,0.000
1673144899.997,-312.988,-631.348,-65.430,-180.176,0.000
1673144900.001,-262.207,-1000.000,-44.922,-190.430,0.000
1673144900.005,200.684,201.660,-15.625,136.719,0.000
1673144900.009,241.699,948.730,-29.785,192.383,0.000
1673144900.013,-212.402,-432.617,-62.012,-137.695,0.000
1673144900.017,-328.125,-1000.000,-52.246,-256.836,0.000
1673144900.020,108.887,-387.207,-21.484,68.359,0.000
1673144900.024,308.594,604.004,-18.066,239.746,0.000
1673144900.028,-85.449,-202.148,-43.457,-33.691,0.000
1673144900.032,-357.422,-1000.000,-53.711,-268.066,0.000
1673144900.036,-19.043,-776.367,-32.715,-47.363,0.000
1673144900.040,309.570,341.309,-26.855,245.117,0.000
1673144900.044,49.316,294.922,-46.387,53.223,0.000
1673144900.048,-340.820,-903.809,-59.082,-269.531,0.000
1673144900.052,-162.109,-941.406,-38.086,-158.691,0.000
1673144900.056,271.484,232.422,-23.438,165.039,0.000
1673144900.059,170.898,624.512,-40.527,120.605,0.000
1673144900.063,-289.062,-500.977,-61.523,-197.266,0.000
1673144900.067,-281.738,-1000.000,-52.734,-214.355,0.000
1673144900.071,182.617,-150.879,-30.273,95.215,0.000
1673144900.075,259.277,612.793,-33.691,187.012,0.000
1673144900.079,-189.941,-340.820,-58.105,-124.023,0.000
1673144900.083,-348.633,-1000.000,-55.176,-258.301,0.000
1673144900.087,62.988,-725.586,-24.902,42.480,0.000
1673144900.091,315.918,626.465,-14.648,226.074,0.000
1673144900.095,-47.363,456.543,-46.387,-22.949,0.000
1673144900.099,-377.930,-947.266,-62.012,-266.602,0.000
1673144900.102,-71.289,-1000.000,-33.691,-63.965,0.000
1673144900.106,300.781,443.359,-13.672,224.121,0.000
1673144900.110,69.336,796.387,-38.574,92.285,0.000
1673144900.114,-333.008,-773.926,-64.453,-225.098,0.000
1673144900.118,-193.848,-1000.000,-46.875,-176.758,0.000
1673144900.122,171.387,-108.887,-33.691,108.398,0.000
1673144900.126,143.066,361.816,-49.316,130.371,0.000
1673144900.130,-143.555,-308.105,-73.242,-104.980,0.000
1673144900.134,-185.059,-1000.000,-68.359,-196.289,0.000
1673144900.138,70.312,-537.109,-43.945,3.906,0.000
1673144900.141,169.922,586.914,-44.434,121.094,0.000
1673144900.145,-66.406,70.312,-64.941,-54.199,0.000
1673144900.149,-221.191,-1000.000,-67.383,-174.316,0.000
1673144900.153,-5.859,-544.434,-43.457,-3.906,0.000
1673144900.157,185.059,616.211,-39.062,140.625,0.000
1673144900.161,-10.742,240.234,-58.105,4.883,0.000
1673144900.165,-245.605,-935.547,-67.871,-186.523,0.000
1673144900.169,-62.500,-881.836,-55.176,-66.895,0.000
1673144900.173,184.082,-37.109,-48.340,123.535,0.000
1673144900.177,91.309,101.074,-65.918,63.477,0.000
1673144900.181,-189.453,-784.180,-74.707,-129.883,0.000
1673144900.184,-171.875,-991.211,-61.035,-147.461,0.000
1673144900.188,124.023,-154.297,-45.898,62.012,0.000
1673144900.192,149.414,-0.977,-53.223,122.559,0.000
1673144900.196,-130.859,-696.289,-65.430,-101.562,0.000
1673144900.200,-210.938,-948.730,-60.547,-172.852,0.000
1673144900.204,44.922,-441.895,-53.711,33.203,0.000
1673144900.208,169.922,305.664,-52.734,131.348,0.000
1673144900.212,-59.082,72.266,-61.523,-34.180,0.000
1673144900.216,-239.258,-891.113,-65.430,-179.688,0.000
1673144900.220,-23.926,-928.223,-49.805,-34.180,0.000
1673144900.224,198.242,-220.703,-47.363,141.602,0.000
1673144900.227,27.344,-43.945,-62.012,32.715,0.000
1673144900.231,-220.215,-694.824,-68.359,-171.875,0.000
1673144900.235,-111.328,-1000.000,-54.199,-87.891,0.000
1673144900.239,149.414,-556.641,-38.574,142.090,0.000
1673144900.243,90.332,334.961,-45.898,104.980,0.000
1673144900.247,-177.734,-531.738,-69.824,-120.117,0.000
1673144900.251,-167.969,-1000.000,-63.477,-152.832,0.000
1673144900.255,98.633,-141.602,-47.852,53.223,0.000
1673144900.259,148.438,668.945,-53.711,124.023,0.000
1673144900.263,-121.094,-290.039,-67.383,-63.965,0.000
1673144900.266,-231.445,-1000.000,-62.500,-182.129,0.000
1673144900.270,20.996,-437.988,-40.039,-19.531,0.000
1673144900.274,166.016,687.988,-33.691,136.719,0.000
1673144900.278,-60.059,364.258,-52.246,-11.719,0.000
1673144900.282,-250.488,-904.785,-69.824,-172.363,0.000
1673144900.286,-64.941,-809.570,-48.828,-37.598,0.000
1673144900.290,175.293,448.730,-29.297,139.648,0.000
1673144900.294,43.945,553.711,-55.664,43.457,0.000
1673144900.298,-218.262,-768.066,-76.172,-154.297,0.000
1673144900.302,-132.812,-1000.000,-60.547,-109.863,0.000
1673144900.306,138.184,102.051,-45.410,94.727,0.000
1673144900.309,94.238,325.195,-61.523,85.449,0.000
1673144900.313,-109.375,-754.395,-73.730,-94.238,0.000
1673144900.317,-126.465,-995.117,-61.523,-120.117,0.000
1673144900.321,-28.809,-687.012,-51.758,-15.625,0.000
1673144900.325,41.504,-372.559,-51.758,77.637,0.000
1673144900.329,-20.508,-722.168,-57.129,7.812,0.000
1673144900.333,-115.234,-804.688,-54.199,-119.141,0.000
1673144900.337,-62.500,-500.488,-49.316,-48.828,0.000
1673144900.341,55.176,-136.230,-52.246,57.617,0.000
1673144900.345,11.230,7.812,-53.711,18.555,0.000
1673144900.348,-123.535,-381.348,-57.129,-104.492,0.000
1673144900.352,-100.586,-615.234,-58.594,-106.445,0.000
1673144900.356,26.855,-500.000,-52.246,20.996,0.000
1673144900.360,17.578,-467.773,-52.734,22.949,0.000
1673144900.364,-113.281,-646.973,-61.035,-94.727,0.000
1673144900.368,-119.141,-669.434,-61.523,-93.262,0.000
1673144900.372,17.090,-732.422,-54.688,24.902,0.000
1673144900.376,58.594,-336.426,-45.898,46.387,0.000
1673144900.380,-55.664,25.879,-51.758,-60.059,0.000
1673144900.384,-118.164,-549.316,-57.129,-113.770,0.000
1673144900.388,-27.832,-774.902,-51.270,-22.461,0.000
1673144900.391,48.828,-93.750,-45.410,59.570,0.000
1673144900.395,-14.648,90.820,-51.758,-6.348,0.000
1673144900.399,-118.652,-537.109,-61.523,-116.211,0.000
1673144900.403,-80.078,-974.609,-56.152,-74.219,0.000
1673144900.407,31.250,-376.953,-46.387,54.199,0.000
1673144900.411,22.949,78.125,-51.270,55.176,0.000
1673144900.415,-89.355,-713.867,-59.570,-62.988,0.000
1673144900.419,-89.844,-1000.000,-54.199,-77.637,0.000
1673144900.423,36.621,-200.195,-40.527,68.848,0.000
1673144900.427,41.016,300.293,-47.363,82.031,0.000
1673144900.431,-88.867,-349.609,-62.500,-58.594,0.000
1673144900.434,-113.281,-809.570,-59.082,-98.145,0.000
1673144900.438,15.137,-301.758,-51.758,-3.418,0.000
1673144900.442,68.848,194.824,-52.734,43.457,0.000
1673144900.446,-42.969,-336.426,-63.477,-47.363,0.000
1673144900.450,-104.492,-1000.000,-66.406,-119.629,0.000
1673144900.454,-7.324,-839.355,-49.316,-36.133,0.000
1673144900.458,75.684,34.180,-41.504,92.773,0.000
1673144900.462,-0.488,-168.945,-52.734,34.668,0.000
1673144900.466,-118.652,-979.004,-52.246,-95.215,0.000
1673144900.470,-74.707,-861.328,-46.387,-50.293,0.000
1673144900.473,50.781,-140.137,-45.898,51.758,0.000
1673144900.477,40.527,-70.801,-49.805,46.875,0.000
1673144900.481,-89.844,-453.125,-54.688,-70.801,0.000
1673144900.485,-101.562,-602.539,-53.223,-97.656,0.000
1673144900.489,30.273,-256.836,-48.828,23.926,0.000
1673144900.493,43.945,-107.910,-53.223,53.223,0.000
1673144900.497,-78.125,-616.699,-64.941,-55.664,0.000
1673144900.501,-97.168,-872.559,-60.547,-105.957,0.000
1673144900.505,-0.977,-601.074,-54.199,-9.277,0.000
1673144900.509,34.180,-778.320,-61.523,85.449,0.000
1673144900.513,-59.082,-443.359,-57.617,-6.836,0.000
1673144900.516,-131.348,-464.355,-57.129,-128.418,0.000
1673144900.520,-32.715,-750.488,-51.270,-44.922,0.000
1673144900.524,68.359,-340.820,-43.945,67.871,0.000
1673144900.528,6.836,9.277,-53.223,15.137,0.000
1673144900.532,-121.582,-366.211,-62.012,-106.934,0.000
1673144900.536,-89.355,-793.945,-56.152,-82.031,0.000
1673144900.540,42.969,-290.527,-44.434,47.852,0.000
1673144900.544,22.949,-62.988,-47.852,53.223,0.000
1673144900.548,-101.074,-680.176,-56.152,-62.500,0.000
1673144900.552,-99.609,-1000.000,-56.641,-66.406,0.000
1673144900.555,22.949,-630.859,-45.898,33.691,0.000
1673144900.559,54.688,171.387,-40.039,67.383,0.000
1673144900.563,-61.523,-19.531,-56.641,-45.410,0.000
1673144900.567,-108.398,-846.191,-61.523,-122.070,0.000
1673144900.571,3.418,-501.465,-46.875,-18.066,0.000
1673144900.575,72.754,293.457,-46.387,76.660,0.000
1673144900.579,-8.301,-27.344,-56.152,16.602,0.000
1673144900.583,-117.188,-813.477,-54.688,-93.262,0.000
1673144900.587,-54.688,-660.645,-46.875,-50.293,0.000
1673144900.591,55.176,-234.863,-41.992,84.473,0.000
1673144900.595,7.812,-335.449,-49.316,51.270,0.000
1673144900.598,-111.816,-902.344,-60.547,-91.309,0.000
1673144900.602,-79.590,-992.676,-46.387,-96.191,0.000
1673144900.606,51.758,-134.277,-37.598,26.855,0.000
1673144900.610,41.504,150.879,-47.852,40.039,0.000
1673144900.614,-83.984,-458.984,-55.664,-64.941,0.000
1673144900.618,-104.492,-649.902,-50.781,-88.379,0.000
1673144900.622,11.230,-187.500,-44.922,7.324,0.000
1673144900.626,52.734,69.824,-48.340,58.105,0.000
1673144900.630,-57.129,-242.188,-50.781,-40.039,0.000
1673144900.634,-120.117,-672.363,-53.223,-113.770,0.000
1673144900.638,-22.949,-678.223,-44.434,-29.297,0.000
1673144900.641,67.871,-534.180,-48.340,62.012,0.000
1673144900.645,-6.836,-676.270,-55.664,10.742,0.000
1673144900.649,-120.605,-589.355,-51.758,-107.910,0.000
1673144900.653,-60.059,-545.410,-48.828,-68.848,0.000
1673144900.657,69.336,-277.832,-46.387,74.219,0.000
1673144900.661,32.715,8.789,-53.223,40.039,0.000
1673144900.665,-117.188,-325.195,-67.383,-106.934,0.000
1673144900.669,-115.234,-728.516,-66.406,-94.727,0.000
1673144900.673,29.297,-564.453,-55.664,28.320,0.000
1673144900.677,37.109,46.387,-57.617,35.156,0.000
1673144900.680,-88.379,-185.059,-69.824,-73.242,0.000
1673144900.684,-115.234,-959.961,-73.730,-92.285,0.000
1673144900.688,-12.695,-993.652,-66.406,24.902,0.000
1673144900.692,49.316,-362.305,-53.711,71.777,0.000
1673144900.696,-28.809,-383.301,-58.105,-37.109,0.000
1673144900.700,-103.516,-959.473,-59.082,-108.398,0.000
1673144900.704,-21.484,-746.094,-45.410,-31.250,0.000
1673144900.708,67.383,34.180,-43.945,50.781,0.000
1673144900.712,-10.742,156.738,-50.293,7.812,0.000
1673144900.716,-128.418,-601.562,-55.664,-89.844,0.000
1673144900.720,-70.801,-781.738,-43.457,-48.340,0.000
1673144900.723,68.359,22.461,-29.785,77.148,0.000
1673144900.727,57.617,188.477,-37.598,69.336,0.000
1673144900.731,-76.172,-669.434,-52.246,-73.730,0.000
1673144900.735,-76.172,-1000.000,-47.852,-97.656,0.000
1673144900.739,52.734,-280.273,-39.551,43.945,0.000
1673144900.743,56.641,248.535,-41.992,70.312,0.000
1673144900.747,-77.148,-529.785,-48.828,-55.176,0.000
1673144900.751,-131.836,-1000.000,-41.992,-97.656,0.000
1673144900.755,-19.043,-356.934,-28.320,-1.953,0.000
1673144900.759,65.430,171.387,-34.668,68.848,0.000
1673144900.763,-13.184,-293.945,-47.363,-11.719,0.000
1673144900.766,-98.633,-773.438,-44.922,-99.609,0.000
1673144900.770,-25.879,-448.730,-37.109,-36.621,0.000
1673144900.774,73.242,33.203,-41.504,64.453,0.000
1673144900.778,27.832,-464.355,-47.852,29.785,0.000
1673144900.782,-91.797,-952.148,-44.922,-95.703,0.000
1673144900.786,-91.309,-707.031,-42.480,-84.961,0.000
1673144900.790,34.180,-483.398,-44.922,58.105,0.000
1673144900.794,37.109,-674.316,-47.852,44.434,0.000
1673144900.798,-87.402,-597.656,-51.758,-114.746,0.000
1673144900.802,-94.238,-654.785,-56.641,-122.070,0.000
1673144900.805,21.973,-537.598,-47.363,20.020,0.000
1673144900.809,47.852,-3.418,-43.945,48.828,0.000
1673144900.813,-60.547,-97.656,-52.246,-70.312,0.000
1673144900.817,-103.027,-541.016,-51.758,-128.906,0.000
1673144900.821,-0.488,-602.539,-48.828,-34.668,0.000
1673144900.825,63.477,-376.953,-46.387,53.711,0.000
1673144900.829,-35.645,-266.602,-47.852,-3.418,0.000
1673144900.833,-138.672,-497.070,-49.316,-111.816,0.000
1673144900.837,-73.242,-922.363,-52.246,-61.035,0.000
1673144900.841,47.852,-597.168,-43.457,50.781,0.000
1673144900.845,22.949,134.766,-44.922,5.371,0.000
1673144900.848,-101.074,-358.887,-63.477,-111.816,0.000
1673144900.852,-95.215,-921.387,-60.059,-89.844,0.000
1673144900.856,38.574,-226.074,-46.387,29.785,0.000
1673144900.860,48.340,92.773,-53.223,38.574,0.000
1673144900.864,-76.660,-613.281,-63.477,-77.637,0.000
1673144900.868,-84.961,-906.738,-55.176,-92.285,0.000
1673144900.872,28.320,-657.227,-49.805,17.090,0.000
1673144900.876,68.359,-161.621,-48.340,69.824,0.000
1673144900.880,-51.270,-206.055,-55.176,-12.695,0.000
1673144900.884,-116.699,-927.734,-63.477,-81.055,0.000
1673144900.887,-9.277,-578.613,-47.363,-23.926,0.000
1673144900.891,76.660,224.121,-40.039,59.570,0.000
1673144900.895,2.441,-60.059,-50.781,0.488,0.000
1673144900.899,-106.445,-745.605,-60.059,-114.258,0.000
1673144900.903,-47.852,-609.375,-50.293,-59.570,0.000
1673144900.907,63.477,59.082,-41.504,48.340,0.000
1673144900.911,28.320,52.734,-51.758,10.742,0.000
1673144900.915,-105.469,-655.273,-59.570,-93.750,0.000
1673144900.919,-111.816,-1000.000,-55.176,-77.637,0.000
1673144900.923,25.879,-551.270,-40.039,41.992,0.000
1673144900.927,25.391,-329.102,-46.387,55.176,0.000
1673144900.930,-97.168,-807.617,-56.641,-87.402,0.000
1673144900.934,-118.164,-684.570,-49.805,-128.906,0.000
1673144900.938,-13.672,-211.914,-48.340,-8.301,0.000
1673144900.942,51.758,-105.469,-47.852,54.688,0.000
1673144900.946,-39.062,-168.945,-53.711,-45.410,0.000
1673144900.950,-125.488,-463.379,-54.688,-112.305,0.000
1673144900.954,-39.062,-526.367,-46.387,-24.414,0.000
1673144900.958,62.988,-182.617,-46.387,56.152,0.000
1673144900.962,-4.395,-11.719,-52.734,-3.418,0.000
1673144900.966,-117.188,-710.449,-56.641,-86.914,0.000
1673144900.970,-68.359,-1000.000,-51.758,-41.016,0.000
1673144900.973,52.246,-922.363,-47.363,46.875,0.000
1673144900.977,24.902,-502.441,-44.922,30.273,0.000
1673144900.981,-102.051,-341.797,-55.664,-99.121,0.000
1673144900.985,-91.309,-712.402,-58.594,-97.656,0.000
1673144900.989,36.133,-503.906,-43.457,37.109,0.000
1673144900.993,33.203,189.453,-42.969,62.988,0.000
1673144900.997,-89.844,-55.176,-54.688,-51.270,0.000
1673144901.001,-109.375,-777.344,-49.316,-88.379,0.000
1673144901.005,17.090,-527.832,-36.621,36.133,0.000
1673144901.009,74.707,125.977,-37.109,100.098,0.000
1673144901.012,-35.156,-219.238,-45.898,-15.625,0.000
1673144901.016,-125.488,-984.375,-47.363,-121.582,0.000
1673144901.020,-56.152,-814.941,-34.180,-47.852,0.000
1673144901.024,43.457,117.676,-31.738,62.500,0.000
1673144901.028,9.277,105.957,-49.316,15.625,0.000
1673144901.032,-111.328,-806.641,-57.617,-102.051,0.000
1673144901.036,-93.262,-759.766,-44.922,-69.336,0.000
1673144901.040,44.922,32.227,-29.297,64.941,0.000
1673144901.044,30.273,174.805,-36.133,86.426,0.000
1673144901.048,-103.516,-607.422,-51.270,-40.039,0.000
1673144901.052,-103.027,-746.582,-48.340,-67.383,0.000
1673144901.055,23.438,-143.066,-42.480,38.574,0.000
1673144901.059,58.594,-157.227,-47.363,59.570,0.000
1673144901.063,-46.387,-793.457,-54.688,-39.551,0.000
1673144901.067,-103.516,-952.148,-50.293,-108.887,0.000
1673144901.071,-20.508,-658.203,-51.758,-26.855,0.000
1673144901.075,41.016,-108.887,-52.246,54.688,0.000
1673144901.079,-44.434,-113.770,-57.617,-24.414,0.000
1673144901.083,-141.113,-644.043,-61.035,-118.652,0.000
1673144901.087,-68.359,-754.883,-53.223,-67.383,0.000
1673144901.091,62.012,-164.551,-49.805,53.711,0.000
1673144901.094,27.832,25.391,-51.758,47.852,0.000
1673144901.098,-102.539,-403.320,-58.594,-73.242,0.000
1673144901.102,-82.031,-590.332,-53.711,-70.312,0.000
1673144901.106,65.430,-533.203,-48.828,53.711,0.000
1673144901.110,58.594,-532.227,-50.781,50.293,0.000
1673144901.114,-86.426,-355.957,-57.617,-85.938,0.000
1673144901.118,-104.980,-587.891,-60.547,-99.121,0.000
1673144901.122,26.367,-614.258,-47.852,22.949,0.000
1673144901.126,72.266,-38.574,-43.457,62.500,0.000
1673144901.130,-35.156,35.156,-50.781,-29.297,0.000
1673144901.134,-92.773,-544.434,-51.270,-86.914,0.000
1673144901.137,-18.555,-791.992,-48.340,1.953,0.000
1673144901.141,51.758,-289.551,-46.875,97.656,0.000
1673144901.145,-28.320,49.316,-48.340,8.789,0.000
1673144901.149,-136.230,-493.164,-52.246,-128.418,0.000
1673144901.153,-72.266,-979.004,-53.223,-78.125,0.000
1673144901.157,74.707,-537.598,-41.016,45.898,0.000
1673144901.161,58.105,-92.285,-43.457,32.227,0.000
1673144901.165,-85.449,-733.398,-58.594,-83.496,0.000
1673144901.169,-67.871,-937.012,-45.898,-75.195,0.000
1673144901.173,62.988,-161.133,-34.180,62.988,0.000
1673144901.177,67.871,207.031,-39.551,80.566,0.000
1673144901.180,-65.918,-365.234,-48.340,-48.340,0.000
1673144901.184,-101.074,-880.371,-45.410,-84.473,0.000
1673144901.188,21.973,-356.934,-31.738,19.043,0.000
1673144901.192,66.406,196.289,-37.109,87.891,0.000
1673144901.196,-34.180,-314.941,-51.270,14.648,0.000
1673144901.200,-100.586,-1000.000,-51.270,-90.332,0.000
1673144901.204,-22.461,-835.449,-43.457,-42.480,0.000
1673144901.208,71.777,30.273,-40.527,66.406,0.000
1673144901.212,9.277,-174.805,-53.223,9.277,0.000
1673144901.216,-98.633,-857.910,-60.059,-107.910,0.000
1673144901.219,-53.711,-569.824,-51.270,-61.523,0.000
1673144901.223,69.824,33.203,-46.875,64.453,0.000
1673144901.227,49.805,-323.242,-54.199,58.105,0.000
1673144901.231,-164.551,-1000.000,-60.059,-117.188,0.000
1673144901.235,-111.816,-867.188,-51.270,-102.539,0.000
1673144901.239,154.785,145.508,-37.109,137.695,0.000
1673144901.243,82.520,296.387,-46.875,118.164,0.000
1673144901.247,-197.754,-748.047,-62.988,-152.832,0.000
1673144901.251,-184.082,-1000.000,-43.457,-165.527,0.000
1673144901.255,96.680,-510.742,-24.902,78.613,0.000
1673144901.259,134.766,-31.250,-35.156,135.254,0.000
1673144901.262,-138.184,-317.383,-51.270,-75.195,0.000
1673144901.266,-219.727,-919.434,-56.152,-173.828,0.000
1673144901.270,49.316,-667.969,-43.945,22.461,0.000
1673144901.274,172.363,-171.875,-41.504,152.832,0.000
1673144901.278,-65.430,-41.504,-53.711,-26.855,0.000
1673144901.282,-243.164,-832.520,-64.453,-207.031,0.000
1673144901.286,-49.316,-1000.000,-51.758,-63.965,0.000
1673144901.290,167.969,159.180,-42.969,157.227,0.000
1673144901.294,20.020,233.887,-59.570,54.688,0.000
1673144901.298,-227.051,-891.113,-66.895,-176.758,0.000
1673144901.301,-124.512,-1000.000,-51.758,-133.301,0.000
1673144901.305,138.672,-37.598,-33.203,77.148,0.000
1673144901.309,102.539,430.176,-41.992,79.102,0.000
1673144901.313,-164.551,-429.688,-59.082,-127.441,0.000
1673144901.317,-193.359,-1000.000,-59.570,-154.297,0.000
1673144901.321,97.656,-282.715,-36.621,64.453,0.000
1673144901.325,160.645,712.402,-33.691,135.742,0.000
1673144901.329,-136.230,48.340,-61.523,-72.266,0.000
1673144901.333,-239.746,-989.746,-63.477,-181.152,0.000
1673144901.337,19.043,-479.004,-39.062,16.602,0.000
1673144901.341,181.152,317.383,-32.715,166.504,0.000
1673144901.344,-24.902,-139.160,-45.410,13.672,0.000
1673144901.348,-236.816,-979.004,-61.523,-185.547,0.000
1673144901.352,-57.617,-936.035,-43.945,-65.918,0.000
1673144901.356,186.523,348.145,-31.250,135.254,0.000
1673144901.360,54.199,512.695,-58.105,52.734,0.000
1673144901.364,-208.496,-854.004,-74.707,-155.273,0.000
1673144901.368,-133.789,-954.102,-53.223,-127.930,0.000
1673144901.372,138.184,251.953,-36.621,83.984,0.000
1673144901.376,112.305,622.070,-47.363,95.215,0.000
1673144901.380,-181.641,-448.242,-57.129,-109.863,0.000
1673144901.384,-219.238,-1000.000,-49.316,-158.203,0.000
1673144901.387,57.129,-523.926,-40.527,28.320,0.000
1673144901.391,156.250,160.156,-42.969,104.492,0.000
1673144901.395,-89.844,-227.051,-51.758,-70.801,0.000
1673144901.399,-239.258,-974.121,-48.340,-178.711,0.000
1673144901.403,-2.441,-554.688,-28.809,-12.695,0.000
1673144901.407,193.359,118.652,-33.691,155.273,0.000
1673144901.411,-2.930,-153.809,-45.410,23.438,0.000
1673144901.415,-230.469,-803.711,-52.246,-175.293,0.000
1673144901.419,-84.473,-967.773,-44.922,-76.660,0.000
1673144901.423,166.992,-102.051,-32.715,130.859,0.000
1673144901.426,77.637,488.281,-41.504,94.238,0.000
1673144901.430,-205.566,-392.578,-55.664,-121.094,0.000
1673144901.434,-160.645,-1000.000,-46.387,-139.160,0.000
1673144901.438,130.859,-556.152,-24.902,85.449,0.000
1673144901.442,135.254,416.504,-28.320,116.211,0.000
1673144901.446,-144.531,-355.957,-49.316,-115.723,0.000
1673144901.450,-198.730,-1000.000,-49.805,-185.059,0.000
1673144901.454,85.449,-800.781,-28.809,40.527,0.000
1673144901.458,191.406,472.656,-19.531,161.133,0.000
1673144901.462,-81.543,335.449,-41.016,-28.320,0.000
1673144901.466,-237.305,-958.008,-48.828,-191.406,0.000
1673144901.469,-20.508,-677.734,-29.297,-43.945,0.000
1673144901.473,174.316,492.676,-26.855,125.488,0.000
1673144901.477,-1.465,166.504,-50.293,21.484,0.000
1673144901.481,-246.094,-947.266,-64.941,-170.898,0.000
1673144901.485,-117.188,-880.371,-44.434,-122.559,0.000
1673144901.489,151.367,310.059,-30.273,98.145,0.000
1673144901.493,70.801,623.535,-47.852,80.566,0.000
1673144901.497,-220.215,-621.094,-65.430,-135.254,0.000
1673144901.501,-180.176,-1000.000,-49.805,-140.625,0.000
1673144901.505,129.883,43.457,-34.180,68.848,0.000
1673144901.508,143.555,743.164,-45.898,114.258,0.000
1673144901.512,-148.926,-393.555,-67.871,-91.797,0.000
1673144901.516,-223.145,-1000.000,-64.453,-189.453,0.000
1673144901.520,55.176,-275.879,-41.016,24.902,0.000
1673144901.524,194.336,596.680,-40.039,157.227,0.000
1673144901.528,-63.965,-301.758,-59.082,-28.809,0.000
1673144901.532,-250.000,-1000.000,-62.500,-194.824,0.000
1673144901.536,-41.992,-776.367,-46.387,-59.570,0.000
1673144901.540,195.312,14.648,-31.250,153.320,0.000
1673144901.544,52.246,-313.965,-47.852,58.105,0.000
1673144901.548,-224.609,-1000.000,-62.988,-175.781,0.000
1673144901.551,-121.582,-811.523,-50.293,-114.258,0.000
1673144901.555,155.273,79.590,-37.109,104.004,0.000
1673144901.559,95.215,520.020,-45.410,82.520,0.000
1673144901.563,-193.848,-305.664,-60.547,-110.840,0.000
1673144901.567,-190.430,-1000.000,-54.199,-137.695,0.000
1673144901.571,110.352,-382.812,-36.621,58.105,0.000
1673144901.575,148.438,214.355,-40.527,137.207,0.000
1673144901.579,-128.906,-457.031,-62.988,-82.520,0.000
1673144901.583,-226.562,-1000.000,-60.059,-195.801,0.000
1673144901.587,32.715,-948.730,-42.480,-12.207,0.000
1673144901.591,178.223,-254.395,-36.133,128.906,0.000
1673144901.594,-58.105,201.660,-46.875,-12.207,0.000
1673144901.598,-249.512,-793.945,-54.688,-182.129,0.000
1673144901.602,-80.078,-1000.000,-44.434,-62.012,0.000
1673144901.606,86.426,-168.945,-34.180,96.680,0.000
1673144901.610,51.758,278.320,-39.551,50.781,0.000
1673144901.614,-73.242,-242.676,-60.059,-84.473,0.000
1673144901.618,-88.867,-861.816,-56.152,-98.633,0.000
1673144901.622,40.039,-723.633,-37.598,29.297,0.000
1673144901.626,74.219,-158.691,-35.645,82.031,0.000
1673144901.630,-52.734,-276.367,-49.805,-21.484,0.000
1673144901.633,-122.070,-966.797,-54.688,-96.191,0.000
1673144901.637,-11.719,-524.414,-37.598,-16.113,0.000
1673144901.641,70.801,175.781,-39.551,68.359,0.000
1673144901.645,0.000,-170.410,-49.316,25.879,0.000
1673144901.649,-127.930,-911.621,-52.734,-121.094,0.000
1673144901.653,1.465,-553.223,-38.574,-38.086,0.000
1673144901.657,169.434,547.363,-35.645,135.742,0.000
1673144901.661,-7.324,195.801,-57.129,20.020,0.000
1673144901.665,-151.367,-697.266,-65.430,-104.492,0.000
1673144901.669,-89.844,-985.352,-59.082,-65.918,0.000
1673144901.673,30.762,-399.902,-48.828,31.250,0.000
1673144901.676,34.180,-127.441,-54.688,38.086,0.000
1673144901.680,-89.355,-813.965,-58.105,-71.777,0.000
1673144901.684,-94.238,-723.145,-52.734,-96.680,0.000
1673144901.688,20.020,-227.539,-48.340,3.418,0.000
1673144901.692,46.387,-133.301,-52.246,56.641,0.000
1673144901.696,-59.082,-257.324,-55.176,-34.180,0.000
1673144901.700,-121.582,-717.285,-60.059,-113.770,0.000
1673144901.704,-24.414,-894.531,-56.152,-25.391,0.000
1673144901.708,75.684,-317.871,-47.363,97.168,0.000
1673144901.712,-8.789,-24.902,-50.781,15.625,0.000
1673144901.715,-131.348,-737.305,-57.129,-108.398,0.000
1673144901.719,-78.613,-1000.000,-49.316,-52.246,0.000
1673144901.723,50.293,-897.949,-49.805,55.176,0.000
1673144901.727,41.504,-510.742,-45.898,33.691,0.000
1673144901.731,-83.496,-338.379,-49.316,-76.660,0.000
1673144901.735,-79.590,-694.336,-54.688,-90.820,0.000
1673144901.739,49.805,-363.281,-49.805,24.902,0.000
1673144901.743,47.363,210.449,-53.223,47.852,0.000
1673144901.747,-82.520,-110.840,-60.059,-72.266,0.000
1673144901.751,-117.676,-724.121,-58.594,-107.422,0.000
1673144901.755,-0.977,-619.141,-51.270,15.137,0.000
1673144901.758,59.082,-108.887,-51.758,75.195,0.000
1673144901.762,-40.527,-343.262,-62.988,-45.410,0.000
1673144901.766,-117.676,-990.723,-65.918,-122.070,0.000
1673144901.770,-34.180,-805.176,-51.270,-25.879,0.000
1673144901.774,65.918,100.586,-42.480,63.965,0.000
1673144901.778,2.930,277.832,-50.781,5.371,0.000
1673144901.782,-111.328,-708.496,-61.523,-99.609,0.000
1673144901.786,-62.500,-886.719,-50.293,-66.895,0.000
1673144901.790,49.805,22.949,-45.410,39.551,0.000
1673144901.794,32.715,202.637,-54.199,34.668,0.000
1673144901.798,-94.238,-618.164,-63.965,-81.543,0.000
1673144901.801,-110.840,-757.812,-58.594,-84.961,0.000
1673144901.805,20.996,-146.973,-48.828,35.645,0.000
1673144901.809,54.199,-200.195,-54.688,79.102,0.000
1673144901.813,-68.848,-823.242,-62.500,-32.715,0.000
1673144901.817,-112.793,-1000.000,-52.246,-119.629,0.000
1673144901.821,-3.906,-669.922,-41.504,-19.043,0.000
1673144901.825,66.895,-69.336,-38.574,66.406,0.000
1673144901.829,-6.348,-186.035,-45.898,-10.254,0.000
1673144901.833,-104.004,-552.246,-47.363,-107.910,0.000
1673144901.837,-36.133,-460.938,-39.062,-42.969,0.000
1673144901.840,82.031,-53.223,-34.668,97.168,0.000
1673144901.844,26.855,-18.555,-39.551,43.457,0.000
1673144901.848,-101.074,-503.906,-50.781,-101.562,0.000
1673144901.852,-73.242,-555.664,-47.363,-84.473,0.000
1673144901.856,50.293,-465.332,-41.504,50.781,0.000
1673144901.860,28.320,-525.391,-40.039,51.758,0.000
1673144901.864,-100.586,-407.227,-50.293,-77.148,0.000
1673144901.868,-109.863,-782.227,-58.594,-92.773,0.000
1673144901.872,25.879,-743.652,-49.805,0.000,0.000
1673144901.876,76.172,-37.598,-47.852,39.551,0.000
1673144901.880,-39.062,33.691,-59.570,-49.805,0.000
1673144901.883,-102.051,-612.793,-62.500,-96.680,0.000
1673144901.887,-24.414,-786.133,-55.664,6.836,0.000
1673144901.891,45.898,-58.105,-54.199,62.500,0.000
1673144901.895,-27.832,120.605,-61.523,-25.879,0.000
1673144901.899,-125.000,-523.926,-68.359,-115.723,0.000
1673144901.903,-64.941,-977.539,-61.523,-61.523,0.000
1673144901.907,48.828,-373.047,-43.945,65.918,0.000
1673144901.911,16.113,100.098,-45.410,57.617,0.000
1673144901.915,-111.816,-742.676,-58.594,-80.566,0.000
1673144901.919,-104.492,-1000.000,-56.152,-74.707,0.000
1673144901.922,31.250,-386.230,-45.898,47.363,0.000
1673144901.926,39.551,-27.832,-52.246,44.922,0.000
1673144901.930,-86.426,-409.180,-53.711,-75.684,0.000
1673144901.934,-108.887,-857.910,-44.434,-97.656,0.000
1673144901.938,14.160,-374.023,-41.504,15.137,0.000
1673144901.942,67.383,198.242,-48.340,62.500,0.000
1673144901.946,-51.758,-232.910,-59.570,-44.434,0.000
1673144901.950,-122.559,-1000.000,-64.941,-113.281,0.000
1673144901.954,-22.949,-776.855,-56.152,1.953,0.000
1673144901.958,57.129,76.660,-53.223,76.172,0.000
1673144901.962,-2.441,-220.215,-66.406,13.672,0.000
1673144901.965,-96.680,-908.691,-63.477,-66.406,0.000
1673144901.969,-59.082,-571.777,-51.270,-42.969,0.000
1673144901.973,60.059,50.293,-51.270,54.688,0.000
1673144901.977,40.039,-175.293,-61.035,30.273,0.000
1673144901.981,-92.773,-825.684,-69.824,-98.633,0.000
1673144901.985,-86.914,-745.605,-60.547,-92.773,0.000
1673144901.989,51.758,-177.246,-49.316,36.133,0.000
1673144901.993,61.035,-156.250,-60.547,55.664,0.000
1673144901.997,-72.754,-735.352,-66.895,-57.129,0.000
1673144902.001,-105.469,-983.398,-62.012,-109.375,0.000
1673144902.005,0.977,-747.070,-54.688,3.906,0.000
1673144902.008,53.223,-790.039,-55.664,86.426,0.000
1673144902.012,-46.387,-468.262,-57.617,-15.137,0.000
1673144902.016,-120.605,-480.469,-64.941,-132.324,0.000
1673144902.020,-20.996,-633.301,-57.617,-65.918,0.000
1673144902.024,55.664,-116.211,-48.340,46.387,0.000
1673144902.028,-18.555,183.594,-55.664,16.602,0.000
1673144902.032,-124.023,-430.176,-65.430,-98.633,0.000
1673144902.036,-83.984,-843.262,-68.359,-74.707,0.000
1673144902.040,50.293,-264.648,-56.641,62.988,0.000
1673144902.044,33.691,-149.414,-57.129,54.199,0.000
1673144902.047,-90.332,-764.160,-70.801,-103.516,0.000
1673144902.051,-85.938,-1000.000,-68.359,-110.840,0.000
1673144902.055,28.320,-636.230,-56.152,25.391,0.000
1673144902.059,65.430,174.805,-52.246,53.711,0.000
1673144902.063,-44.434,-69.824,-64.941,-75.195,0.000
1673144902.067,-102.539,-870.117,-70.312,-128.418,0.000
1673144902.071,-3.418,-529.297,-55.664,-6.348,0.000
1673144902.075,64.453,271.973,-49.805,70.312,0.000
1673144902.079,-24.902,49.805,-68.848,-21.484,0.000
1673144902.083,-120.117,-807.129,-71.777,-115.723,0.000
1673144902.087,-45.410,-714.844,-56.152,-38.086,0.000
1673144902.090,64.941,-247.559,-54.688,78.125,0.000
1673144902.094,15.625,-324.219,-62.988,25.879,0.000
1673144902.098,-103.027,-895.996,-71.289,-93.262,0.000
1673144902.102,-70.312,-1000.000,-59.570,-65.430,0.000
1673144902.106,52.246,-156.738,-46.875,51.758,0.000
1673144902.110,52.246,131.348,-49.805,40.039,0.000
1673144902.114,-70.801,-470.215,-57.617,-86.914,0.000
1673144902.118,-109.863,-619.141,-57.129,-105.469,0.000
1673144902.122,6.348,-147.461,-48.828,14.160,0.000
1673144902.126,43.457,39.062,-52.734,37.598,0.000
1673144902.129,-78.125,-328.125,-57.617,-79.590,0.000
1673144902.133,-136.719,-639.160,-59.082,-117.188,0.000
1673144902.137,-30.273,-621.582,-54.199,0.000,0.000
1673144902.141,50.293,-456.055,-54.688,75.195,0.000
1673144902.145,-35.645,-757.324,-61.035,-7.324,0.000
1673144902.149,-134.277,-924.316,-64.453,-133.301,0.000
1673144902.153,-75.684,-581.543,-60.547,-78.613,0.000
1673144902.157,47.363,-185.059,-54.199,48.828,0.000
1673144902.161,29.297,32.715,-58.594,19.043,0.000
1673144902.165,-98.633,-310.059,-61.035,-106.934,0.000
1673144902.169,-103.027,-621.582,-55.176,-91.797,0.000
1673144902.172,32.227,-397.949,-49.805,35.156,0.000
1673144902.176,45.898,123.047,-48.340,36.133,0.000
1673144902.180,-81.543,-121.094,-52.734,-75.195,0.000
1673144902.184,-83.984,-926.758,-49.316,-78.613,0.000
1673144902.188,26.855,-979.980,-46.875,49.316,0.000
1673144902.192,54.199,-269.043,-54.688,58.594,0.000
1673144902.196,-46.387,-301.758,-63.477,-63.965,0.000
1673144902.200,-120.117,-796.387,-60.059,-127.441,0.000
1673144902.204,-36.621,-816.406,-47.852,-36.621,0.000
1673144902.208,54.199,-176.270,-44.434,65.918,0.000
1673144902.212,-10.254,161.621,-53.711,2.441,0.000
1673144902.215,-123.535,-572.266,-62.012,-107.422,0.000
1673144902.219,-79.590,-846.191,-52.734,-64.453,0.000
1673144902.223,36.621,-15.137,-46.387,65.918,0.000
1673144902.227,10.742,268.066,-55.176,49.805,0.000
1673144902.231,-123.047,-626.465,-65.430,-81.543,0.000
1673144902.235,-114.258,-931.641,-57.129,-61.035,0.000
1673144902.239,30.273,-132.324,-42.969,51.758,0.000
1673144902.243,53.711,313.477,-50.293,30.273,0.000
1673144902.247,-80.078,-412.598,-62.500,-87.402,0.000
1673144902.251,-124.023,-837.891,-55.664,-118.652,0.000
1673144902.254,-7.324,-235.840,-41.504,-9.766,0.000
1673144902.258,40.039,87.891,-48.340,43.457,0.000
1673144902.262,-62.988,-422.852,-62.012,-59.570,0.000
1673144902.266,-120.117,-751.953,-60.059,-136.719,0.000
1673144902.270,-19.531,-407.227,-50.293,-52.246,0.000
1673144902.274,55.664,51.758,-47.852,54.688,0.000
1673144902.278,-20.996,-470.703,-48.828,15.137,0.000
1673144902.282,-131.836,-925.293,-46.875,-88.867,0.000
1673144902.286,-76.172,-672.852,-43.457,-65.430,0.000
1673144902.290,60.547,-462.402,-40.527,53.223,0.000
1673144902.294,26.367,-451.660,-46.387,43.945,0.000
1673144902.297,-108.887,-511.230,-54.199,-109.375,0.000
1673144902.301,-103.516,-530.762,-52.246,-111.328,0.000
1673144902.305,26.367,-364.258,-41.504,28.320,0.000
1673144902.309,44.922,-284.180,-38.086,57.617,0.000
1673144902.313,-75.684,-317.383,-46.875,-55.664,0.000
1673144902.317,-109.863,-833.496,-54.199,-113.770,0.000
1673144902.321,4.395,-781.250,-47.363,-12.695,0.000
1673144902.325,53.711,-356.445,-43.457,67.383,0.000
1673144902.329,-47.852,-279.785,-49.805,-7.324,0.000
1673144902.333,-128.418,-584.473,-55.664,-95.703,0.000
1673144902.336,-55.176,-837.402,-52.734,-34.180,0.000
1673144902.340,50.293,-210.449,-44.922,63.965,0.000
1673144902.344,6.836,232.422,-53.711,6.348,0.000
1673144902.348,-113.770,-395.020,-62.500,-93.750,0.000
1673144902.352,-86.914,-940.430,-59.570,-70.312,0.000
1673144902.356,41.016,-348.633,-45.410,35.156,0.000
1673144902.360,40.039,264.648,-48.340,44.434,0.000
1673144902.364,-104.004,-261.230,-62.988,-85.938,0.000
1673144902.368,-125.977,-952.148,-57.617,-111.328,0.000
1673144902.372,84.961,-318.848,-46.387,65.430,0.000
1673144902.376,100.098,216.797,-52.734,84.961,0.000
1673144902.379,-195.312,-704.102,-72.266,-139.648,0.000
1673144902.383,-250.000,-1000.000,-64.941,-196.777,0.000
1673144902.387,185.059,33.691,-35.645,117.188,0.000
1673144902.391,270.020,979.492,-44.922,225.098,0.000
1673144902.395,-191.895,-118.164,-77.637,-104.492,0.000
1673144902.399,-329.590,-1000.000,-68.848,-245.605,0.000
1673144902.403,87.402,-256.348,-36.133,28.809,0.000
1673144902.407,300.781,964.355,-42.480,209.961,0.000
1673144902.411,-80.566,297.363,-72.266,-43.457,0.000
1673144902.415,-370.117,-1000.000,-78.125,-282.227,0.000
1673144902.419,-32.715,-855.957,-49.316,-59.570,0.000
1673144902.422,312.500,386.719,-36.621,218.750,0.000
1673144902.426,58.594,382.812,-63.965,75.195,0.000
1673144902.430,-343.262,-945.312,-76.172,-228.027,0.000
1673144902.434,-175.781,-1000.000,-49.316,-152.344,0.000
1673144902.438,268.066,489.258,-29.297,180.176,0.000
1673144902.442,171.387,648.438,-54.688,177.734,0.000
1673144902.446,-288.574,-859.863,-72.754,-164.062,0.000
1673144902.450,-288.086,-1000.000,-52.734,-239.258,0.000
1673144902.454,177.734,7.812,-32.227,84.473,0.000
1673144902.458,270.508,857.422,-41.504,202.148,0.000
1673144902.461,-180.176,-28.809,-67.871,-102.051,0.000
1673144902.465,-358.398,-1000.000,-64.941,-265.625,0.000
1673144902.469,42.969,-734.863,-37.598,26.367,0.000
1673144902.473,298.828,333.008,-37.598,253.906,0.000
1673144902.477,-26.367,104.980,-64.453,18.555,0.000
1673144902.481,-356.445,-921.875,-72.266,-274.414,0.000
1673144902.485,-91.309,-1000.000,-50.293,-102.539,0.000
1673144902.489,288.574,-61.035,-38.086,195.801,0.000
1673144902.493,90.820,729.004,-49.316,84.473,0.000
1673144902.497,-333.008,-555.176,-68.848,-213.379,0.000
1673144902.501,-218.262,-1000.000,-57.617,-171.875,0.000
1673144902.504,239.258,215.820,-32.227,146.973,0.000
1673144902.508,215.820,963.867,-46.387,150.391,0.000
1673144902.512,-263.184,-466.309,-76.660,-179.688,0.000
1673144902.516,-327.637,-1000.000,-67.383,-243.652,0.000
1673144902.520,131.348,-110.352,-34.180,77.637,0.000
1673144902.524,271.973,958.008,-38.574,216.309,0.000
1673144902.528,-151.855,180.176,-74.707,-71.777,0.000
1673144902.532,-372.070,-1000.000,-77.637,-274.414,0.000
1673144902.536,21.973,-605.957,-37.598,-4.395,0.000
1673144902.540,296.875,805.664,-30.762,229.004,0.000
1673144902.543,-2.441,638.672,-55.176,11.230,0.000
1673144902.547,-272.461,-838.867,-64.453,-219.727,0.000
1673144902.551,-126.465,-926.270,-46.875,-124.023,0.000
1673144902.555,131.348,226.562,-35.156,97.168,0.000
1673144902.559,58.594,258.789,-56.641,72.754,0.000
1673144902.563,-219.727,-811.035,-67.383,-144.043,0.000
1673144902.567,-192.871,-1000.000,-51.270,-134.766,0.000
1673144902.571,94.238,-342.285,-30.762,110.840,0.000
1673144902.575,131.348,171.387,-38.086,152.344,0.000
1673144902.579,-135.742,-699.219,-60.059,-97.656,0.000
1673144902.583,-216.309,-1000.000,-47.852,-193.359,0.000
1673144902.586,55.176,-392.090,-30.762,-0.488,0.000
1673144902.590,197.754,461.426,-34.180,139.648,0.000
1673144902.594,-37.598,-21.973,-54.688,-12.207,0.000
1673144902.598,-228.516,-984.863,-57.617,-177.734,0.000
1673144902.602,-41.504,-652.344,-37.598,-45.898,0.000
1673144902.606,184.570,95.215,-35.156,155.762,0.000
1673144902.610,39.551,-46.387,-48.828,53.711,0.000
1673144902.614,-213.379,-775.391,-61.523,-165.039,0.000
1673144902.618,-114.746,-867.188,-52.734,-99.121,0.000
1673144902.622,151.855,-173.340,-40.527,125.488,0.000
1673144902.626,84.961,95.215,-41.016,104.980,0.000
1673144902.629,-184.570,-474.121,-46.387,-121.094,0.000
1673144902.633,-167.969,-1000.000,-37.109,-146.973,0.000
1673144902.637,84.473,-476.074,-30.273,60.547,0.000
1673144902.641,131.348,570.312,-40.039,125.000,0.000
1673144902.645,-122.559,118.164,-58.594,-71.777,0.000
1673144902.649,-236.816,-984.863,-58.105,-181.641,0.000
1673144902.653,4.395,-882.812,-40.527,-17.090,0.000
1673144902.657,182.617,94.727,-34.180,116.699,0.000
1673144902.661,-23.438,39.062,-49.316,-23.926,0.000
1673144902.665,-243.164,-949.219,-58.594,-172.852,0.000
1673144902.668,-58.594,-998.535,-44.434,-68.359,0.000
1673144902.672,183.105,293.457,-19.531,122.070,0.000
1673144902.676,51.758,720.215,-35.156,54.688,0.000
1673144902.680,-210.938,-569.824,-61.035,-168.457,0.000
1673144902.684,-129.883,-1000.000,-44.434,-132.324,0.000
1673144902.688,149.414,118.164,-31.250,88.867,0.000
1673144902.692,106.934,755.859,-46.387,111.816,0.000
1673144902.696,-172.852,-306.152,-62.012,-72.266,0.000
1673144902.700,-195.312,-1000.000,-48.340,-136.230,0.000
1673144902.704,79.590,-373.047,-20.508,47.363,0.000
1673144902.708,168.945,495.117,-25.391,136.719,0.000
1673144902.711,-94.727,-265.625,-48.340,-53.711,0.000
1673144902.715,-239.258,-1000.000,-44.922,-189.453,0.000
1673144902.719,7.812,-480.469,-23.438,-34.668,0.000
1673144902.723,181.641,618.164,-20.996,135.742,0.000
1673144902.727,-24.902,208.496,-39.551,20.996,0.000
1673144902.731,-235.352,-889.160,-42.480,-167.480,0.000
1673144902.735,-76.660,-750.977,-22.461,-97.168,0.000
1673144902.739,175.781,366.211,-9.766,122.559,0.000
1673144902.743,77.148,289.062,-24.902,65.430,0.000
1673144902.747,-202.637,-851.562,-41.992,-153.809,0.000
1673144902.750,-167.480,-954.590,-34.180,-133.789,0.000
1673144902.754,121.582,-2.441,-24.902,83.008,0.000
1673144902.758,128.418,-162.109,-39.551,107.422,0.000
1673144902.762,-160.156,-773.926,-47.363,-121.094,0.000
1673144902.766,-218.750,-934.082,-38.086,-168.945,0.000
1673144902.770,57.129,-399.902,-21.973,24.414,0.000
1673144902.774,163.086,547.363,-20.996,127.441,0.000
1673144902.778,-88.379,255.371,-35.645,-32.715,0.000
1673144902.782,-240.234,-852.051,-33.691,-181.152,0.000
1673144902.786,-11.230,-775.391,-20.996,-42.480,0.000
1673144902.790,172.363,328.613,-21.973,125.977,0.000
1673144902.793,15.137,222.168,-37.109,24.902,0.000
1673144902.797,-132.812,-770.508,-47.852,-122.559,0.000
1673144902.801,-93.262,-1000.000,-41.016,-94.238,0.000
1673144902.805,23.438,-652.344,-26.367,39.551,0.000
1673144902.809,53.711,172.852,-21.973,66.895,0.000
1673144902.813,-59.082,18.066,-37.598,-62.500,0.000
1673144902.817,-94.238,-855.469,-40.527,-83.008,0.000
1673144902.821,21.484,-729.492,-25.391,31.738,0.000
1673144902.825,72.266,227.539,-21.484,68.848,0.000
1673144902.829,-22.949,178.711,-37.598,-23.926,0.000
1673144902.833,-104.492,-812.500,-44.922,-109.375,0.000
1673144902.836,-49.316,-721.680,-32.227,-35.645,0.000
1673144902.840,46.387,-123.535,-27.832,67.383,0.000
1673144902.844,5.371,-250.488,-38.086,32.715,0.000
1673144902.848,-152.344,-912.598,-53.223,-107.422,0.000
1673144902.852,-70.312,-924.805,-37.598,-49.316,0.000
1673144902.856,163.574,384.277,-17.578,140.137,0.000
1673144902.860,33.203,560.547,-35.156,44.434,0.000
1673144902.864,-220.215,-798.340,-52.734,-172.852,0.000
1673144902.868,-109.863,-929.199,-36.133,-117.676,0.000
1673144902.872,179.688,256.348,-10.742,114.258,0.000
1673144902.875,110.840,479.980,-28.320,101.562,0.000
1673144902.879,-201.660,-572.754,-50.781,-134.277,0.000
1673144902.883,-203.125,-1000.000,-42.969,-151.855,0.000
1673144902.887,78.125,-358.398,-29.297,64.453,0.000
1673144902.891,143.555,161.621,-36.621,109.375,0.000
1673144902.895,-105.469,-731.445,-51.270,-71.777,0.000
1673144902.899,-211.426,-1000.000,-42.969,-185.059,0.000
1673144902.903,23.438,-365.723,-28.320,-19.531,0.000
1673144902.907,181.152,413.574,-30.273,132.812,0.000
1673144902.911,-22.461,219.238,-51.270,-5.371,0.000
1673144902.915,-228.516,-734.863,-56.641,-182.129,0.000
1673144902.918,-66.406,-790.039,-38.086,-65.430,0.000
1673144902.922,164.551,104.980,-32.715,127.930,0.000
1673144902.926,49.316,414.062,-43.457,38.086,0.000
1673144902.930,-205.566,-523.438,-53.223,-162.109,0.000
1673144902.934,-146.484,-1000.000,-52.246,-115.234,0.000
1673144902.938,115.723,-765.137,-42.969,95.215,0.000
1673144902.942,103.027,42.480,-43.457,92.285,0.000
1673144902.946,-156.250,-479.004,-62.500,-127.930,0.000
1673144902.950,-193.359,-1000.000,-61.523,-184.082,0.000
1673144902.954,77.637,-486.328,-44.434,25.391,0.000
1673144902.957,168.457,692.383,-39.551,127.441,0.000
1673144902.961,-95.703,247.559,-52.734,-44.922,0.000
1673144902.965,-235.352,-963.379,-55.664,-179.199,0.000
1673144902.969,-3.906,-623.047,-36.621,-13.672,0.000
1673144902.973,170.410,621.582,-32.715,153.809,0.000
1673144902.977,-20.020,397.949,-48.828,13.184,0.000
1673144902.981,-233.398,-868.652,-62.012,-186.523,0.000
1673144902.985,-78.125,-941.406,-43.945,-86.914,0.000
1673144902.989,165.039,146.973,-25.879,122.559,0.000
1673144902.993,65.918,601.074,-40.527,60.059,0.000
1673144902.997,-189.941,-576.172,-57.129,-139.648,0.000
1673144903.000,-159.180,-1000.000,-57.129,-123.535,0.000
1673144903.004,106.934,88.379,-40.527,100.586,0.000
1673144903.008,110.840,761.719,-47.852,132.812,0.000
1673144903.012,-161.133,-429.199,-66.406,-97.656,0.000
1673144903.016,-213.867,-1000.000,-51.758,-176.270,0.000
1673144903.020,59.570,-266.602,-32.227,24.902,0.000
1673144903.024,174.805,576.660,-34.668,144.531,0.000
1673144903.028,-69.336,-356.934,-57.129,-45.898,0.000
1673144903.032,-220.215,-1000.000,-60.547,-213.867,0.000
1673144903.036,-16.113,-583.008,-47.852,-67.871,0.000
1673144903.040,179.199,55.664,-52.246,108.398,0.000
1673144903.043,16.602,-502.930,-67.871,11.230,0.000
1673144903.047,-231.445,-1000.000,-65.918,-185.547,0.000
1673144903.051,-97.656,-773.438,-47.363,-112.793,0.000
1673144903.055,170.898,149.414,-40.527,106.934,0.000
1673144903.059,83.008,427.734,-53.711,65.430,0.000
1673144903.063,-201.660,-458.008,-67.871,-150.879,0.000
1673144903.067,-168.945,-963.867,-54.688,-148.926,0.000
1673144903.071,113.770,-249.512,-36.133,58.594,0.000
1673144903.075,137.695,208.984,-45.410,122.070,0.000
1673144903.079,-134.766,-532.227,-62.988,-83.008,0.000
1673144903.082,-212.402,-957.520,-61.523,-189.941,0.000
1673144903.086,1.953,-835.938,-55.176,-21.484,0.000
1673144903.090,91.797,-530.273,-51.270,83.984,0.000
1673144903.094,6.836,145.020,-54.688,16.602,0.000
1673144903.098,-113.281,-388.184,-65.430,-100.098,0.000
1673144903.102,-86.426,-954.590,-60.059,-63.477,0.000
1673144903.106,40.527,-159.668,-46.875,59.082,0.000
1673144903.110,30.273,348.633,-53.711,41.016,0.000
1673144903.114,-95.703,-241.211,-62.988,-86.914,0.000
1673144903.118,-93.750,-844.238,-56.152,-104.004,0.000
1673144903.122,30.762,-583.984,-48.340,31.250,0.000
1673144903.125,59.082,-23.438,-47.363,63.477,0.000
1673144903.129,-57.129,-185.547,-56.641,-83.496,0.000
1673144903.133,-109.375,-944.336,-61.523,-126.953,0.000
1673144903.137,0.488,-529.297,-41.504,-0.977,0.000
1673144903.141,64.453,351.562,-41.992,57.129,0.000
1673144903.145,-30.273,49.805,-58.594,-35.156,0.000
1673144903.149,-130.859,-687.988,-62.012,-125.977,0.000
1673144903.153,-59.082,-538.574,-54.199,-59.570,0.000
1673144903.157,63.477,-157.715,-56.152,52.246,0.000
1673144903.161,9.277,-174.316,-62.012,4.395,0.000
1673144903.164,-95.703,-563.965,-63.477,-104.004,0.000
1673144903.168,-44.434,-926.270,-59.082,-66.406,0.000
1673144903.172,57.129,-361.816,-47.363,41.992,0.000
1673144903.176,39.062,-79.102,-49.316,57.617,0.000
1673144903.180,-85.938,-795.898,-48.340,-47.363,0.000
1673144903.184,-109.375,-666.992,-45.410,-84.473,0.000
1673144903.188,23.438,-155.762,-40.527,40.527,0.000
1673144903.192,64.453,-85.938,-39.551,79.590,0.000
1673144903.196,-52.734,-210.449,-49.316,-21.484,0.000
1673144903.200,-109.375,-460.449,-51.758,-86.914,0.000
1673144903.204,-1.953,-390.625,-46.875,-23.926,0.000
1673144903.207,78.125,-136.719,-44.434,61.035,0.000
1673144903.211,-1.465,-237.305,-52.734,17.578,0.000
1673144903.215,-91.309,-804.199,-55.664,-98.633,0.000
1673144903.219,-38.086,-944.336,-46.875,-62.012,0.000
1673144903.223,58.105,-830.566,-44.922,69.824,0.000
1673144903.227,17.090,-571.289,-44.434,63.965,0.000
1673144903.231,-111.328,-401.855,-49.316,-79.590,0.000
1673144903.235,-95.703,-609.375,-48.340,-86.426,0.000
1673144903.239,45.410,-302.246,-36.133,51.270,0.000
1673144903.243,46.387,232.422,-37.598,57.129,0.000
1673144903.247,-91.309,-125.977,-54.199,-52.734,0.000
1673144903.250,-122.559,-730.469,-57.617,-93.750,0.000
1673144903.254,11.719,-455.566,-41.504,-5.371,0.000
1673144903.258,71.289,187.500,-43.457,64.453,0.000
1673144903.262,-48.828,-244.141,-57.617,-22.461,0.000
1673144903.266,-119.629,-1000.000,-58.594,-100.586,0.000
1673144903.270,-42.969,-888.184,-43.457,-7.324,0.000
1673144903.274,63.965,53.711,-32.715,89.355,0.000
1673144903.278,7.324,297.363,-44.434,5.371,0.000
1673144903.282,-190.430,-770.996,-57.617,-156.250,0.000
1673144903.286,-50.781,-716.309,-45.410,-61.523,0.000
1673144903.289,170.898,587.891,-30.273,137.207,0.000
1673144903.293,1.953,531.738,-48.828,45.410,0.000
1673144903.297,-291.992,-832.031,-69.336,-224.121,0.000
1673144903.301,-111.328,-934.570,-43.457,-127.930,0.000
1673144903.305,297.852,622.559,-22.461,197.754,0.000
1673144903.309,130.859,629.883,-45.410,117.188,0.000
1673144903.313,-311.035,-817.871,-73.730,-193.848,0.000
1673144903.317,-229.980,-1000.000,-55.176,-169.434,0.000
1673144903.321,217.285,-54.199,-32.715,145.508,0.000
1673144903.325,225.098,710.938,-44.434,168.945,0.000
1673144903.329,-234.375,-501.465,-64.941,-158.691,0.000
1673144903.332,-330.078,-1000.000,-58.594,-233.398,0.000
1673144903.336,117.676,-110.352,-32.715,96.680,0.000
1673144903.340,275.391,905.762,-40.527,229.004,0.000
1673144903.344,-139.160,61.035,-76.172,-68.359,0.000
1673144903.348,-361.328,-1000.000,-76.172,-255.371,0.000
1673144903.352,-4.395,-605.469,-42.480,0.000,0.000
1673144903.356,294.434,457.520,-32.227,245.117,0.000
1673144903.360,15.625,-19.043,-55.176,43.945,0.000
1673144903.364,-351.074,-977.539,-67.383,-254.883,0.000
1673144903.368,-140.625,-883.301,-46.387,-110.840,0.000
1673144903.371,267.578,347.656,-31.250,193.848,0.000
1673144903.375,82.031,626.953,-50.293,67.383,0.000
1673144903.379,-337.891,-642.578,-65.918,-228.027,0.000
1673144903.383,-245.605,-1000.000,-42.969,-169.922,0.000
1673144903.387,216.309,-134.277,-18.555,151.855,0.000
1673144903.391,245.117,875.977,-31.738,185.547,0.000
1673144903.395,-169.922,-0.977,-58.105,-102.051,0.000
1673144903.399,-273.438,-1000.000,-57.617,-197.266,0.000
1673144903.403,0.488,-865.723,-43.457,-3.906,0.000
1673144903.407,150.879,260.254,-40.039,120.117,0.000
1673144903.411,-49.316,253.906,-53.711,-23.926,0.000
1673144903.414,-230.957,-960.938,-61.523,-183.105,0.000
1673144903.418,-51.758,-882.812,-41.016,-65.430,0.000
1673144903.422,178.223,383.301,-20.996,135.742,0.000
1673144903.426,44.434,624.023,-35.645,57.129,0.000
1673144903.430,-219.727,-575.195,-56.641,-146.484,0.000
1673144903.434,-147.949,-1000.000,-46.387,-103.516,0.000
1673144903.438,129.395,-9.766,-24.414,91.797,0.000
1673144903.442,108.887,787.109,-35.156,83.496,0.000
1673144903.446,-164.062,-278.809,-59.082,-104.004,0.000
1673144903.450,-173.340,-1000.000,-46.387,-145.020,0.000
1673144903.454,98.633,-337.891,-34.668,36.133,0.000
1673144903.457,160.645,790.527,-43.945,128.906,0.000
1673144903.461,-114.258,-30.273,-61.523,-60.547,0.000
1673144903.465,-240.234,-1000.000,-62.500,-181.641,0.000
1673144903.469,7.324,-568.359,-41.016,-23.438,0.000
1673144903.473,192.383,438.477,-33.203,129.883,0.000
1673144903.477,-17.578,-25.391,-55.176,-1.953,0.000
1673144903.481,-238.770,-1000.000,-54.688,-194.336,0.000
1673144903.485,-76.172,-751.465,-35.156,-63.477,0.000
1673144903.489,178.223,294.434,-28.320,142.090,0.000
1673144903.493,79.102,217.285,-37.598,46.387,0.000
1673144903.496,-197.754,-871.094,-53.223,-164.551,0.000
1673144903.500,-148.926,-956.055,-44.922,-144.043,0.000
1673144903.504,136.230,-54.688,-32.715,88.867,0.000
1673144903.508,138.672,72.754,-34.668,117.188,0.000
1673144903.512,-152.344,-450.195,-44.434,-126.465,0.000
1673144903.516,-205.078,-877.930,-43.457,-190.918,0.000
1673144903.520,76.660,-479.004,-36.133,35.645,0.000
1673144903.524,175.781,-110.840,-40.527,153.320,0.000
1673144903.528,-87.402,-190.918,-54.199,-46.875,0.000
1673144903.532,-230.469,-869.629,-58.594,-191.895,0.000
1673144903.536,-11.230,-824.219,-39.062,-26.855,0.000
1673144903.539,169.922,289.551,-28.809,137.695,0.000
1673144903.543,-19.531,27.344,-52.246,0.977,0.000
1673144903.547,-228.516,-969.238,-64.941,-187.500,0.000
1673144903.551,-85.938,-1000.000,-52.246,-88.379,0.000
1673144903.555,172.363,59.082,-39.551,120.605,0.000
1673144903.559,88.379,714.844,-47.363,66.895,0.000
1673144903.563,-197.266,-371.582,-64.941,-141.602,0.000
1673144903.567,-169.922,-1000.000,-59.570,-115.234,0.000
1673144903.571,118.652,-223.633,-33.691,76.660,0.000
1673144903.575,144.043,803.711,-34.180,96.680,0.000
1673144903.579,-157.715,11.719,-59.570,-104.492,0.000
1673144903.582,-230.957,-1000.000,-57.617,-187.012,0.000
1673144903.586,54.199,-367.188,-30.762,17.578,0.000
1673144903.590,178.711,399.414,-32.227,145.508,0.000
1673144903.594,-76.172,-183.594,-51.758,-29.785,0.000
1673144903.598,-260.254,-991.211,-54.199,-187.012,0.000
1673144903.602,-45.898,-849.609,-42.480,-29.297,0.000
1673144903.606,183.105,231.445,-35.645,175.293,0.000
1673144903.610,19.043,402.344,-51.270,68.359,0.000
1673144903.614,-235.352,-841.309,-66.406,-167.480,0.000
1673144903.618,-110.352,-970.703,-46.387,-117.188,0.000
1673144903.621,162.598,256.348,-27.832,102.539,0.000
1673144903.625,98.633,633.301,-42.480,91.309,0.000
1673144903.629,-179.688,-477.539,-55.664,-140.625,0.000
1673144903.633,-171.875,-988.281,-45.410,-144.531,0.000
1673144903.637,44.434,-605.957,-35.645,47.363,0.000
1673144903.641,79.102,-231.445,-35.156,108.398,0.000
1673144903.645,-24.414,-160.156,-37.598,6.836,0.000
1673144903.649,-94.238,-410.156,-35.156,-89.355,0.000
1673144903.653,-22.949,-310.059,-31.738,-24.414,0.000
1673144903.657,83.008,-261.230,-39.062,83.008,0.000
1673144903.661,18.555,-510.742,-40.039,49.316,0.000
1673144903.664,-174.316,-661.133,-43.457,-140.137,0.000
1673144903.668,-80.078,-637.695,-38.086,-87.402,0.000
1673144903.672,155.762,124.512,-32.227,117.676,0.000
1673144903.676,44.434,374.512,-39.062,32.715,0.000
1673144903.680,-195.312,-508.301,-47.363,-160.645,0.000
1673144903.684,-128.418,-1000.000,-51.270,-114.258,0.000
1673144903.688,135.742,-503.418,-40.527,93.262,0.000
1673144903.692,95.703,375.977,-45.410,95.703,0.000
1673144903.696,-175.781,-420.898,-64.941,-106.934,0.000
1673144903.700,-166.016,-1000.000,-62.500,-157.227,0.000
1673144903.703,105.957,-807.129,-46.875,31.250,0.000
